Dividing Wavelength (nm)	Counts (n)	Blue Motor Position (mm): 23.500000	Red Motor Position (mm): 0.000000	
326.493990	2067.611606
326.888308	2067.611606
327.282561	2067.611606
327.676750	2040.351567
328.070874	2043.761907
328.464933	2049.400438
328.858929	2058.217416
329.252859	2068.176215
329.646726	2079.667525
330.040528	2098.032449
330.434265	2113.816302
330.827938	2135.175670
331.221547	2155.645276
331.615091	2175.948523
332.008571	2197.257480
332.401986	2215.594677
332.795338	2238.305075
333.188625	2256.846439
333.581847	2275.211363
333.975006	2293.291461
334.368100	2309.380303
334.761129	2327.157932
335.154095	2343.609738
335.546996	2391.415000
335.939833	2486.962509
336.332606	2495.519868
336.725315	2512.042250
337.117960	2520.266892
337.510540	2531.662420
337.903056	2538.926723
338.295508	2549.896274
338.687896	2553.636810
339.080220	2557.460525
339.472480	2560.714590
339.864676	2565.899417
340.256807	2567.938563
340.648875	2573.050293
341.040879	2572.309244
341.432818	2575.487691
341.824694	2574.439131
342.216506	2573.882084
342.608253	2573.304872
342.999937	2573.685479
343.391557	2574.565160
343.783113	2572.755386
344.174605	2569.929819
344.566033	2570.438976
344.957397	2567.918399
345.348697	2564.008984
345.739934	2564.341700
346.131106	2563.933367
346.522215	2560.069322
346.913260	2557.954558
347.304241	2555.587737
347.695159	2552.968857
348.086012	2555.300391
348.476802	2550.206305
348.867528	2549.177909
349.258191	2545.001313
349.648789	2547.221942
350.039324	2543.189019
350.429796	2546.853938
350.820203	2542.405119
351.210548	2541.805222
351.600828	2543.425953
351.991045	2541.414532
352.381198	2541.674152
352.771288	2541.049049
353.161314	2540.239944
353.551276	2541.505273
353.941175	2536.232226
354.331010	2541.883360
354.720782	2545.981818
355.110490	2547.025337
355.500135	2542.137938
355.889717	2541.076775
356.279235	2542.750438
356.668689	2542.367311
357.058080	2543.788916
357.447408	2545.318906
357.836672	2542.263967
358.225873	2543.529297
358.615010	2545.757487
359.004084	2544.913093
359.393095	2545.734801
359.782043	2549.187992
360.170927	2544.648433
360.559748	2547.968033
360.948505	2546.246478
361.337199	2548.971222
361.725830	2548.651109
362.114398	2549.581202
362.502903	2548.250337
362.891344	2550.390307
363.279722	2551.146480
363.668037	2550.909546
364.056289	2552.757129
364.444478	2554.050185
364.832603	2553.213353
365.220665	2553.951882
365.608665	2554.100596
365.996601	2556.195196
366.384474	2553.609084
366.772284	2553.059598
367.160031	2552.951213
367.547715	2555.801986
367.935336	2553.538508
368.322893	2550.775955
368.710388	2548.149514
369.097820	2552.971378
369.485189	2551.189330
369.872495	2558.614949
370.259738	2554.032541
370.646918	2558.186451
371.034035	2557.337017
371.421090	2556.848025
371.808081	2557.279044
372.195010	2560.575958
372.581875	2557.581513
372.968678	2558.889692
373.355418	2558.839281
373.742096	2559.171997
374.128710	2559.640824
374.515262	2559.073694
374.901751	2560.497820
375.288177	2564.427400
375.674540	2559.839950
376.060841	2562.095866
376.447079	2560.326421
376.833254	2561.443037
377.219367	2560.407080
377.605417	2562.562173
377.991404	2562.352965
378.377329	2561.440516
378.763191	2560.787687
379.148991	2562.252142
379.534727	2565.859087
379.920402	2562.657955
380.306013	2563.643500
380.691563	2565.007133
381.077049	2565.062585
381.462474	2561.911864
381.847835	2564.800445
382.233134	2567.144582
382.618371	2566.300188
383.003545	2563.020918
383.388657	2566.426217
383.773706	2567.663821
384.158693	2563.920764
384.543618	2569.279510
384.928480	2566.080898
385.313280	2567.903275
385.698017	2568.724983
386.082692	2566.756413
386.467305	2569.665159
386.851856	2567.762123
387.236344	2568.094839
387.620770	2566.300188
388.005133	2564.699622
388.389435	2565.821279
388.773674	2565.221382
389.157851	2572.183215
389.541965	2567.091650
389.926018	2571.510221
390.310008	2568.876218
390.693936	2573.277145
391.077802	2572.614234
391.461606	2572.883935
391.845348	2573.415777
392.229027	2571.636250
392.612645	2570.209603
392.996200	2572.606672
393.379694	2573.609862
393.763125	2572.762948
394.146494	2570.176836
394.529801	2574.280335
394.913047	2574.529872
395.296230	2575.661611
395.679351	2573.627506
396.062410	2573.330078
396.445408	2574.918041
396.828343	2573.635067
397.211217	2573.932495
397.594028	2575.371745
397.976778	2575.273442
398.359466	2574.539954
398.742092	2574.451734
399.124656	2573.962742
399.507158	2576.942064
399.889598	2580.077662
400.271977	2576.823597
400.654294	2577.849472
401.036549	2579.470203
401.418742	2574.660942
401.800874	2579.076993
402.182944	2573.884604
402.564952	2580.344843
402.946898	2579.548341
403.328783	2580.014647
403.710606	2577.279822
404.092367	2579.470203
404.474067	2580.148238
404.855705	2578.340984
405.237282	2579.187898
405.618797	2581.058166
406.000250	2578.933320
406.381642	2582.633527
406.762972	2578.003227
407.144240	2578.189750
407.525447	2579.069431
407.906593	2575.951477
408.287677	2579.775193
408.668700	2581.123701
409.049661	2582.895667
409.430560	2583.871130
409.811399	2582.663774
410.192176	2585.902715
410.572891	2583.510688
410.953545	2584.138311
411.334138	2582.827611
411.714669	2583.218301
412.095139	2585.350709
412.475547	2584.914649
412.855894	2583.372056
413.236180	2584.521439
413.616405	2587.185689
413.996568	2583.215780
414.376670	2584.319793
414.756711	2584.496233
415.136691	2587.689804
415.516609	2584.924731
415.896466	2584.423137
416.276262	2586.323652
416.655997	2587.888930
417.035670	2587.248703
417.415283	2587.682242
417.794834	2586.588312
418.174324	2585.832139
418.553753	2589.547469
418.933121	2589.809609
419.312428	2587.147880
419.691674	2589.988570
420.070859	2587.941862
420.449983	2588.246852
420.829045	2586.429516
421.208047	2589.345823
421.586988	2588.776173
421.965867	2588.599732
422.344686	2587.599063
422.723444	2591.450505
423.102141	2593.025866
423.480777	2590.908581
423.859352	2591.722727
424.237866	2591.957141
424.616319	2591.516040
424.994712	2591.712645
425.373044	2591.427820
425.751314	2589.975967
426.129524	2585.446491
426.507673	2591.299270
426.885762	2584.841552
427.263789	2590.512850
427.641756	2591.510999
428.019662	2592.274734
428.397508	2591.276585
428.775292	2594.888572
429.153016	2593.592995
429.530679	2593.550146
429.908282	2593.542584
430.285824	2595.057451
430.663305	2594.018973
431.040726	2594.744899
431.418086	2595.962338
431.795385	2597.436875
432.172624	2594.621391
432.549802	2594.691967
432.926920	2594.946545
433.303977	2593.855135
433.680974	2595.191041
434.057910	2597.451999
434.434786	2599.329828
434.811601	2598.717328
435.188355	2598.550970
435.565050	2597.545260
435.941683	2597.630960
436.318257	2598.263624
436.694770	2597.477204
437.071222	2599.395363
437.447614	2598.868563
437.823946	2598.170363
438.200218	2601.144644
438.576429	2598.969386
438.952580	2598.669437
439.328670	2602.654469
439.704700	2600.270004
440.080670	2600.519541
440.456580	2600.068357
440.832429	2601.421907
441.208218	2602.641867
441.583947	2602.445262
441.959616	2599.652462
442.335224	2605.233020
442.710773	2602.646908
443.086261	2604.696137
443.461689	2604.174377
443.837057	2606.195880
444.212365	2607.720829
444.587612	2604.129007
444.962800	2602.866198
445.337927	2605.313678
445.712995	2603.186311
446.088002	2609.046652
446.462949	2606.382403
446.837837	2608.474482
447.212664	2611.292487
447.587431	2609.288628
447.962139	2614.271808
448.336786	2615.154010
448.711374	2617.840945
449.085901	2613.513115
449.460369	2615.779113
449.834776	2616.366408
450.209124	2617.326748
450.583412	2618.612242
450.957640	2616.817591
451.331808	2617.888836
451.705917	2619.741460
452.079965	2622.186420
452.453954	2619.706172
452.827883	2620.658950
453.201752	2621.619290
453.575562	2621.921759
453.949311	2625.342182
454.323001	2625.296812
454.696632	2626.844446
455.070202	2629.511217
455.443713	2630.360651
455.817164	2631.620939
456.190556	2631.880559
456.563888	2634.960704
456.937160	2634.701084
457.310373	2633.466002
457.683526	2635.127062
458.056619	2639.343987
458.429653	2637.186373
458.802628	2637.577063
459.175542	2643.749956
459.548398	2647.702220
459.921194	2648.682725
460.293930	2654.550628
460.666607	2661.817451
461.039224	2667.309788
461.411782	2671.239367
461.784280	2674.359842
462.156719	2678.002075
462.529099	2682.062725
462.901419	2678.317147
463.273680	2682.186233
463.645882	2681.730009
464.018024	2688.253262
464.390106	2698.257432
464.762130	2715.606562
465.134094	2738.117835
465.505999	2772.909358
465.877845	2803.294913
466.249631	2825.284426
466.621358	2825.954900
466.993026	2827.568069
467.364634	2835.896055
467.736184	2833.562001
468.107674	2842.116839
468.479105	2852.010103
468.850477	2865.845550
469.221790	2873.215717
469.593043	2878.808877
469.964238	2889.619632
470.335373	2907.540933
470.706449	2942.798763
471.077467	2986.334168
471.448425	3066.760737
471.819324	3133.591313
472.190164	3154.693583
472.560945	3137.775471
472.931667	3124.497072
473.302330	3144.185298
473.672934	3158.653409
474.043479	3203.877601
474.413965	3230.331055
474.784393	3257.480189
475.154761	3318.536124
475.525070	3358.880478
475.895321	3390.039850
476.265513	3452.015796
476.635645	3521.772762
477.005719	3571.102973
477.375734	3633.935915
477.745691	3718.375242
478.115588	3801.806338
478.485427	3932.140329
478.855207	4115.131693
479.224928	4304.449705
479.594591	4468.105724
479.964194	4507.310777
480.333739	4603.284264
480.703226	4699.741702
481.072653	4827.025795
481.442022	4969.319924
481.811333	5090.771403
482.180584	5140.018435
482.549777	5213.180701
482.918912	5289.178615
483.287988	5391.521600
483.657005	5480.223223
484.025964	5537.457963
484.394864	5662.733157
484.763706	5755.160192
485.132489	5806.819416
485.501213	5925.195790
485.869879	6063.910700
486.238487	6173.089490
486.607036	6321.909392
486.975527	6406.008441
487.343959	6582.128713
487.712333	6761.341732
488.080648	6890.559108
488.448905	7096.079388
488.817104	7219.910292
489.185244	7512.539190
489.553326	7856.318156
489.921350	8384.086634
490.289315	9042.889825
490.657222	9413.563347
491.025070	9717.809584
491.392861	9856.514412
491.760593	9882.186488
492.128267	9858.246048
492.495883	9833.781328
492.863440	9825.735647
493.230939	9800.267738
493.598380	9861.379125
493.965763	10015.371252
494.333088	10083.396582
494.700354	10238.528009
495.067563	10417.569629
495.434713	10584.699002
495.801805	10865.365243
496.168839	11032.721468
496.535815	11192.828514
496.902733	11436.134763
497.269593	11598.543096
497.636395	11855.566325
498.003139	12159.331132
498.369825	12302.651136
498.736453	12654.115341
499.103023	12838.170389
499.469535	13103.231737
499.835989	13376.472358
500.202385	13550.505592
500.568723	13793.617757
500.935003	14140.688596
501.301226	14324.650382
501.667390	14846.684548
502.033497	15184.260374
502.399546	15336.956924
502.765537	15394.060595
503.131470	15847.648494
503.497345	16285.749969
503.863163	16056.417798
504.228923	16633.786190
504.594625	17081.349910
504.960269	17075.602995
505.325856	17648.078946
505.691385	17728.959219
506.056856	18148.020256
506.422270	18666.006375
506.787625	18652.062543
507.152924	19132.809659
507.518164	19490.068671
507.883347	19504.824128
508.248472	19821.227108
508.613540	20443.688620
508.978550	20816.978501
509.343503	20987.019141
509.708398	21437.622677
510.073236	22036.060571
510.438016	22338.711283
510.802738	22390.201629
511.167403	22978.796669
511.532010	23370.932904
511.896561	23944.739720
512.261053	24657.826055
512.625488	24769.633806
512.989866	24964.580266
513.354186	25226.954680
513.718449	25427.133858
514.082655	26256.983398
514.446803	26280.087006
514.810894	26937.634949
515.174927	27176.578080
515.538904	27390.570020
515.902822	28087.776720
516.266684	28067.760819
516.630488	28537.498055
516.994235	28758.146838
517.357925	29416.614792
517.721558	29807.556272
518.085133	30295.595417
518.448651	30640.216256
518.812112	30767.943971
519.175516	31090.166963
519.538863	31640.560140
519.902152	31887.911915
520.265385	32508.760258
520.628560	32709.307441
520.991678	32861.230173
521.354739	33214.657908
521.717743	33698.649006
522.080690	33807.633711
522.443580	34543.185948
522.806413	34732.748457
523.169189	35014.833782
523.531908	35370.915684
523.894569	35416.306233
524.257174	35762.114263
524.619722	36209.630093
524.982213	36478.386608
525.344647	36688.295213
525.707025	36930.177336
526.069345	37460.988151
526.431608	37540.673669
526.793815	38002.645008
527.155964	37765.834285
527.518057	38121.490210
527.880093	38148.447780
528.242072	38822.286212
528.603995	38715.963236
528.965860	38782.486302
529.327669	39117.065162
529.689421	39273.623236
530.051117	39365.188234
530.412755	39724.390610
530.774337	39882.400536
531.135862	39929.457187
531.497331	40199.327796
531.858743	40300.957458
532.220098	40763.712696
532.581396	40612.258790
532.942638	40504.809117
533.303824	40817.789153
533.664953	40963.523870
534.026025	40751.286252
534.387040	41381.496017
534.747999	41519.222861
535.108902	41909.216605
535.469748	41364.991280
535.830537	41689.230733
536.191270	42015.569827
536.551947	41829.977228
536.912567	42173.952799
537.273131	42350.796476
537.633638	42059.599265
537.994089	42290.738690
538.354483	42130.251036
538.714821	42804.873367
539.075103	43136.878719
539.435328	43077.355295
539.795497	42904.751228
540.155609	43097.429169
540.515665	43691.589644
540.875665	43069.508739
541.235609	43382.571954
541.595496	43571.032970
541.955328	44164.611192
542.315102	43679.495916
542.674821	43611.503353
543.034483	43586.942852
543.394090	43631.554543
543.753640	43666.958566
544.113134	44724.239762
544.472571	43883.188778
544.831953	45002.587072
545.191278	44331.367520
545.550548	44080.451649
545.909761	44734.158232
546.268918	44886.363270
546.628019	45311.156099
546.987064	44803.171629
547.346053	44146.510929
547.704986	45056.348457
548.063863	44735.902472
548.422684	44952.074710
548.781449	44575.145117
549.140158	45106.238236
549.498811	44893.524229
549.857408	44352.830232
550.215949	45174.863463
550.574434	45044.721036
550.932864	45013.110481
551.291237	45717.710033
551.649555	45466.032948
552.007817	45661.765828
552.366022	45392.842956
552.724173	45455.015506
553.082267	45873.103600
553.440305	46270.706966
553.798288	45533.085335
554.156215	45925.334995
554.514086	46120.193236
554.871902	45751.636998
555.229661	45929.067970
555.587365	45641.001316
555.945014	45792.193081
556.302606	45802.887889
556.660143	45901.026552
557.017625	46133.587581
557.375050	45837.908785
557.732421	46243.643532
558.089735	46313.362689
558.446994	46189.564554
558.804197	46684.759617
559.161345	46543.103193
559.518437	45925.357681
559.875474	46171.766760
560.232455	46392.402940
560.589381	46437.937162
560.946251	46272.562111
561.303065	46919.296779
561.659825	46596.340299
562.016528	46433.750484
562.373177	46038.549228
562.729770	46667.929724
563.086307	46207.092646
563.442789	46728.748725
563.799216	46588.745800
564.155587	46496.830442
564.511904	46464.947665
564.868164	46521.448917
565.224370	46839.669233
565.580520	46566.105978
565.936615	46765.738191
566.292654	46432.722089
566.648638	46797.893191
567.004567	46758.219310
567.360441	46828.916452
567.716260	46547.519244
568.072023	46943.249821
568.427732	46879.307826
568.783385	46422.385203
569.138982	46828.193046
569.494525	46975.891292
569.850013	46593.693693
570.205445	46701.891978
570.560823	46489.757703
570.916145	46361.039402
571.271412	46584.279338
571.626625	46236.069198
571.981782	46313.435786
572.336884	45948.738552
572.691931	46275.072605
573.046923	45933.657940
573.401860	45796.208360
573.756743	45805.416028
574.111570	45937.131295
574.466342	45867.936418
574.821059	46014.545774
575.175722	45529.972423
575.530330	45609.486542
575.884882	45277.687878
576.239380	45178.997210
576.593823	45283.079393
576.948211	45219.470113
577.302544	44777.358400
577.656823	44782.218073
578.011047	45042.432352
578.365216	44890.320576
578.719330	44611.706085
579.073389	44575.639150
579.427394	44648.241848
579.781344	44552.699379
580.135239	44303.739476
580.489080	44384.309717
580.842866	43891.121034
581.196597	44364.976892
581.550273	44354.166138
581.903895	44300.354341
582.257463	44737.954221
582.610975	44187.187999
582.964434	44505.720867
583.317837	43996.876880
583.671186	43971.870236
584.024481	44246.182102
584.377721	43827.254656
584.730906	44040.379517
585.084037	44190.265623
585.437113	43904.021346
585.790135	44023.481569
586.143103	43602.804842
586.496016	43775.323209
586.848874	43877.383889
587.201679	43905.463116
587.554428	43407.525666
587.907124	43673.043239
588.259765	43452.712048
588.612352	43617.159528
588.964884	43085.176645
589.317362	43377.392169
589.669786	43384.686718
590.022155	43266.688430
590.374470	43724.377308
590.726731	43318.680370
591.078937	42675.280426
591.431090	43031.339642
591.783188	42527.501521
592.135232	42342.039992
592.487222	42600.603293
592.839157	42763.412398
593.191038	42418.668051
593.542866	42220.717063
593.894639	41607.581685
594.246358	41910.451687
594.598022	41921.988368
594.949633	41486.989723
595.301190	41501.722495
595.652692	41434.758328
596.004141	41926.202773
596.355535	40841.631290
596.706876	40875.780066
597.058162	40574.321587
597.409395	41062.169168
597.760573	41311.081180
598.111698	40911.990674
598.462768	40835.793634
598.813785	40870.257482
599.164748	40477.647380
599.515657	40744.823492
599.866511	40256.093709
600.217312	40941.645262
600.568060	39896.508205
600.918753	40704.572399
601.269392	40621.577363
601.619978	40374.974199
601.970510	40575.624725
602.320988	40705.436957
602.671412	40971.682977
603.021783	40837.558038
603.372100	40420.105129
603.722363	40524.956088
604.072572	40558.162168
604.422728	40554.414070
604.772830	40328.620790
605.122878	40510.845898
605.472872	40364.289474
605.822813	40618.202311
606.172701	40347.951094
606.522534	40681.007526
606.872314	40895.319579
607.222041	40723.295245
607.571714	41076.289440
607.921333	40560.781048
608.270899	40756.125759
608.620411	41131.205249
608.969870	40922.020050
609.319276	40924.812849
609.668627	40962.944137
610.017926	41342.981602
610.367171	41502.955058
610.716362	41527.250898
611.065500	41431.637854
611.414585	41669.597960
611.763616	41836.601304
612.112594	41738.749987
612.461518	41847.623787
612.810389	42233.738363
613.159207	42036.515822
613.507971	42005.023734
613.856682	42510.487627
614.205340	42349.858821
614.553945	43010.922969
614.902496	42371.714744
615.250994	42769.038325
615.599439	42860.275648
615.947830	42965.050990
616.296169	42967.949653
616.644454	43034.631516
616.992686	43164.965507
617.340864	43600.327115
617.688990	43115.632776
618.037063	43777.589208
618.385082	43608.818939
618.733048	43979.689066
619.080961	43839.892828
619.428821	43897.813165
619.776628	43938.782623
620.124382	43744.483951
620.472083	43860.387639
620.819731	43959.642917
621.167326	43556.713573
621.514868	43559.501331
621.862357	43002.670600
622.209793	43097.124179
622.557176	42690.300543
622.904506	42445.035806
623.251783	42103.553086
623.599007	41790.270580
623.946179	41709.445760
624.293297	41452.089815
624.640363	40918.876891
624.987376	40778.478235
625.334336	40582.987330
625.681243	40179.546309
626.028097	40080.674158
626.374899	39905.312581
626.721647	39865.242969
627.068343	39633.057505
627.414987	39352.232469
627.761577	39107.623081
628.108115	39426.541597
628.454600	38664.828292
628.801032	38915.915562
629.147412	38808.481012
629.493739	38695.891882
629.840014	38265.652086
630.186236	38689.686222
630.532405	38122.942062
630.878521	38383.521825
631.224585	38159.676950
631.570597	37834.303237
631.916556	37974.588466
632.262462	37894.000581
632.608316	37832.722835
632.954117	37706.129380
633.299866	37639.044225
633.645562	37578.426871
633.991206	37073.419202
634.336797	36663.346542
634.682336	36559.085398
635.027823	36324.523030
635.373257	36219.782977
635.718639	35896.216517
636.063968	35791.559643
636.409245	35158.264691
636.754470	35099.200012
637.099642	34893.142848
637.444762	34314.872091
637.789829	34431.675625
638.134845	34044.875453
638.479808	33965.542814
638.824719	33918.992800
639.169577	33410.476488
639.514383	33524.908160
639.859137	33143.733914
640.203839	33300.695281
640.548489	33026.637993
640.893086	33004.938346
641.237632	32716.710375
641.582125	32816.182423
641.926566	32589.902671
642.270955	32637.221461
642.615292	32574.219641
642.959576	32437.115380
643.303809	32465.366006
643.647990	32563.678588
643.992118	32519.175282
644.336195	32354.503471
644.680219	32413.195105
645.024192	32592.246807
645.368112	33131.113386
645.711981	33144.273318
646.055797	33831.685056
646.399562	33635.604336
646.743274	34484.769058
647.086935	34899.860186
647.430544	34875.534098
647.774101	34919.442548
648.117606	35220.875822
648.461059	35379.520933
648.804460	34972.679653
649.147810	34489.137217
649.491108	34197.335068
649.834354	34071.933846
650.177548	33258.833539
650.520690	32751.368308
650.863781	32734.724938
651.206820	32562.224215
651.549807	32139.679741
651.892742	31548.657385
652.235626	31466.539509
652.578458	31322.382674
652.921238	30637.017644
653.263967	30910.883368
653.606644	30601.089340
653.949269	30512.181031
654.291843	30124.990168
654.634365	30484.537863
654.976836	30024.615754
655.319255	30122.522523
655.661622	29978.804268
656.003938	29863.681959
656.346203	29671.220787
656.688416	29914.101059
657.030577	29709.873834
657.372687	29523.777119
657.714746	29648.623815
658.056753	29854.628046
658.398708	29231.395238
658.740612	29302.490630
659.082465	29508.167187
659.424266	29405.499047
659.766016	29389.856347
660.107715	29249.929040
660.449362	29350.341263
660.790958	29313.835747
661.132503	29242.689943
661.473996	29326.708333
661.815438	29409.756302
662.156829	29525.236533
662.498168	29322.022581
662.839456	29313.021601
663.180693	29428.189281
663.521879	29479.775408
663.863013	29421.996223
664.204097	29407.545756
664.545129	29809.590378
664.886110	29744.526726
665.227040	29856.989827
665.567918	29860.223727
665.908746	29908.394473
666.249522	29999.848565
666.590248	30030.508863
666.930922	30135.768155
667.271545	30150.815999
667.612118	30193.370900
667.952639	30008.892395
668.293109	30051.653983
668.633528	29906.050336
668.973896	29855.477481
669.314213	29848.104793
669.654480	29664.332050
669.994695	29640.157197
670.334859	29553.633353
670.674973	29377.298833
671.015035	29553.759382
671.355047	29485.270266
671.695008	29407.016435
672.034918	29320.462344
672.374777	29412.453319
672.714585	29294.916297
673.054342	29429.378993
673.394049	29275.890982
673.733705	29488.448713
674.073310	29210.431599
674.412864	29279.896179
674.752368	29002.171452
675.091820	29231.238962
675.431223	28828.463372
675.770574	28627.631365
676.109875	28465.560789
676.449125	28266.130222
676.788324	28161.833791
677.127473	27687.952726
677.466571	27594.940917
677.805619	27314.864492
678.144616	27239.310198
678.483562	27183.058483
678.822458	26872.823355
679.161303	26815.933934
679.500098	26730.715749
679.838842	26646.659549
680.177535	26697.441613
680.516179	26916.441939
680.854771	26988.147311
681.193314	27665.426330
681.531805	28621.266908
681.870247	29369.154849
682.208638	30169.932055
682.546978	30518.361485
682.885268	30704.062469
683.223508	30302.867282
683.561697	30038.554544
683.899836	29867.916528
684.237925	29445.888772
684.575963	29283.745100
684.913951	28912.902699
685.251889	29048.943277
685.589776	29039.702842
685.927614	29036.920125
686.265401	29207.041423
686.603137	29302.573809
686.940824	29787.023653
687.278460	30101.145511
687.616046	30292.535437
687.953582	30954.781735
688.291068	30879.114016
688.628504	31255.917581
688.965889	31277.700407
689.303224	31040.793902
689.640510	30764.286614
689.977745	30168.470120
690.314930	29443.524471
690.652065	29024.518887
690.989150	28343.227109
691.326185	27524.357202
691.663170	26917.994614
692.000105	26201.813011
692.336990	25616.812313
692.673825	25191.558218
693.010610	24675.737274
693.347345	24186.347100
693.684030	23563.363828
694.020665	23383.457650
694.357251	22697.926262
694.693786	22703.365667
695.030272	22478.101708
695.366707	21972.504224
695.703093	21689.496368
696.039429	21764.952358
696.375716	21512.259481
696.711952	21511.384840
697.048139	21363.076615
697.384276	21214.047504
697.720363	21325.769556
698.056400	21223.424050
698.392388	21052.919624
698.728326	21049.746218
699.064214	20899.749206
699.400053	20919.571023
699.735842	20524.158039
700.071581	20349.668581
700.407270	20097.489901
700.742910	19933.062586
701.078501	19682.754174
701.414042	19496.793570
701.749533	19199.985555
702.084974	18879.698366
702.420366	19107.747563
702.755709	18712.097645
703.091002	18403.833607
703.426246	18458.661197
703.761440	18397.713647
704.096584	18172.984049
704.431679	18098.997555
704.766725	18045.619297
705.101721	17959.155947
705.436668	18069.433708
705.771565	17787.285369
706.106413	18090.397347
706.441212	18156.005443
706.775961	18252.591430
707.110661	18325.947781
707.445311	18688.928502
707.779913	18563.615499
708.114465	18853.577627
708.448967	19162.388630
708.783421	19758.275699
709.117825	20106.821076
709.452180	20311.680966
709.786485	20749.565671
710.120742	21477.266311
710.454949	21574.873132
710.789107	22078.199576
711.123216	22780.548253
711.457275	23001.050843
711.791286	23562.708478
712.125247	23743.854780
712.459159	23503.711855
712.793023	24266.075469
713.126837	23288.512559
713.460602	23560.094640
713.794318	23235.756884
714.127985	22972.696873
714.461602	22102.321497
714.795171	22075.497517
715.128691	21110.119077
715.462162	20595.157649
715.795584	20173.845737
716.128957	19901.888090
716.462281	19534.473674
716.795556	19252.574872
717.128782	18795.692578
717.461960	18198.487247
717.795088	18170.350047
718.128167	17821.393816
718.461198	17377.666413
718.794180	17256.923217
719.127113	16926.692352
719.459997	16748.621154
719.792833	16373.897065
720.125619	16409.953918
720.458357	16065.355764
720.791046	15933.022955
721.123686	15781.037208
721.456278	15558.687035
721.788821	15565.729527
722.121315	15303.569363
722.453761	15389.122784
722.786158	15275.270845
723.118506	15363.085225
723.450805	15242.919241
723.783056	15423.873978
724.115259	15297.835050
724.447412	15282.323420
724.779518	15490.865872
725.111574	15536.846236
725.443582	15794.635720
725.775542	15737.327883
726.107453	16236.104686
726.439315	16145.154709
726.771129	16541.850667
727.102895	16944.207841
727.434612	17217.657669
727.766281	17393.072179
728.097901	17719.423876
728.429473	17810.782187
728.760996	17828.990834
729.092471	17957.411708
729.423897	17843.532043
729.755276	17681.574893
730.086606	17774.541332
730.417887	18324.921906
730.749120	18855.180714
731.080305	19075.222038
731.411442	19484.591457
731.742530	19593.303940
732.073570	19735.361135
732.404562	20053.916687
732.735506	19963.962338
733.066401	19836.335446
733.397249	19400.381503
733.728048	18814.682605
734.058798	17975.675808
734.389501	17215.149695
734.720156	16699.611056
735.050762	16121.214269
735.381320	15725.382869
735.711831	15434.967038
736.042293	15053.061825
736.372707	15082.507205
736.703073	14863.204409
737.033391	15040.985741
737.363661	15030.227919
737.693883	15141.881915
738.024056	15324.336396
738.354182	15530.093611
738.684260	15864.710279
739.014290	16139.881662
739.344272	16363.066146
739.674207	16698.824636
740.004093	16894.144142
740.333931	16956.213348
740.663722	17050.009057
740.993464	17105.187006
741.323159	16970.832695
741.652806	16689.417843
741.982405	16532.953030
742.311956	16180.457909
742.641460	16085.570791
742.970915	15761.969043
743.300323	15418.684111
743.629683	15211.976638
743.958996	14904.897272
744.288260	14594.783132
744.617477	14284.575730
744.946647	14249.837139
745.275768	13937.678810
745.604842	13735.485691
745.933869	13550.956775
746.262847	13522.887631
746.591778	13433.371862
746.920662	13305.384527
747.249498	13298.221048
747.578286	13438.314713
747.907027	13599.649280
748.235720	13856.175955
748.564365	13934.606227
748.892963	13872.209345
749.221514	13995.248787
749.550017	13868.730949
749.878473	13846.302856
750.206881	13633.528355
750.535242	13568.225248
750.863555	13487.750788
751.191821	13378.546793
751.520039	13388.971899
751.848210	13316.666630
752.176334	13352.032844
752.504411	13277.869910
752.832440	13114.997791
753.160421	13227.695305
753.488356	13123.303092
753.816243	13035.619782
754.144082	12869.644833
754.471875	12806.272488
754.799620	12762.676589
755.127318	12740.823187
755.454969	12739.091551
755.782572	12695.853575
756.110129	12712.277654
756.437638	12619.467491
756.765100	12626.464613
757.092515	12647.730720
757.419882	12690.653624
757.747203	12685.355372
758.074477	12774.193105
758.401703	12752.753078
758.728882	12924.212803
759.056014	12969.202580
759.383099	13137.022592
759.710138	13253.838729
760.037129	13402.842634
760.364073	13464.858909
760.690970	13483.871620
761.017820	13490.299092
761.344623	13682.596426
761.671379	13993.786853
761.998088	14540.477302
762.324751	15944.000068
762.651366	18860.047948
762.977935	23134.981698
763.304456	26386.576340
763.630931	27966.564696
763.957359	27188.039143
764.283740	25148.194213
764.610074	23017.313605
764.936362	20424.935528
765.262602	18529.295324
765.588796	16573.582210
765.914943	15253.309059
766.241044	14119.195637
766.567097	13312.636227
766.893104	12572.476375
767.219064	12093.889394
767.544978	11612.827206
767.870845	11219.143337
768.196665	10992.959367
768.522438	10770.213464
768.848165	10562.994314
769.173846	10353.536893
769.499479	10234.220343
769.825066	10065.606350
770.150607	9845.401188
770.476101	9760.840873
770.801548	9644.029777
771.126949	9491.464297
771.452303	9377.446000
771.777611	9184.778141
772.102872	9171.867746
772.428087	9038.647694
772.753256	8887.264364
773.078378	8805.688413
773.403453	8620.612532
773.728482	8509.351746
774.053465	8423.750433
774.378401	8334.451434
774.703291	8212.974749
775.028135	8092.256759
775.352932	8061.215854
775.677683	7955.913712
776.002388	7855.753547
776.327046	7863.234619
776.651658	7766.162161
776.976224	7668.590628
777.300743	7665.510483
777.625216	7577.842297
777.949643	7533.908641
778.274024	7555.593164
778.598359	7468.575287
778.922647	7479.189437
779.246889	7436.062366
779.571086	7433.002385
779.895236	7442.769621
780.219339	7453.028369
780.543397	7455.460726
780.867409	7530.498301
781.191374	7543.128912
781.515294	7510.053901
781.839167	7605.868592
782.162995	7579.800785
782.486776	7529.744648
782.810511	7484.003739
783.134201	7396.595172
783.457844	7394.152733
783.781441	7338.647109
784.104993	7273.901049
784.428498	7256.312463
784.751958	7239.517859
785.075372	7205.933692
785.398739	7148.356154
785.722061	7194.215530
786.045337	7189.771753
786.368568	7330.180491
786.691752	7328.620254
787.014891	7628.170656
787.337983	7928.799866
787.661030	8476.488464
787.984031	9091.632741
788.306987	9526.349082
788.629897	9787.140573
788.952760	9777.111197
789.275579	9603.083005
789.598351	9234.078105
789.921078	8902.486128
790.243759	8493.648552
790.566395	8204.009057
790.888984	7953.594781
791.211529	7745.463183
791.534027	7519.742999
791.856480	7313.766494
792.178888	7237.985349
792.501249	7142.200905
792.823566	6985.983109
793.145836	6980.752912
793.468062	6947.642613
793.790241	6895.363328
794.112375	6955.279962
794.434464	7094.504028
794.756507	7121.781711
795.078505	7257.391270
795.400457	7535.231944
795.722364	7868.300979
796.044226	8151.805389
796.366042	8442.765665
796.687812	8417.988394
797.009538	8508.741766
797.331218	8428.625229
797.652852	8349.748815
797.974442	8205.334881
798.295986	8129.266390
798.617484	7939.978625
798.938938	7807.749159
799.260346	7698.895524
799.581709	7510.260588
799.903026	7429.065244
800.224299	7326.785274
800.545526	7158.211610
800.866708	7058.658903
801.187845	6993.900241
801.508936	6889.555918
801.829983	6849.360278
802.150984	6704.931220
802.471940	6657.131000
802.792851	6643.535008
803.113717	6620.005422
803.434538	6582.219453
803.755314	6527.119642
804.076045	6526.436566
804.396731	6465.733512
804.717372	6495.564539
805.037967	6491.498849
805.358518	6528.032091
805.679024	6611.866479
805.999485	6619.614733
806.319901	6659.255846
806.640272	6681.908271
806.960598	6757.074395
807.280879	6763.859788
807.601115	6841.606983
807.921306	6784.437778
808.241453	6805.429143
808.561554	6826.052503
808.881611	6792.566639
809.201623	6801.333205
809.521590	6756.968531
809.841513	6730.812504
810.161390	6763.577484
810.481223	6642.839328
810.801011	6626.606813
811.120755	6606.210305
811.440453	6529.695672
811.760107	6494.999930
812.079716	6470.973791
812.399281	6405.138842
812.718801	6394.716257
813.038276	6351.828640
813.357707	6286.810359
813.677093	6325.407953
813.996434	6229.068983
814.315731	6270.580364
814.634983	6259.646101
814.954191	6268.866372
815.273354	6360.948088
815.592473	6416.534371
815.911547	6530.469489
816.230577	6613.769515
816.549562	6749.540391
816.868502	6848.876327
817.187399	6936.252126
817.506250	7077.258241
817.825058	7105.592046
818.143821	7347.156576
818.462539	7579.016886
818.781213	7900.292141
819.099843	8378.586736
819.418429	9279.413202
819.736970	10165.411113
820.055466	11249.170970
820.373919	12607.283022
820.692327	14592.292802
821.010691	17873.151342
821.329011	25260.498517
821.647286	36836.573191
821.965517	50699.295085
822.283704	58244.725283
822.601847	61435.813476
822.919945	59215.512882
823.237999	55323.641290
823.556010	49291.270569
823.873976	42682.580016
824.191897	36271.893384
824.509775	31453.167849
824.827609	26846.019540
825.145398	24062.606938
825.463144	22397.032392
825.780845	22316.555412
826.098502	23527.533827
826.416116	26801.969938
826.733685	30502.214669
827.051210	32281.497481
827.368692	31355.162777
827.686129	27876.645635
828.003522	23904.178596
828.320872	20203.482681
828.638177	17338.829364
828.955439	15162.520398
829.272656	13348.816588
829.589830	11877.515509
829.906960	10590.864333
830.224046	9626.998239
830.541088	8855.290846
830.858086	8377.213021
831.175041	7973.086402
831.491952	7812.155128
831.808819	7802.236658
832.125642	8099.914272
832.442421	8794.539901
832.759157	10261.094734
833.075849	12798.743525
833.392497	15906.481280
833.709101	18357.734776
834.025662	18721.569973
834.342179	17393.243578
834.658653	15350.338667
834.975083	13449.344758
835.291469	11812.524954
835.607811	10494.195167
835.924110	9593.290563
836.240366	8728.205878
836.556578	7925.505472
836.872746	7283.670805
837.188871	6775.557786
837.504952	6345.504513
837.820990	6027.027098
838.136984	5802.791534
838.452935	5682.121434
838.768842	5665.795657
839.084706	5947.006343
839.400526	6903.240130
839.716303	8387.486893
840.032037	9611.882339
840.347727	9837.602523
840.663373	9053.612359
840.978977	8022.956017
841.294537	7198.339194
841.610054	6587.563077
841.925527	6152.919833
842.240957	5797.871368
842.556344	5476.870855
842.871687	5199.491447
843.186987	4919.273870
843.502244	4690.833983
843.817458	4519.258312
844.132629	4380.245974
844.447756	4292.716420
844.762840	4211.435376
845.077881	4137.113645
845.392879	4076.294644
845.707833	4030.278992
846.022745	3982.090602
846.337613	3956.237045
846.652438	3915.507042
846.967221	3895.317221
847.281960	3863.331100
847.596656	3847.380889
847.911309	3827.128053
848.225919	3804.107624
848.540485	3787.512146
848.855009	3774.105197
849.169490	3757.449225
849.483928	3742.134200
849.798323	3734.174218
850.112675	3718.980180
850.426984	3723.376066
850.741251	3709.200342
851.055474	3703.692881
851.369654	3706.838561
851.683792	3703.705484
851.997887	3710.982389
852.311938	3710.022050
852.625947	3715.484140
852.939914	3705.558108
853.253837	3716.522618
853.567718	3713.661763
853.881555	3703.282027
854.195350	3717.898853
854.509103	3714.211248
854.822812	3711.597410
855.136479	3702.954352
855.450103	3711.494067
855.763685	3697.772046
856.077224	3704.696071
856.390720	3713.472719
856.704173	3733.937283
857.017584	3747.508070
857.330953	3754.666508
857.644278	3778.410343
857.957561	3782.566774
858.270802	3781.866054
858.584000	3789.389976
858.897155	3784.434522
859.210268	3767.453395
859.523339	3745.695775
859.836367	3745.022781
860.149352	3738.985999
860.462295	3732.664392
860.775195	3717.742577
861.088054	3714.972463
861.400869	3711.448696
861.713642	3708.063561
862.026373	3718.201322
862.339062	3723.542424
862.651708	3742.303078
862.964312	3771.209054
863.276873	3783.872433
863.589392	3832.653158
863.901869	3873.423490
864.214303	3919.615582
864.526696	3950.535500
864.839045	3996.099969
865.151353	4023.055018
865.463619	4034.566493
865.775842	4036.172101
866.088023	4055.714133
866.400162	4052.444945
866.712258	4060.044485
867.024313	4060.382242
867.336325	4058.143970
867.648296	4064.049681
867.960224	4064.624373
868.272110	4069.453798
868.583954	4078.328750
868.895755	4087.773351
869.207515	4079.342022
869.519233	4116.177733
869.830909	4130.212305
870.142542	4156.141480
870.454134	4166.052388
870.765684	4196.735371
871.077191	4229.573447
871.388657	4249.904421
871.700081	4286.286428
872.011463	4320.384793
872.322803	4357.573385
872.634101	4382.285121
872.945357	4426.826236
873.256571	4473.698884
873.567744	4502.746013
873.878874	4523.760062
874.189963	4558.929672
874.501010	4574.768977
874.812015	4571.683791
875.122979	4615.007467
875.433900	4608.464050
875.744780	4620.474599
876.055618	4642.844719
876.366415	4641.178618
876.677169	4661.436494
876.987882	4702.577351
877.298554	4743.849277
877.609183	4813.974248
877.919771	4905.493876
878.230317	5034.159245
878.540822	5213.294127
878.851285	5491.470037
879.161707	5879.835488
879.472087	6507.600294
879.782425	7516.604881
880.092722	9323.344337
880.402977	12136.867751
880.713191	15617.708864
881.023363	19281.208626
881.333494	21714.961756
881.643583	23174.010311
881.953631	23402.578747
882.263637	22748.307554
882.573602	21459.332406
882.883526	20039.514111
883.193408	18478.931676
883.503248	16892.339409
883.813048	15422.099492
884.122806	14066.016505
884.432522	12644.401038
884.742197	11434.577047
885.051831	10367.163132
885.361424	9381.204180
885.670975	8564.630518
885.980485	7879.578040
886.289954	7313.494272
886.599382	6846.338106
886.908768	6477.406303
887.218113	6114.407938
887.527417	5831.279094
887.836680	5573.502213
888.145901	5359.031364
888.455082	5198.427764
888.764221	5045.292633
889.073319	4910.804731
889.382376	4839.260676
889.691392	4773.700470
890.000366	4741.893310
890.309300	4728.118357
890.618193	4729.902925
890.927044	4715.182756
891.235855	4731.001897
891.544625	4753.132562
891.853353	4799.327176
892.162041	4892.407040
892.470687	5051.823448
892.779293	5263.929996
893.087858	5578.384570
893.396381	6058.967849
893.704864	6738.903556
894.013306	7754.406190
894.321707	8876.158702
894.630068	9758.136294
894.938387	10098.197409
895.246665	9984.353032
895.554903	9464.940266
895.863100	8816.990680
896.171256	8296.504148
896.479371	7812.870972
896.787446	7331.080337
897.095480	6913.629948
897.403473	6606.885819
897.711425	6298.934334
898.019336	6045.870931
898.327207	5785.626405
898.635038	5562.961160
898.942827	5323.692875
899.250576	5127.753308
899.558284	4940.154329
899.865952	4819.814425
900.173579	4673.741951
900.481165	4572.011466
900.788711	4478.724914
901.096216	4404.267072
901.403681	4339.405066
901.711105	4314.761386
902.018489	4292.277839
902.325832	4341.489583
902.633135	4427.249693
902.940397	4686.453220
903.247619	5290.895128
903.554800	6466.862730
903.861941	8217.867189
904.169041	9770.698850
904.476101	10603.774728
904.783121	10468.369336
905.090100	9856.080872
905.397039	9077.046163
905.703938	8357.202161
906.010796	7697.763785
906.317614	7165.130593
906.624391	6660.639643
906.931129	6248.560604
907.237826	5863.983580
907.544483	5506.966544
907.851099	5149.876411
908.157675	4810.170697
908.464211	4487.851923
908.770707	4247.358638
909.077163	4043.572514
909.383578	3895.995256
909.689954	3776.713994
909.996289	3704.754044
910.302584	3638.697284
910.608839	3604.440123
910.915054	3571.922161
911.221229	3556.715520
911.527363	3566.787745
911.833458	3571.990216
912.139513	3593.888988
912.445527	3617.569809
912.751502	3686.573123
913.057436	3773.225516
913.363331	3888.138618
913.669186	4058.761511
913.975000	4277.212351
914.280775	4632.921208
914.586510	5120.340291
914.892205	5803.421678
915.197859	6721.577110
915.503475	7846.112340
915.809050	8886.530877
916.114585	9592.635213
916.420081	9951.063773
916.725536	9999.312656
917.030952	9642.530034
917.336328	9288.227659
917.641665	8911.996265
917.946961	8467.326167
918.252218	8073.644819
918.557435	7586.031651
918.862612	7186.371495
919.167750	6835.514749
919.472848	6435.761331
919.777906	6079.013997
920.082925	5733.798302
920.387904	5373.859918
920.692843	5109.736224
920.997743	4868.194378
921.302603	4636.195437
921.607423	4474.417248
921.912204	4317.904545
922.216946	4202.315928
922.521647	4086.686983
922.826310	3984.568329
923.130932	3895.937283
923.435516	3800.886327
923.740059	3734.942994
924.044564	3661.052281
924.349028	3601.743106
924.653454	3543.321174
924.957840	3474.184270
925.262186	3433.277827
925.566493	3374.218189
925.870761	3317.737101
926.174989	3284.609159
926.479178	3250.220928
926.783328	3209.826162
927.087438	3185.437060
927.391509	3146.915083
927.695541	3117.981380
927.999533	3090.844849
928.303486	3072.303485
928.607400	3057.895867
928.911275	3046.376831
929.215110	3029.531815
929.518906	3019.610825
929.822663	3016.548324
930.126381	3017.138139
930.430060	3023.303470
930.733699	3023.016124
931.037299	3034.641025
931.340861	3031.883514
931.644383	3039.465409
931.947866	3036.977600
932.251309	3034.746889
932.554714	3036.720501
932.858080	3029.778832
933.161407	3022.388500
933.464694	3013.359794
933.767943	3011.315606
934.071153	3003.935357
934.374323	2995.902278
934.677455	2989.399190
934.980548	2983.337202
935.283602	2977.320585
935.586617	2972.531489
935.889593	2979.153044
936.192530	2981.295535
936.495428	2994.319356
936.798287	3009.883918
937.101108	3037.247301
937.403890	3080.402099
937.706632	3137.125162
938.009336	3208.205431
938.312002	3281.705454
938.614628	3342.963035
938.917216	3395.544790
939.219765	3428.103083
939.522275	3463.660861
939.824747	3468.018939
940.127179	3466.554483
940.429573	3463.184472
940.731929	3462.231694
941.034246	3450.190898
941.336524	3442.107408
941.638763	3426.754574
941.940964	3415.911052
942.243126	3375.486039
942.545250	3356.833770
942.847335	3322.647185
943.149381	3287.361629
943.451389	3258.939603
943.753359	3223.142370
944.055290	3198.344934
944.357182	3174.805266
944.659036	3160.196002
944.960851	3149.627223
945.262628	3134.939822
945.564367	3134.765902
945.866067	3131.229532
946.167729	3125.331382
946.469352	3127.206692
946.770937	3121.303501
947.072484	3105.933022
947.373992	3110.820421
947.675462	3104.100563
947.976893	3085.932245
948.278286	3078.806574
948.579641	3073.999833
948.880958	3065.906261
949.182236	3072.391705
949.483476	3058.934345
949.784678	3063.322670
950.085841	3063.675550
950.386967	3071.839699
950.688054	3083.825042
950.989103	3098.109152
951.290114	3121.449694
951.591087	3144.752428
951.892021	3173.204700
952.192917	3197.566076
952.493776	3224.944583
952.794596	3233.764081
953.095378	3243.465782
953.396122	3237.736510
953.696828	3235.089905
953.997496	3224.279150
954.298126	3202.077909
954.598718	3187.080476
954.899272	3161.547032
955.199788	3140.593476
955.500266	3110.752366
955.800706	3073.674679
956.101108	3039.414998
956.401472	3013.856348
956.701798	2981.771924
957.002087	2942.062755
957.302337	2920.652975
957.602550	2888.624004
957.902724	2861.923532
958.202861	2836.899245
958.502960	2818.027685
958.803022	2795.667647
959.103045	2778.111829
959.403031	2761.372678
959.702979	2748.437077
960.002889	2735.740931
960.302762	2723.417830
960.602596	2709.862168
960.902393	2705.887218
961.202153	2697.065199
961.501875	2689.203519
961.801559	2680.414267
962.101205	2676.570388
962.400814	2671.917403
962.700385	2666.883811
962.999918	2658.150012
963.299414	2652.385452
963.598873	2650.414361
963.898293	2643.018988
964.197677	2645.383289
964.497022	2644.191057
964.796331	2641.720891
965.095601	2638.590335
965.394835	2636.442803
965.694030	2634.892648
965.993189	2632.392236
966.292309	2629.299488
966.591393	2630.433748
966.890439	2631.179838
967.189447	2631.532719
967.488419	2630.393418
967.787353	2631.590692
968.086249	2629.506175
968.385108	2630.640435
968.683930	2634.877525
968.982714	2637.168729
969.281462	2641.050418
969.580172	2647.770276
969.878844	2650.389155
970.177480	2659.107831
970.476078	2665.557987
970.774639	2672.592917
971.073162	2677.636592
971.371649	2688.177644
971.670098	2692.870959
971.968510	2695.197451
972.266885	2701.345138
972.565223	2704.304296
972.863524	2707.659183
973.161788	2711.467775
973.460014	2713.489278
973.758204	2718.406923
974.056356	2718.820298
974.354471	2721.817264
974.652550	2721.527398
974.950591	2720.534290
975.248595	2719.475648
975.546563	2714.237889
975.844493	2714.182437
976.142386	2708.811087
976.440243	2704.112732
976.738062	2699.588296
977.035845	2694.312729
977.333590	2686.735874
977.631299	2684.527849
977.928971	2677.447548
978.226606	2671.778771
978.524204	2668.759120
978.821765	2661.764519
979.119290	2664.159067
979.416777	2667.042607
979.714228	2667.592093
980.011642	2669.099398
980.309020	2674.795902
980.606360	2685.601615
980.903664	2706.046014
981.200931	2733.737072
981.498162	2773.073196
981.795356	2837.572239
982.092513	2917.799682
982.389633	3012.447345
982.686717	3105.262549
982.983764	3177.945905
983.280775	3237.681058
983.577749	3251.090527
983.874686	3245.222624
984.171587	3219.298490
984.468451	3185.305990
984.765279	3146.143786
985.062070	3101.690892
985.358824	3063.947773
985.655543	3010.020029
985.952224	2963.762402
986.248869	2903.810480
986.545478	2846.769824
986.842050	2795.274437
987.138586	2749.155441
987.435086	2712.009699
987.731549	2680.356294
988.027975	2657.063643
988.324366	2639.303658
988.620719	2627.494755
988.917037	2615.834566
989.213318	2605.787547
989.509563	2597.139447
989.805772	2594.989395
990.101944	2589.940679
990.398080	2587.717531
990.694180	2584.042529
990.990244	2583.755184
991.286271	2580.591860
991.582262	2586.628641
991.878217	2588.947572
992.174136	2590.228025
992.470019	2594.139961
992.765865	2595.382605
993.061676	2599.670106
993.357450	2604.509614
993.653188	2610.377517
993.948890	2625.987450
994.244556	2645.385810
994.540186	2663.488593
994.835780	2693.304498
995.131337	2722.500340
995.426859	2762.086001
995.722345	2803.055458
996.017795	2852.705782
996.313208	2889.967471
996.608586	2916.975453
996.903928	2933.759975
997.199234	2938.274328
997.494504	2938.982610
997.789738	2924.562389
998.084936	2902.640932
998.380099	2877.097405
998.675225	2849.751666
998.970316	2819.497182
999.265371	2787.745474
999.560390	2753.579054
999.855373	2724.789024
1000.150320	2696.979499
1000.445232	2673.623833
1000.740108	2653.726399
1001.034948	2635.628657
1001.329752	2620.051491
1001.624521	2607.284769
1001.919254	2595.722883
1002.213951	2589.529825
1002.508613	2578.850141
1002.803239	2575.749831
1003.097829	2571.321178
1003.392384	2564.170301
1003.686903	2557.581513
1003.981386	2558.367933
1004.275834	2553.301573
1004.570246	2551.159083
1004.864623	2548.338557
1005.158964	2547.390820
1005.453270	2546.236396
1005.747540	2545.467620
1006.041775	2542.629451
1006.335974	2542.304296
1006.630138	2540.282793
1006.924266	2541.036446
1007.218359	2534.251053
1007.512416	2534.460261
1007.806438	2533.265507
1008.100425	2533.383974
1008.394376	2529.212420
1008.688292	2534.588810
1008.982172	2534.598893
1009.276017	2537.051414
1009.569827	2531.637215
1009.863602	2533.593182
1010.157341	2530.820548
1010.451045	2532.779036
1010.744714	2529.661082
1011.038347	2529.575383
1011.331945	2526.291071
1011.625508	2529.774508
1011.919036	2527.561442
1012.212528	2530.167718
1012.505986	2525.585309
1012.799408	2525.734023
1013.092795	2525.045906
1013.386147	2523.485669
1013.679464	2524.561955
1013.972745	2526.767460
1014.265992	2523.125226
1014.559204	2524.544311
1014.852380	2524.433406
1015.145521	2525.237470
1015.438628	2525.713859
1015.731699	2524.035155
1016.024736	2522.797551
1016.317737	2525.192099
1016.610703	2527.155629
1016.903635	2527.500948
1017.196531	2529.217461
1017.489393	2531.496062
1017.782219	2531.632173
1018.075011	2532.521937
1018.367768	2534.619057
1018.660490	2533.573018
1018.953177	2533.573018
1019.245829	2533.573018
