Dividing Wavelength (nm)	Counts (n)	Blue Motor Position (mm): 36.500000	Red Motor Position (mm): 0.000000	
326.493990	2066.250494
326.888308	2066.250494
327.282561	2066.250494
327.676750	2038.549354
328.070874	2042.274767
328.464933	2047.941024
328.858929	2056.742878
329.252859	2065.895093
329.646726	2079.440673
330.040528	2098.897007
330.434265	2111.184819
330.827938	2132.052676
331.221547	2155.544453
331.615091	2172.870898
332.008571	2195.329239
332.401986	2215.947558
332.795338	2235.119066
333.188625	2253.511716
333.581847	2272.776485
333.975006	2293.155350
334.368100	2308.183029
334.761129	2327.271358
335.154095	2340.073368
335.546996	2393.159239
335.939833	2498.226968
336.332606	2507.328771
336.725315	2521.073477
337.117960	2533.124355
337.510540	2539.723225
337.903056	2550.796120
338.295508	2557.999929
338.687896	2564.460167
339.080220	2569.123235
339.472480	2573.395612
339.864676	2577.113463
340.256807	2580.982549
340.648875	2583.828280
341.040879	2584.917170
341.432818	2584.655030
341.824694	2585.736357
342.216506	2589.403797
342.608253	2585.116295
342.999937	2586.434557
343.391557	2585.370873
343.783113	2584.624783
344.174605	2582.172261
344.566033	2578.787127
344.957397	2579.316448
345.348697	2576.291755
345.739934	2575.593556
346.131106	2574.164388
346.522215	2571.003585
346.913260	2570.764130
347.304241	2568.029304
347.695159	2567.552915
348.086012	2567.217678
348.476802	2562.756257
348.867528	2561.039744
349.258191	2556.674105
349.648789	2559.217367
350.039324	2553.518343
350.429796	2556.502706
350.820203	2557.226112
351.210548	2557.127809
351.600828	2555.933056
351.991045	2555.179403
352.381198	2555.423899
352.771288	2554.713096
353.161314	2554.045143
353.551276	2550.753270
353.941175	2548.265461
354.331010	2554.365257
354.720782	2556.802655
355.110490	2557.810885
355.500135	2555.794424
355.889717	2552.164793
356.279235	2554.778631
356.668689	2552.827705
357.058080	2556.641338
357.447408	2555.043292
357.836672	2555.796944
358.225873	2556.515309
358.615010	2556.101934
359.004084	2558.007490
359.393095	2559.020762
359.782043	2558.970351
360.170927	2560.487738
360.559748	2558.395659
360.948505	2560.926318
361.337199	2562.272307
361.725830	2563.951011
362.114398	2562.516802
362.502903	2560.770043
362.891344	2565.763306
363.279722	2562.816751
363.668037	2563.388922
364.056289	2564.634087
364.444478	2565.982596
364.832603	2566.348079
365.220665	2564.840774
365.608665	2564.681978
365.996601	2566.645507
366.384474	2566.033007
366.772284	2568.120045
367.160031	2567.515107
367.547715	2570.214644
367.935336	2567.994016
368.322893	2565.594427
368.710388	2563.935887
369.097820	2563.774570
369.485189	2566.769016
369.872495	2568.498132
370.259738	2571.563153
370.646918	2570.638101
371.034035	2572.899059
371.421090	2571.399316
371.808081	2571.086764
372.195010	2570.547361
372.581875	2575.112125
372.968678	2572.813359
373.355418	2571.240519
373.742096	2574.940726
374.128710	2574.784450
374.515262	2575.202866
374.901751	2575.250757
375.288177	2578.131777
375.674540	2574.267732
376.060841	2576.112794
376.447079	2571.870663
376.833254	2577.355439
377.219367	2576.047259
377.605417	2575.959039
377.991404	2576.906776
378.377329	2576.740418
378.763191	2576.291755
379.148991	2579.182857
379.534727	2579.351736
379.920402	2581.864751
380.306013	2578.580439
380.691563	2582.792323
381.077049	2578.603124
381.462474	2578.492219
381.847835	2581.426171
382.233134	2583.087231
382.618371	2580.334761
383.003545	2584.468507
383.388657	2582.454566
383.773706	2584.110585
384.158693	2584.783579
384.543618	2584.488672
384.928480	2584.357602
385.313280	2582.419278
385.698017	2584.806264
386.082692	2585.270050
386.467305	2587.987232
386.851856	2585.005390
387.236344	2585.315421
387.620770	2582.978846
388.005133	2582.623445
388.389435	2587.793148
388.773674	2584.581933
389.157851	2590.086873
389.541965	2589.882706
389.926018	2589.814651
390.310008	2590.744743
390.693936	2590.086873
391.077802	2593.081318
391.461606	2591.987388
391.845348	2589.789445
392.229027	2592.443612
392.612645	2594.180290
392.996200	2593.363623
393.379694	2592.539394
393.763125	2594.999477
394.146494	2596.199272
394.529801	2600.459047
394.913047	2598.087184
395.296230	2599.433172
395.679351	2599.627257
396.062410	2598.712287
396.445408	2599.786053
396.828343	2603.345107
397.211217	2600.448965
397.594028	2601.217741
397.976778	2602.825869
398.359466	2606.064810
398.742092	2604.071034
399.124656	2603.037597
399.507158	2602.737648
399.889598	2609.086982
400.271977	2605.207814
400.654294	2608.265274
401.036549	2610.006992
401.418742	2609.815428
401.800874	2612.698968
402.182944	2614.546551
402.564952	2617.349433
402.946898	2621.541152
403.328783	2621.795731
403.710606	2625.309415
404.092367	2629.788480
404.474067	2634.471712
404.855705	2638.756693
405.237282	2644.410347
405.618797	2652.183806
406.000250	2660.322749
406.381642	2665.494973
406.762972	2674.856395
407.144240	2679.605162
407.525447	2690.660413
407.906593	2700.919161
408.287677	2721.229970
408.668700	2733.371589
409.049661	2752.008734
409.430560	2769.017587
409.811399	2781.254988
410.192176	2800.257618
410.572891	2824.550938
410.953545	2852.746112
411.334138	2865.406970
411.714669	2896.561300
412.095139	2905.549678
412.475547	2940.615944
412.855894	2965.980509
413.236180	3003.103566
413.616405	3018.625279
413.996568	3060.446691
414.376670	3089.077925
414.756711	3113.051132
415.136691	3157.287257
415.516609	3204.782488
415.896466	3245.953591
416.276262	3298.608443
416.655997	3355.976774
417.035670	3420.012031
417.415283	3492.967609
417.794834	3550.330899
418.174324	3573.500042
418.553753	3620.007207
418.933121	3711.569684
419.312428	3759.730347
419.691674	3777.354221
420.070859	3901.608581
420.449983	3903.393149
420.829045	4025.724309
421.208047	4043.764078
421.586988	4155.334895
421.965867	4237.031834
422.344686	4324.861337
422.723444	4449.440852
423.102141	4325.723375
423.480777	4562.012338
423.859352	4529.965723
424.237866	4763.620683
424.616319	4821.598993
424.994712	4962.365653
425.373044	4971.785049
425.751314	5207.680802
426.129524	5099.835398
426.507673	5317.903110
426.885762	5395.609976
427.263789	5485.317309
427.641756	5600.686635
428.019662	5706.200506
428.397508	5790.554133
428.775292	5844.189489
429.153016	6018.031159
429.530679	6032.496750
429.908282	6119.149143
430.285824	6134.668336
430.663305	6387.698971
431.040726	6366.836155
431.418086	6420.400936
431.795385	6570.312248
432.172624	6763.340549
432.549802	6729.136321
432.926920	6884.111472
433.303977	6894.786115
433.680974	6969.400233
434.057910	7185.781680
434.434786	7277.039167
434.811601	7286.521578
435.188355	7617.490972
435.565050	7568.652273
435.941683	7621.700335
436.318257	7953.065460
436.694770	7956.997560
437.071222	8202.002678
437.447614	8040.736167
437.823946	8041.787247
438.200218	8217.600008
438.576429	8141.186198
438.952580	8323.461718
439.328670	8364.378243
439.704700	8468.241136
440.080670	8390.458653
440.456580	8667.404522
440.832429	8676.753342
441.208218	8452.681615
441.583947	8586.675484
441.959616	8721.244045
442.335224	8771.378320
442.710773	8868.385243
443.086261	9057.060508
443.461689	8813.383734
443.837057	8983.873037
444.212365	9204.917551
444.587612	9212.915341
444.962800	9120.067370
445.337927	9259.258668
445.712995	8830.160694
446.088002	9485.614038
446.462949	9554.156086
446.837837	9557.276560
447.212664	9588.506508
447.587431	10412.533516
447.962139	11404.597305
448.336786	12318.281234
448.711374	12103.172679
449.085901	10923.973697
449.460369	10850.503921
449.834776	10653.556123
450.209124	11561.167982
450.583412	11392.921993
450.957640	11700.185361
451.331808	11288.106322
451.705917	10736.682229
452.079965	10619.034301
452.453954	10826.548358
452.827883	10780.457088
453.201752	10747.389640
453.575562	10759.059911
453.949311	11095.312434
454.323001	11164.898001
454.696632	11082.482698
455.070202	11667.251503
455.443713	11726.164947
455.817164	11895.822459
456.190556	12209.402393
456.563888	12075.474059
456.937160	12331.042915
457.310373	11817.795480
457.683526	11826.128507
458.056619	11852.229081
458.429653	11920.844226
458.802628	12061.177347
459.175542	12113.277672
459.548398	12650.152994
459.921194	13229.694123
460.293930	13527.659083
460.666607	14378.762128
461.039224	15157.385983
461.411782	15498.278889
461.784280	15157.385983
462.156719	15095.296612
462.529099	15000.648948
462.901419	14358.806720
463.273680	13960.800062
463.645882	14180.962374
464.018024	14079.327672
464.390106	14438.610706
464.762130	15515.791857
465.134094	17058.828556
465.505999	19354.658237
465.877845	21591.302252
466.249631	22802.852838
466.621358	22297.479686
466.993026	21472.714149
467.364634	20726.429296
467.736184	19930.973027
468.107674	19324.307971
468.479105	19189.026087
468.850477	18917.456608
469.221790	18483.022573
469.593043	17824.675607
469.964238	17436.531966
470.335373	17489.816962
470.706449	18216.847129
471.077467	19090.945397
471.448425	21539.685878
471.819324	23401.903232
472.190164	23293.440287
472.560945	21546.950181
472.931667	19991.686164
473.302330	19660.885648
473.672934	19115.379870
474.043479	19541.117915
474.413965	19335.111163
474.784393	19151.270365
475.154761	19812.021961
475.525070	19948.503640
475.895321	19774.044429
476.265513	20308.235337
476.635645	20888.729244
477.005719	20944.827204
477.375734	21320.932569
477.745691	21942.053134
478.115588	22571.514288
478.485427	23767.636423
478.855207	25579.611118
479.224928	27368.910702
479.594591	28779.617112
479.964194	28407.080884
480.333739	28844.567338
480.703226	29052.809842
481.072653	29495.965074
481.442022	30021.270948
481.811333	30418.534036
482.180584	29969.311776
482.549777	29737.378370
482.918912	29511.829585
483.287988	29460.147676
483.657005	29308.698811
484.025964	28938.930177
484.394864	29139.273192
484.763706	29044.325580
485.132489	28510.996709
485.501213	28571.994670
485.869879	28743.943387
486.238487	28679.373768
486.607036	28953.872157
486.975527	28626.250089
487.343959	28961.829618
487.712333	29322.793877
488.080648	29276.886610
488.448905	29712.858197
488.817104	29578.846684
489.185244	30406.349567
489.553326	31360.516482
489.921350	33247.165788
490.289315	35742.176500
490.657222	36652.692063
491.025070	37205.946095
491.392861	36917.587054
491.760593	36135.116798
492.128267	35114.668792
492.495883	34122.350425
492.863440	33217.417940
493.230939	32248.336771
493.598380	31694.891176
493.965763	31537.922248
494.333088	31037.403726
494.700354	30839.283860
495.067563	30799.894804
495.434713	30673.974343
495.801805	30963.013940
496.168839	30787.964913
496.535815	30642.353705
496.902733	30761.632446
497.269593	30581.310373
497.636395	30719.448071
498.003139	30988.655769
498.369825	30738.276781
498.736453	31144.412299
499.103023	30969.333026
499.469535	31053.618598
499.835989	31165.028098
500.202385	31031.750072
500.568723	31069.087378
500.935003	31368.605013
501.301226	31223.704608
501.667390	31937.451334
502.033497	32124.465539
502.399546	31943.132714
502.765537	31533.584335
503.131470	31988.059477
503.497345	32407.443148
503.863163	31381.585985
504.228923	32133.516931
504.594625	32504.152644
504.960269	31990.554849
505.325856	32637.985196
505.691385	32291.776394
506.056856	32611.506535
506.422270	33093.682818
506.787625	32606.309106
507.152924	33063.682912
507.518164	33235.508120
507.883347	32812.857782
508.248472	32938.211113
508.613540	33607.797332
508.978550	33815.833148
509.343503	33666.738503
509.708398	34012.276831
510.073236	34611.095332
510.438016	34683.708112
510.802738	34374.710587
511.167403	34905.470990
511.532010	35140.371115
511.896561	35640.062887
512.261053	36369.878292
512.625488	36144.831102
512.989866	36065.712713
513.354186	36128.351570
513.718449	36093.282783
514.082655	36927.891173
514.446803	36629.863198
514.810894	37229.500887
515.174927	37229.848726
515.538904	37243.270798
515.902822	37847.306893
516.266684	37545.397231
516.630488	37888.304077
516.994235	37896.347238
517.357925	38472.876277
517.721558	38708.557781
518.085133	39079.069986
518.448651	39273.696333
518.812112	39157.107047
519.175516	39295.494282
519.538863	39752.981514
519.902152	39816.915948
520.265385	40353.516528
520.628560	40355.948885
520.991678	40306.323766
521.354739	40519.972907
521.717743	40864.477799
522.080690	40782.178442
522.443580	41445.581686
522.806413	41452.437655
523.169189	41594.517535
523.531908	41816.618170
523.894569	41662.154696
524.257174	41852.574200
524.619722	42195.917106
524.982213	42357.377702
525.344647	42386.306364
525.707025	42494.257632
526.069345	42932.248202
526.431608	42854.972354
526.793815	43221.111358
527.155964	42782.576344
527.518057	43017.978064
527.880093	42884.367322
528.242072	43497.011188
528.603995	43245.008948
528.965860	43171.143441
529.327669	43388.134867
529.689421	43435.299903
530.051117	43398.517124
530.412755	43675.339484
530.774337	43707.217221
531.135862	43657.292154
531.497331	43815.629755
531.858743	43808.367973
532.220098	44200.847005
532.581396	43934.968990
532.942638	43700.520048
533.303824	43951.854335
533.664953	44005.648487
534.026025	43679.286708
534.387040	44240.969549
534.747999	44333.333570
535.108902	44657.131922
535.469748	43974.721008
535.830537	44239.658849
536.191270	44475.189118
536.551947	44247.334006
536.912567	44511.729922
537.273131	44621.443074
537.633638	44257.270120
537.994089	44438.192090
538.354483	44205.157192
538.714821	44834.194889
539.075103	45120.996214
539.435328	45006.141085
539.795497	44763.046565
540.155609	44893.660340
540.515665	45463.499768
540.875665	44771.795487
541.235609	45043.017126
541.595496	45173.499831
541.955328	45756.678152
542.315102	45171.601837
542.674821	45089.819198
543.034483	44979.869112
543.394090	44993.356719
543.753640	44994.344785
544.113134	46056.704944
544.472571	45150.612993
544.831953	46272.146215
545.191278	45535.311005
545.550548	45246.014309
545.909761	45863.240583
546.268918	46007.679723
546.628019	46394.767242
546.987064	45849.667276
547.346053	45167.629408
547.704986	46081.280569
548.063863	45710.768364
548.422684	45904.318425
548.781449	45470.176776
549.140158	46015.004519
549.498811	45781.825948
549.857408	45178.036870
550.215949	46015.833789
550.574434	45845.455392
550.932864	45794.786755
551.291237	46500.621390
551.649555	46252.863802
552.007817	46413.696774
552.366022	46130.935934
552.724173	46194.598146
553.082267	46566.572285
553.440305	46955.870350
553.798288	46220.113946
554.156215	46604.159128
554.514086	46798.190619
554.871902	46395.757828
555.229661	46555.572487
555.587365	46252.362207
555.945014	46373.135650
556.302606	46386.721560
556.660143	46472.572410
557.017625	46712.034779
557.375050	46400.572130
557.732421	46798.215825
558.089735	46868.098820
558.446994	46718.706747
558.804197	47203.106178
559.161345	47051.921975
559.518437	46424.497446
559.875474	46676.847526
560.232455	46868.910446
560.589381	46933.510312
560.946251	46751.512055
561.303065	47380.267448
561.659825	47062.455466
562.016528	46888.578508
562.373177	46470.911350
562.729770	47124.338150
563.086307	46628.500340
563.442789	47159.906011
563.799216	47010.864297
564.155587	46920.355421
564.511904	46876.865387
564.868164	46912.365192
565.224370	47255.128366
565.580520	46959.346225
565.936615	47152.966862
566.292654	46801.752194
566.648638	47166.567895
567.004567	47104.352495
567.360441	47201.399748
567.716260	46905.357988
568.072023	47303.099986
568.427732	47216.765185
568.783385	46760.628982
569.138982	47169.201898
569.494525	47330.150817
569.850013	46944.855429
570.205445	47030.575209
570.560823	46812.988926
570.916145	46683.489246
571.271412	46899.311124
571.626625	46551.852116
571.981782	46649.171591
572.336884	46251.870695
572.691931	46582.630881
573.046923	46237.024497
573.401860	46070.245483
573.756743	46094.831191
574.111570	46239.988695
574.466342	46159.138670
574.821059	46306.524364
575.175722	45805.521892
575.530330	45883.682462
575.884882	45541.143620
576.239380	45451.819415
576.593823	45548.284414
576.948211	45472.367158
577.302544	45031.185538
577.656823	45016.558630
578.011047	45286.262881
578.365216	45139.197300
578.719330	44831.518037
579.073389	44813.480788
579.427394	44882.975615
579.781344	44782.291169
580.135239	44548.268205
580.489080	44614.975273
580.842866	44122.938493
581.196597	44580.634933
581.550273	44598.556235
581.903895	44519.891550
582.257463	44953.317355
582.610975	44402.286472
582.964434	44727.390483
583.317837	44210.488212
583.671186	44168.495401
584.024481	44473.301206
584.377721	44029.699832
584.730906	44239.139610
585.084037	44400.517027
585.437113	44091.711066
585.790135	44217.906270
586.143103	43810.596163
586.496016	43976.369466
586.848874	44062.928598
587.201679	44112.384838
587.554428	43605.113691
587.907124	43865.229668
588.259765	43645.561389
588.612352	43793.683092
588.964884	43283.606543
589.317362	43566.533740
589.669786	43562.064758
590.022155	43442.561685
590.374470	43915.197584
590.726731	43491.249149
591.078937	42852.655944
591.431090	43187.930484
591.783188	42707.657236
592.135232	42524.005481
592.487222	42784.164308
592.839157	42921.951645
593.191038	42570.769745
593.542866	42385.658575
593.894639	41771.353650
594.246358	42074.639548
594.598022	42058.394429
594.949633	41665.514625
595.301190	41657.690754
595.652692	41612.869855
596.004141	42099.338681
596.355535	41007.008863
596.706876	41022.369258
597.058162	40732.167676
597.409395	41236.580488
597.760573	41451.137037
598.111698	41067.076731
598.462768	40967.337502
598.813785	41004.175734
599.164748	40611.011105
599.515657	40889.313044
599.866511	40405.052244
600.217312	41077.363206
600.568060	40041.385926
600.918753	40850.493639
601.269392	40773.318614
601.619978	40491.762610
601.970510	40718.296941
602.320988	40847.625222
602.671412	41107.353030
603.021783	40964.350619
603.372100	40551.049100
603.722363	40666.345330
604.072572	40685.216889
604.422728	40690.328619
604.772830	40465.029372
605.122878	40646.694912
605.472872	40512.373368
605.822813	40750.146951
606.172701	40499.566317
606.522534	40818.371406
606.872314	41015.949349
607.222041	40876.939532
607.571714	41188.387058
607.921333	40691.367097
608.270899	40884.498742
608.620411	41267.011413
608.969870	41022.270956
609.319276	41043.784080
609.668627	41062.590104
610.017926	41468.914666
610.367171	41624.837555
610.716362	41646.161635
611.065500	41559.131155
611.414585	41808.912767
611.763616	41957.775519
612.112594	41847.769981
612.461518	41983.477842
612.810389	42350.025179
613.159207	42142.213694
613.507971	42121.255097
613.856682	42622.539874
614.205340	42454.006539
614.553945	43148.866583
614.902496	42491.016170
615.250994	42912.711210
615.599439	42987.131244
615.947830	43082.998866
616.296169	43105.542906
616.644454	43146.824915
616.992686	43293.101556
617.340864	43723.336310
617.688990	43233.794901
618.037063	43916.697328
618.385082	43728.095159
618.733048	44078.286473
619.080961	43952.366012
619.428821	44005.446841
619.776628	44041.458324
620.124382	43859.681878
620.472083	43980.581350
620.819731	44093.122589
621.167326	43672.289586
621.514868	43673.965770
621.862357	43118.866676
622.209793	43219.851070
622.557176	42796.739466
622.904506	42561.524268
623.251783	42183.800693
623.599007	41874.556152
623.946179	41812.184476
624.293297	41556.736607
624.640363	41007.767556
624.987376	40863.930834
625.334336	40679.666579
625.681243	40261.422209
626.028097	40164.314462
626.374899	39990.150159
626.721647	39947.688520
627.068343	39740.779401
627.414987	39458.202564
627.761577	39200.241680
628.108115	39520.748159
628.454600	38767.115824
628.801032	39021.310966
629.147412	38909.629243
629.493739	38802.540012
629.840014	38374.573777
630.186236	38778.702916
630.532405	38210.814415
630.878521	38474.103798
631.224585	38237.015812
631.570597	37910.381810
631.916556	38076.525638
632.262462	37990.878955
632.608316	37940.275853
632.954117	37793.585837
633.299866	37734.576611
633.645562	37670.420367
633.991206	37166.050404
634.336797	36756.844822
634.682336	36646.085631
635.027823	36420.451147
635.373257	36295.894318
635.718639	35974.031768
636.063968	35865.722578
636.409245	35218.740893
636.754470	35171.343965
637.099642	34940.706135
637.444762	34374.456009
637.789829	34513.077657
638.134845	34123.882936
638.479808	34034.410017
638.824719	33980.305833
639.169577	33483.762262
639.514383	33601.879017
639.859137	33212.122208
640.203839	33378.235788
640.548489	33089.211315
640.893086	33065.497727
641.237632	32783.286373
641.582125	32877.530744
641.926566	32654.240397
642.270955	32704.825855
642.615292	32639.694147
642.959576	32508.674559
643.303809	32502.090812
643.647990	32624.356437
643.992118	32592.824019
644.336195	32401.945770
644.680219	32480.920486
645.024192	32668.277489
645.368112	33193.343909
645.711981	33216.944071
646.055797	33902.974533
646.399562	33698.921229
646.743274	34564.056325
647.086935	34957.180626
647.430544	34942.619253
647.774101	34970.761494
648.117606	35294.678314
648.461059	35424.901400
648.804460	35053.907765
649.147810	34548.012853
649.491108	34248.217955
649.834354	34132.654544
650.177548	33313.905624
650.520690	32814.304593
650.863781	32794.702066
651.206820	32606.533437
651.549807	32174.204083
651.892742	31599.759561
652.235626	31527.219878
652.578458	31375.176158
652.921238	30671.128611
653.263967	30947.391404
653.606644	30660.486736
653.949269	30567.419474
654.291843	30179.568220
654.634365	30534.858661
654.976836	30079.198847
655.319255	30168.220583
655.661622	30030.024912
656.003938	29908.601160
656.346203	29718.879856
656.688416	29973.001900
657.030577	29765.540776
657.372687	29578.236704
657.714746	29704.063904
658.056753	29903.814584
658.398708	29280.226374
658.740612	29344.251549
659.082465	29559.415557
659.424266	29429.305896
659.766016	29440.527505
660.107715	29285.756520
660.449362	29363.914569
660.790958	29342.051085
661.132503	29279.939028
661.473996	29371.388080
661.815438	29436.295456
662.156829	29551.291737
662.498168	29347.939153
662.839456	29336.536063
663.180693	29459.709095
663.521879	29529.390444
663.863013	29474.121754
664.204097	29451.507138
664.545129	29848.341728
664.886110	29788.611616
665.227040	29897.664377
665.567918	29897.480375
665.908746	29955.793922
666.249522	30036.046570
666.590248	30081.061554
666.930922	30180.256338
667.271545	30186.237667
667.612118	30243.787479
667.952639	30059.485415
668.293109	30096.280797
668.633528	29941.232549
668.973896	29913.801110
669.314213	29882.664423
669.654480	29691.461020
669.994695	29669.194243
670.334859	29600.884088
670.674973	29403.033923
671.015035	29605.834501
671.355047	29533.834221
671.695008	29448.868094
672.034918	29355.861326
672.374777	29447.761561
672.714585	29326.257150
673.054342	29460.540886
673.394049	29327.736729
673.733705	29533.002431
674.073310	29248.832589
674.412864	29329.382665
674.752368	29042.122596
675.091820	29271.704304
675.431223	28874.534477
675.770574	28677.004426
676.109875	28509.822120
676.449125	28300.609194
676.788324	28206.251397
677.127473	27730.245486
677.466571	27627.781514
677.805619	27355.775976
678.144616	27272.039890
678.483562	27225.701604
678.822458	26907.221668
679.161303	26859.902878
679.500098	26772.184280
679.838842	26687.329058
680.177535	26745.277122
680.516179	26974.982338
680.854771	27042.785857
681.193314	27725.980670
681.531805	28668.492437
681.870247	29422.586038
682.208638	30228.898431
682.546978	30582.542935
682.885268	30773.390938
683.223508	30354.392915
683.561697	30090.760734
683.899836	29932.385324
684.237925	29531.361535
684.575963	29358.447438
684.913951	28970.064343
685.251889	29102.629045
685.589776	29111.861918
685.927614	29107.589540
686.265401	29285.769123
686.603137	29368.302894
686.940824	29840.515336
687.278460	30166.231848
687.616046	30357.450375
687.953582	31027.810411
688.291068	30961.441100
688.628504	31336.732318
688.965889	31353.174042
689.303224	31100.886977
689.640510	30842.898367
689.977745	30248.198489
690.314930	29507.398411
690.652065	29113.747310
690.989150	28432.044678
691.326185	27598.003418
691.663170	26986.831570
692.000105	26272.749607
692.336990	25673.890777
692.673825	25249.891930
693.010610	24751.382308
693.347345	24246.707356
693.684030	23621.586635
694.020665	23433.125619
694.357251	22762.979832
694.693786	22765.175255
695.030272	22524.825642
695.366707	22031.926825
695.703093	21745.604410
696.039429	21815.429432
696.375716	21576.272052
696.711952	21570.378943
697.048139	21428.949372
697.384276	21266.596492
697.720363	21382.548072
698.056400	21282.526538
698.392388	21116.276846
698.728326	21113.000096
699.064214	20967.285544
699.400053	20983.941516
699.735842	20591.313770
700.071581	20410.855585
700.407270	20179.796819
700.742910	19992.790176
701.078501	19757.302757
701.414042	19547.381549
701.749533	19249.882896
702.084974	18941.490309
702.420366	19164.556326
702.755709	18764.697044
703.091002	18458.777143
703.426246	18514.494496
703.761440	18456.864025
704.096584	18216.587510
704.431679	18164.073810
704.766725	18097.563347
705.101721	18012.095624
705.436668	18125.219117
705.771565	17843.605139
706.106413	18164.247730
706.441212	18236.820181
706.775961	18318.469229
707.110661	18393.630312
707.445311	18757.848636
707.779913	18636.344226
708.114465	18914.013500
708.448967	19230.366069
708.783421	19827.606688
709.117825	20172.482105
709.452180	20390.658203
709.786485	20822.178451
710.120742	21556.467879
710.454949	21657.127119
710.789107	22167.354902
711.123216	22874.240618
711.457275	23102.617490
711.791286	23675.516898
712.125247	23835.611342
712.459159	23608.376291
712.793023	24368.153793
713.126837	23391.972159
713.460602	23652.004957
713.794318	23330.157531
714.127985	23067.037026
714.461602	22187.721164
714.795171	22176.030728
715.128691	21200.270031
715.462162	20691.854542
715.795584	20257.821278
716.128957	19985.067129
716.462281	19616.914184
716.795556	19332.860288
717.128782	18867.765955
717.461960	18260.644674
717.795088	18233.853462
718.128167	17896.166730
718.461198	17457.984597
718.794180	17332.137232
719.127113	16999.093403
719.459997	16812.230433
719.792833	16443.396932
720.125619	16479.700802
720.458357	16138.565921
720.791046	16013.096643
721.123686	15855.858013
721.456278	15630.820906
721.788821	15619.364883
722.121315	15360.310070
722.453761	15457.526201
722.786158	15337.236708
723.118506	15425.517395
723.450805	15319.398586
723.783056	15490.835625
724.115259	15364.806779
724.447412	15349.557288
724.779518	15553.368618
725.111574	15606.630929
725.443582	15856.084865
725.775542	15812.191539
726.107453	16309.977755
726.439315	16220.250257
726.771129	16620.817821
727.102895	17025.836724
727.434612	17308.421124
727.766281	17469.675032
728.097901	17804.379921
728.429473	17912.923525
728.760996	17936.279191
729.092471	18047.509730
729.423897	17930.660825
729.755276	17777.220705
730.086606	17864.044498
730.417887	18403.205984
730.749120	18959.623340
731.080305	19176.579478
731.411442	19594.188662
731.742530	19691.480411
732.073570	19833.958542
732.404562	20155.269085
732.735506	20058.546987
733.066401	19939.185067
733.397249	19497.252315
733.728048	18905.897242
734.058798	18066.260302
734.389501	17310.702246
734.720156	16785.708923
735.050762	16202.649069
735.381320	15804.508820
735.711831	15516.280849
736.042293	15134.657941
736.372707	15152.755683
736.703073	14940.717191
737.033391	15121.414830
737.363661	15101.066212
737.693883	15214.915631
738.024056	15395.487241
738.354182	15596.684732
738.684260	15948.481653
739.014290	16229.901546
739.344272	16446.237622
739.674207	16789.194880
740.004093	16971.291440
740.333931	17050.535858
740.663722	17143.250238
740.993464	17198.203857
741.323159	17061.679328
741.652806	16771.918846
741.982405	16607.315091
742.311956	16262.139725
742.641460	16160.031154
742.970915	15841.594068
743.300323	15490.328989
743.629683	15291.243741
743.958996	14976.592562
744.288260	14669.354400
744.617477	14356.880999
744.946647	14325.517461
745.275768	14002.540816
745.604842	13811.917145
745.933869	13628.782108
746.262847	13585.231580
746.591778	13499.688241
746.920662	13370.768293
747.249498	13376.905897
747.578286	13510.902287
747.907027	13673.993697
748.235720	13932.070527
748.564365	14018.407848
748.892963	13954.891830
749.221514	14071.912134
749.550017	13949.898567
749.878473	13923.729937
750.206881	13708.349160
750.535242	13638.856854
750.863555	13559.236870
751.191821	13456.558649
751.520039	13468.639774
751.848210	13377.709962
752.176334	13436.313375
752.504411	13360.776726
752.832440	13190.431096
753.160421	13307.005258
753.488356	13194.758927
753.816243	13108.598046
754.144082	12938.562447
754.471875	12881.862069
754.799620	12841.726923
755.127318	12818.817399
755.454969	12807.270636
755.782572	12759.606527
756.110129	12781.709466
756.437638	12699.039584
756.765100	12703.591746
757.092515	12717.780073
757.419882	12762.931168
757.747203	12755.135023
758.074477	12844.570134
758.401703	12822.300837
758.728882	13013.000125
759.056014	13046.909446
759.383099	13215.031927
759.710138	13341.769055
760.037129	13474.434580
760.364073	13537.678376
760.690970	13558.326942
761.017820	13568.895721
761.344623	13765.248663
761.671379	14085.722375
761.998088	14630.978616
762.324751	16026.858993
762.651366	18949.755281
762.977935	23260.947530
763.304456	26557.287453
763.630931	28146.433066
763.957359	27374.708029
764.283740	25318.396169
764.610074	23173.201206
764.936362	20549.293232
765.262602	18660.713163
765.588796	16686.672935
765.914943	15356.524163
766.241044	14204.612948
766.567097	13393.473650
766.893104	12639.211170
767.219064	12166.718943
767.544978	11688.573063
767.870845	11289.553133
768.196665	11058.300283
768.522438	10833.684111
768.848165	10623.571340
769.173846	10412.052086
769.499479	10285.730853
769.825066	10120.171799
770.150607	9899.860773
770.476101	9816.691817
770.801548	9702.159322
771.126949	9542.614364
771.452303	9428.079349
771.777611	9228.172393
772.102872	9225.044357
772.428087	9087.378008
772.753256	8936.836551
773.078378	8851.477213
773.403453	8668.180859
773.728482	8561.270589
774.053465	8473.756158
774.378401	8375.647743
774.703291	8248.368691
775.028135	8141.685272
775.352932	8102.137420
775.677683	8003.502204
776.002388	7894.300730
776.327046	7904.622492
776.651658	7806.811505
776.976224	7701.471554
777.300743	7704.823921
777.625216	7619.018442
777.949643	7577.842297
778.274024	7596.812159
778.598359	7508.833942
778.922647	7526.646859
779.246889	7472.993859
779.571086	7472.411605
779.895236	7480.757236
780.219339	7494.398598
780.543397	7494.537230
780.867409	7575.861123
781.191374	7590.543484
781.515294	7549.838687
781.839167	7646.051629
782.162995	7619.910726
782.486776	7569.184115
782.810511	7525.195007
783.134201	7434.169412
783.457844	7424.734893
783.781441	7372.143055
784.104993	7319.488203
784.428498	7292.213041
784.751958	7281.891278
785.075372	7239.318734
785.398739	7189.779315
785.722061	7229.569142
786.045337	7228.089564
786.368568	7367.921089
786.691752	7366.244905
787.014891	7660.597878
787.337983	7973.184705
787.661030	8527.716669
787.984031	9146.319178
788.306987	9580.072658
788.629897	9837.131175
788.952760	9838.489766
789.275579	9659.070059
789.598351	9290.566754
789.921078	8953.926062
790.243759	8544.468423
790.566395	8252.414217
790.888984	8001.573963
791.211529	7789.994215
791.534027	7564.362252
791.856480	7357.342228
792.178888	7278.851462
792.501249	7178.091400
792.823566	7023.411156
793.145836	7023.060796
793.468062	6983.860783
793.790241	6931.768020
794.112375	6985.670557
794.434464	7132.226982
794.756507	7157.773029
795.078505	7299.648742
795.400457	7577.459169
795.722364	7914.893843
796.044226	8201.765744
796.366042	8491.387594
796.687812	8464.845919
797.009538	8559.927122
797.331218	8482.273188
797.652852	8404.583966
797.974442	8260.099456
798.295986	8170.742483
798.617484	7983.478741
798.938938	7852.996036
799.260346	7744.407061
799.581709	7547.023203
799.903026	7465.601007
800.224299	7363.908331
800.545526	7193.192176
800.866708	7098.962928
801.187845	7032.666714
801.508936	6924.700322
801.829983	6888.388891
802.150984	6736.786272
802.471940	6692.280445
802.792851	6683.859197
803.113717	6651.240411
803.434538	6617.595751
803.755314	6558.422687
804.076045	6562.627009
804.396731	6499.579818
804.717372	6527.880856
805.037967	6522.880032
805.358518	6567.728657
805.679024	6646.340410
805.999485	6654.257542
806.319901	6694.405291
806.640272	6711.663681
806.960598	6798.432021
807.280879	6804.950233
807.601115	6877.769701
807.921306	6829.578790
808.241453	6836.270922
808.561554	6863.546085
808.881611	6825.843295
809.201623	6838.511715
809.521590	6789.327697
809.841513	6767.824656
810.161390	6803.841179
810.481223	6670.142218
810.801011	6663.213152
811.120755	6637.813298
811.440453	6562.006947
811.760107	6524.410022
812.079716	6500.081413
812.399281	6439.784172
812.718801	6426.561226
813.038276	6388.382047
813.357707	6317.833619
813.677093	6359.440783
813.996434	6264.830928
814.315731	6301.696886
814.634983	6293.497449
814.954191	6296.252440
815.273354	6389.501183
815.592473	6447.814730
815.911547	6562.725312
816.230577	6641.823536
816.549562	6788.939529
816.868502	6889.210599
817.187399	6975.749567
817.506250	7111.911132
817.825058	7143.020092
818.143821	7384.415744
818.462539	7621.228988
818.781213	7944.954243
819.099843	8422.631297
819.418429	9327.843567
819.736970	10221.322551
820.055466	11321.062865
820.373919	12689.905013
820.692327	14678.183981
821.010691	17984.495307
821.329011	25407.879171
821.647286	37005.845055
821.965517	50897.551063
822.283704	58410.233926
822.601847	61581.124736
822.919945	59403.472303
823.237999	55568.076757
823.556010	49602.019895
823.873976	42943.729430
824.191897	36501.780082
824.509775	31653.082366
824.827609	27011.739911
825.145398	24223.570980
825.463144	22560.181775
825.780845	22442.291871
826.098502	23686.007540
826.416116	26969.938663
826.733685	30680.880723
827.051210	32518.048584
827.368692	31591.781935
827.686129	28085.903931
828.003522	24074.332662
828.320872	20359.390446
828.638177	17454.770861
828.955439	15263.814823
829.272656	13443.615486
829.589830	11961.833848
829.906960	10661.962247
830.224046	9688.422178
830.541088	8912.268487
830.858086	8420.120802
831.175041	8018.507199
831.491952	7864.265535
831.808819	7848.448915
832.125642	8142.239799
832.442421	8836.699071
832.759157	10326.864148
833.075849	12870.232127
833.392497	16001.547359
833.709101	18501.011930
834.025662	18856.551908
834.342179	17518.385181
834.658653	15461.962416
834.975083	13542.122153
835.291469	11893.059907
835.607811	10558.061545
835.924110	9651.785592
836.240366	8786.189230
836.556578	7981.119481
836.872746	7329.499935
837.188871	6809.683877
837.504952	6390.020422
837.820990	6059.199742
838.136984	5828.408157
838.452935	5719.655345
838.768842	5697.507036
839.084706	5974.304191
839.400526	6935.150634
839.716303	8430.465250
840.032037	9671.620012
840.347727	9894.597808
840.663373	9109.004558
840.978977	8073.181033
841.294537	7238.814618
841.610054	6624.146730
841.925527	6188.439803
842.240957	5826.885729
842.556344	5499.840873
842.871687	5223.247885
843.186987	4940.585348
843.502244	4711.704360
843.817458	4543.100449
844.132629	4401.945621
844.447756	4310.322650
844.762840	4228.534970
845.077881	4151.591838
845.392879	4092.880040
845.707833	4041.301475
846.022745	3998.829753
846.337613	3968.872697
846.652438	3926.935338
846.967221	3908.767019
847.281960	3877.925240
847.596656	3858.736088
847.911309	3841.323943
848.225919	3818.232937
848.540485	3801.123261
848.855009	3787.595325
849.169490	3768.627984
849.483928	3754.971498
849.798323	3748.029829
850.112675	3727.484607
850.426984	3731.101634
850.741251	3721.173082
851.055474	3713.361814
851.369654	3719.620407
851.683792	3715.196794
851.997887	3722.004872
852.311938	3724.406982
852.625947	3724.767425
852.939914	3715.511866
853.253837	3728.724730
853.567718	3724.956468
853.881555	3715.564798
854.195350	3732.591295
854.509103	3726.811613
854.822812	3720.903380
855.136479	3712.698902
855.450103	3723.207188
855.763685	3709.835527
856.077224	3714.917010
856.390720	3729.783373
856.704173	3745.403388
857.017584	3756.433433
857.330953	3770.097480
857.644278	3791.590439
857.957561	3795.527581
858.270802	3794.988177
858.584000	3802.484373
858.897155	3797.770894
859.210268	3781.634161
859.523339	3756.136004
859.836367	3755.750356
860.149352	3750.384048
860.462295	3744.616968
860.775195	3733.173549
861.088054	3727.298084
861.400869	3722.670305
861.713642	3722.599728
862.026373	3732.072057
862.339062	3734.043148
862.651708	3757.033330
862.964312	3786.889563
863.276873	3795.356181
863.589392	3845.661856
863.901869	3886.364132
864.214303	3929.518929
864.526696	3968.653407
864.839045	4008.750744
865.151353	4039.655538
865.463619	4049.543761
865.775842	4052.926375
866.088023	4077.491918
866.400162	4065.907347
866.712258	4074.005960
867.024313	4073.988316
867.336325	4074.467226
867.648296	4081.416456
867.960224	4077.438986
868.272110	4087.596911
868.583954	4086.205552
868.895755	4100.449333
869.207515	4094.198302
869.519233	4136.223881
869.830909	4148.894821
870.142542	4166.082635
870.454134	4182.932692
870.765684	4210.727094
871.077191	4250.889966
871.388657	4272.829068
871.700081	4304.416938
872.011463	4339.846167
872.322803	4371.436558
872.634101	4403.795724
872.945357	4445.322229
873.256571	4492.938448
873.567744	4521.650339
873.878874	4547.065317
874.189963	4583.185184
874.501010	4593.141463
874.812015	4590.658694
875.122979	4634.945231
875.433900	4625.455259
875.744780	4642.017970
876.055618	4667.470756
876.366415	4665.003111
876.677169	4679.693033
876.987882	4721.481678
877.298554	4764.185292
877.609183	4836.127599
877.919771	4930.072021
878.230317	5056.209252
878.540822	5241.539712
878.851285	5518.475498
879.161707	5905.411782
879.472087	6542.906015
879.782425	7554.698360
880.092722	9365.692550
880.402977	12197.371679
880.713191	15689.777200
881.023363	19380.141270
881.333494	21842.722239
881.643583	23296.192757
881.953631	23519.858671
882.263637	22874.669116
882.573602	21591.014907
882.883526	20161.681433
883.193408	18597.391230
883.503248	17000.194895
883.813048	15520.563309
884.122806	14163.588038
884.432522	12728.744583
884.742197	11502.534321
885.051831	10429.517163
885.361424	9441.357748
885.670975	8622.414744
885.980485	7928.867922
886.289954	7358.237033
886.599382	6888.625825
886.908768	6515.774525
887.218113	6150.978989
887.527417	5861.271439
887.836680	5602.945072
888.145901	5384.763933
888.455082	5222.116146
888.764221	5066.790634
889.073319	4933.941107
889.382376	4857.844889
889.691392	4796.403306
890.000366	4768.467752
890.309300	4747.352879
890.618193	4751.579887
890.927044	4732.330241
891.235855	4748.398919
891.544625	4769.428092
891.853353	4819.945495
892.162041	4917.242285
892.470687	5073.142488
892.779293	5293.634995
893.087858	5604.462459
893.396381	6093.257777
893.704864	6779.265554
894.013306	7800.119373
894.321707	8925.869521
894.630068	9814.554368
894.938387	10153.599690
895.246665	10045.741683
895.554903	9522.611066
895.863100	8873.809525
896.171256	8347.618928
896.479371	7860.736727
896.787446	7373.420988
897.095480	6956.721732
897.403473	6642.957796
897.711425	6334.237534
898.019336	6078.540129
898.327207	5810.996012
898.635038	5593.397127
898.942827	5344.233057
899.250576	5151.973531
899.558284	4960.482782
899.865952	4842.683619
900.173579	4700.041651
900.481165	4592.448304
900.788711	4498.193851
901.096216	4423.972942
901.403681	4355.229248
901.711105	4329.758818
902.018489	4309.102690
902.325832	4360.159497
902.633135	4448.094864
902.940397	4705.231518
903.247619	5312.284744
903.554800	6496.479509
903.861941	8255.501923
904.169041	9814.055293
904.476101	10663.658595
904.783121	10534.350478
905.090100	9907.430065
905.397039	9129.925346
905.703938	8402.184377
906.010796	7736.384065
906.317614	7201.855399
906.624391	6693.709612
906.931129	6280.468587
907.237826	5892.317385
907.544483	5532.769690
907.851099	5172.949772
908.157675	4828.192822
908.464211	4504.780118
908.770707	4265.479066
909.077163	4058.622879
909.383578	3909.732400
909.689954	3792.026499
909.996289	3716.910786
910.302584	3650.110457
910.608839	3615.830611
910.915054	3583.660487
911.221229	3567.871593
911.527363	3574.606575
911.833458	3583.501691
912.139513	3608.132769
912.445527	3623.425109
912.751502	3696.897406
913.057436	3787.721354
913.363331	3899.874424
913.669186	4074.487390
913.975000	4289.091830
914.280775	4647.527951
914.586510	5144.444568
914.892205	5829.290359
915.197859	6752.461739
915.503475	7883.000983
915.809050	8934.540305
916.114585	9647.493050
916.420081	10007.166774
916.725536	10057.784999
917.030952	9702.489517
917.336328	9338.861008
917.641665	8962.125499
917.946961	8516.013631
918.252218	8117.359184
918.557435	7627.167467
918.862612	7225.513534
919.167750	6874.238372
919.472848	6470.255427
919.777906	6111.080777
920.082925	5766.482623
920.387904	5405.268827
920.692843	5133.732116
920.997743	4887.519642
921.302603	4658.048839
921.607423	4491.360567
921.912204	4332.402903
922.216946	4217.847723
922.521647	4100.177110
922.826310	4002.008201
923.130932	3907.746186
923.435516	3812.060045
923.740059	3745.700816
924.044564	3671.779857
924.349028	3615.374386
924.653454	3553.630334
924.957840	3480.921772
925.262186	3439.881738
925.566493	3380.759086
925.870761	3327.527022
926.174989	3290.106537
926.479178	3256.555138
926.783328	3218.310424
927.087438	3189.142308
927.391509	3153.786175
927.695541	3124.681074
927.999533	3100.763319
928.303486	3079.189701
928.607400	3063.786456
928.911275	3051.659960
929.215110	3032.778318
929.518906	3025.229191
929.822663	3023.946217
930.126381	3022.544776
930.430060	3024.954448
930.733699	3028.326980
931.037299	3039.387271
931.340861	3035.069523
931.644383	3045.547561
931.947866	3044.236861
932.251309	3040.345090
932.554714	3039.198228
932.858080	3032.347300
933.161407	3028.170704
933.464694	3021.077800
933.767943	3013.193436
934.071153	3008.172447
934.374323	3002.223885
934.677455	2993.928666
934.980548	2984.148828
935.283602	2979.006851
935.586617	2976.945019
935.889593	2985.983808
936.192530	2987.430619
936.495428	2997.749861
936.798287	3014.796523
937.101108	3042.883311
937.403890	3086.925352
937.706632	3145.070020
938.009336	3218.965774
938.312002	3287.548152
938.614628	3349.125846
938.917216	3401.833630
939.219765	3438.059361
939.522275	3471.517499
939.824747	3474.242243
940.127179	3479.613593
940.429573	3473.251656
940.731929	3471.066316
941.034246	3462.219091
941.336524	3448.166875
941.638763	3435.029628
941.940964	3423.742484
942.243126	3385.079355
942.545250	3364.158567
942.847335	3328.860407
943.149381	3297.968217
943.451389	3263.852208
943.753359	3230.028586
944.055290	3207.749207
944.357182	3184.753983
944.659036	3166.066426
944.960851	3157.335148
945.262628	3139.645739
945.564367	3142.690596
945.866067	3138.514000
946.167729	3133.765233
946.469352	3132.620891
946.770937	3127.935138
947.072484	3113.673714
947.373992	3115.468365
947.675462	3111.090123
947.976893	3095.616301
948.278286	3085.506267
948.579641	3078.660380
948.880958	3071.496901
949.182236	3076.371696
949.483476	3066.425500
949.784678	3068.958680
950.085841	3067.438772
950.386967	3075.280287
950.688054	3089.372832
950.989103	3109.234978
951.290114	3125.127216
951.591087	3154.877585
951.892021	3177.156965
952.192917	3207.897921
952.493776	3229.713514
952.794596	3238.293558
953.095378	3248.648088
953.396122	3244.912593
953.696828	3238.157447
953.997496	3229.789131
954.298126	3208.233157
954.598718	3194.140612
954.899272	3171.856191
955.199788	3143.093888
955.500266	3117.048767
955.800706	3086.169179
956.101108	3047.634599
956.401472	3016.911287
956.701798	2987.685197
957.002087	2949.702624
957.302337	2920.882347
957.602550	2894.615415
957.902724	2865.190200
958.202861	2841.234637
958.502960	2822.045485
958.803022	2799.715694
959.103045	2780.604680
959.403031	2766.320570
959.702979	2749.972108
960.002889	2736.272773
960.302762	2724.884806
960.602596	2714.666387
960.902393	2704.150540
961.202153	2697.649972
961.501875	2690.630166
961.801559	2681.336799
962.101205	2678.170954
962.400814	2671.314985
962.700385	2663.801145
962.999918	2657.812254
963.299414	2655.604229
963.598873	2651.654485
963.898293	2644.372538
964.197677	2646.716675
964.497022	2643.155099
964.796331	2637.856847
965.095601	2636.470529
965.394835	2637.677886
965.694030	2634.713687
965.993189	2633.337452
966.292309	2631.016001
966.591393	2631.336114
966.890439	2631.837709
967.189447	2630.804272
967.488419	2629.823768
967.787353	2630.658079
968.086249	2633.014818
968.385108	2633.284520
968.683930	2636.634367
968.982714	2638.723925
969.281462	2639.510345
969.580172	2650.288332
969.878844	2653.726399
970.177480	2662.089673
970.476078	2669.563184
970.774639	2673.772547
971.073162	2681.455266
971.371649	2689.352233
971.670098	2692.114786
971.968510	2699.268183
972.266885	2702.071064
972.565223	2706.416539
972.863524	2707.883515
973.161788	2713.743856
973.460014	2714.462221
973.758204	2716.617314
974.056356	2718.598487
974.354471	2720.952706
974.652550	2720.960268
974.950591	2721.106461
975.248595	2720.924980
975.546563	2715.662015
975.844493	2712.861654
976.142386	2709.612631
976.440243	2706.161961
976.738062	2698.988399
977.035845	2695.991433
977.333590	2688.817871
977.631299	2685.415092
977.928971	2679.159020
978.226606	2671.879594
978.524204	2669.696774
978.821765	2664.819458
979.119290	2664.975734
979.416777	2665.016063
979.714228	2667.413132
980.011642	2670.505880
980.309020	2674.848834
980.606360	2687.318128
980.903664	2707.379399
981.200931	2735.453585
981.498162	2778.565533
981.795356	2840.828824
982.092513	2918.303797
982.389633	3015.565299
982.686717	3104.140892
982.983764	3182.382121
983.280775	3241.885380
983.577749	3258.455653
983.874686	3249.363932
984.171587	3223.507854
984.468451	3187.491330
984.765279	3151.285763
985.062070	3111.732870
985.358824	3066.667475
985.655543	3014.209228
985.952224	2970.179791
986.248869	2908.304668
986.545478	2850.807788
986.842050	2795.720579
987.138586	2751.469331
987.435086	2712.188660
987.731549	2682.876871
988.027975	2655.546256
988.324366	2640.097640
988.620719	2626.105917
988.917037	2614.039915
989.213318	2604.917947
989.509563	2601.293358
989.805772	2595.228850
990.101944	2588.254413
990.398080	2585.819536
990.694180	2585.675863
990.990244	2585.622931
991.286271	2581.950451
991.582262	2586.875658
991.878217	2588.569486
992.174136	2590.646441
992.470019	2591.720207
992.765865	2596.269848
993.061676	2599.710436
993.357450	2607.350304
993.653188	2610.067486
993.948890	2628.475259
994.244556	2644.768269
994.540186	2661.532626
994.835780	2692.064374
995.131337	2723.717779
995.426859	2760.190527
995.722345	2806.654842
996.017795	2855.435567
996.313208	2891.129457
996.608586	2920.640372
996.903928	2938.970007
997.199234	2939.098557
997.494504	2938.967487
997.789738	2927.859304
998.084936	2908.150913
998.380099	2879.716285
998.675225	2854.533201
998.970316	2823.288129
999.265371	2789.409055
999.560390	2756.422265
999.855373	2728.501834
1000.150320	2701.534182
1000.445232	2675.909997
1000.740108	2653.363436
1001.034948	2636.059675
1001.329752	2619.938065
1001.624521	2609.618823
1001.919254	2596.186669
1002.213951	2591.042172
1002.508613	2582.026068
1002.803239	2575.772517
1003.097829	2570.585169
1003.392384	2565.395301
1003.686903	2560.540670
1003.981386	2557.707542
1004.275834	2555.144115
1004.570246	2550.239072
1004.864623	2550.433157
1005.158964	2544.716488
1005.453270	2546.528783
1005.747540	2544.235058
1006.041775	2541.492670
1006.335974	2540.915458
1006.630138	2538.546116
1006.924266	2538.190715
1007.218359	2536.774150
1007.512416	2533.482277
1007.806438	2532.181659
1008.100425	2533.197452
1008.394376	2533.323481
1008.688292	2536.043183
1008.982172	2531.715353
1009.276017	2533.449509
1009.569827	2533.578059
1009.863602	2535.231557
1010.157341	2527.485824
1010.451045	2531.523789
1010.744714	2527.833664
1011.038347	2527.939528
1011.331945	2528.335259
1011.625508	2530.394570
1011.919036	2528.990609
1012.212528	2527.521113
1012.505986	2526.578417
1012.799408	2524.143539
1013.092795	2525.423992
1013.386147	2523.425175
1013.679464	2525.328211
1013.972745	2524.143539
1014.265992	2521.746471
1014.559204	2523.140350
1014.852380	2522.530370
1015.145521	2524.176307
1015.438628	2523.591533
1015.731699	2523.515916
1016.024736	2522.553055
1016.317737	2524.556914
1016.610703	2525.325690
1016.903635	2527.092614
1017.196531	2529.961031
1017.489393	2531.425486
1017.782219	2529.764426
1018.075011	2532.559746
1018.367768	2530.061854
1018.660490	2532.521937
1018.953177	2532.521937
1019.245829	2532.521937
