Dividing Wavelength (nm)	Counts (n)	Blue Motor Position (mm): 46.500000	Red Motor Position (mm): 0.000000	
326.493990	2065.905175
326.888308	2065.905175
327.282561	2065.905175
327.676750	2040.533048
328.070874	2043.555220
328.464933	2049.453370
328.858929	2056.299257
329.252859	2063.182952
329.646726	2078.558472
330.040528	2094.017170
330.434265	2111.497371
330.827938	2134.497635
331.221547	2151.967754
331.615091	2171.174550
332.008571	2195.137675
332.401986	2215.549307
332.795338	2233.586555
333.188625	2255.502972
333.581847	2275.168513
333.975006	2290.213836
334.368100	2309.216466
334.761129	2326.227839
335.154095	2340.196877
335.546996	2394.885834
335.939833	2498.229488
336.332606	2509.874553
336.725315	2520.949968
337.117960	2533.827596
337.510540	2542.488298
337.903056	2554.491286
338.295508	2559.663509
338.687896	2565.942267
339.080220	2570.000395
339.472480	2577.428536
339.864676	2580.569174
340.256807	2582.638568
340.648875	2583.253589
341.040879	2581.461459
341.432818	2586.225349
341.824694	2588.947572
342.216506	2585.378435
342.608253	2585.930442
342.999937	2586.550503
343.391557	2585.932962
343.783113	2584.261820
344.174605	2582.719227
344.566033	2579.298804
344.957397	2579.132446
345.348697	2578.963567
345.739934	2574.595407
346.131106	2576.662280
346.522215	2572.145406
346.913260	2570.741445
347.304241	2568.803121
347.695159	2570.174315
348.086012	2567.540312
348.476802	2564.896227
348.867528	2564.369427
349.258191	2558.045299
349.648789	2560.659137
350.039324	2553.054557
350.429796	2564.966803
350.820203	2556.243087
351.210548	2558.892213
351.600828	2553.437684
351.991045	2558.340207
352.381198	2550.763352
352.771288	2557.639486
353.161314	2552.835267
353.551276	2554.566903
353.941175	2552.991542
354.331010	2555.668395
354.720782	2559.177038
355.110490	2560.424724
355.500135	2553.644372
355.889717	2556.248128
356.279235	2557.745350
356.668689	2556.333827
357.058080	2558.783828
357.447408	2558.781308
357.836672	2556.149825
358.225873	2555.963303
358.615010	2561.690053
359.004084	2560.069322
359.393095	2560.180228
359.782043	2560.281051
360.170927	2559.570248
360.559748	2561.193500
360.948505	2561.977399
361.337199	2566.907648
361.725830	2563.068809
362.114398	2565.012174
362.502903	2564.732390
362.891344	2565.755744
363.279722	2560.545711
363.668037	2567.295816
364.056289	2563.565362
364.444478	2566.703481
364.832603	2565.385219
365.220665	2568.535940
365.608665	2570.373441
365.996601	2568.919068
366.384474	2568.006619
366.772284	2570.386044
367.160031	2571.043914
367.547715	2572.457958
367.935336	2570.885118
368.322893	2571.318657
368.710388	2568.538461
369.097820	2569.103070
369.485189	2568.394788
369.872495	2573.319995
370.259738	2574.250088
370.646918	2575.938875
371.034035	2573.758576
371.421090	2575.878381
371.808081	2576.342167
372.195010	2575.371745
372.581875	2577.912486
372.968678	2575.144893
373.355418	2578.393917
373.742096	2579.296283
374.128710	2577.597414
374.515262	2580.647312
374.901751	2581.695872
375.288177	2581.829463
375.674540	2579.581108
376.060841	2584.271902
376.447079	2580.848958
376.833254	2584.178641
377.219367	2584.213929
377.605417	2587.999835
377.991404	2590.094435
378.377329	2590.424630
378.763191	2594.127358
379.148991	2597.099118
379.534727	2598.210692
379.920402	2603.544233
380.306013	2605.222937
380.691563	2611.529421
381.077049	2614.370111
381.462474	2618.105606
381.847835	2624.739764
382.233134	2628.752523
382.618371	2636.117649
383.003545	2644.236427
383.388657	2652.105668
383.773706	2663.924653
384.158693	2670.871363
384.543618	2677.608865
384.928480	2685.278981
385.313280	2701.418235
385.698017	2712.314689
386.082692	2725.709035
386.467305	2736.834861
386.851856	2752.827922
387.236344	2770.524892
387.620770	2784.030144
388.005133	2795.967596
388.389435	2820.011379
388.773674	2829.904644
389.157851	2855.667460
389.541965	2874.846530
389.926018	2889.309601
390.310008	2914.434711
390.693936	2936.149482
391.077802	2960.402473
391.461606	2986.271154
391.845348	3005.639267
392.229027	3035.621529
392.612645	3066.692681
392.996200	3098.993874
393.379694	3131.005201
393.763125	3167.193124
394.146494	3195.040458
394.529801	3232.418093
394.913047	3278.400978
395.296230	3290.051084
395.679351	3321.439829
396.062410	3371.130482
396.445408	3367.558825
396.828343	3412.299065
397.211217	3452.282977
397.594028	3443.912141
397.976778	3494.832836
398.359466	3534.428579
398.742092	3553.879871
399.124656	3576.620516
399.507158	3637.593272
399.889598	3657.483144
400.271977	3725.062332
400.654294	3724.343968
401.036549	3787.000469
401.418742	3796.908857
401.800874	3871.429713
402.182944	3906.006988
402.564952	3994.023013
402.946898	3999.772449
403.328783	3998.426461
403.710606	4056.777817
404.092367	4130.933190
404.474067	4195.291081
404.855705	4187.988969
405.237282	4169.152698
405.618797	4267.094755
406.000250	4347.748176
406.381642	4431.431330
406.762972	4438.010035
407.144240	4411.589348
407.525447	4480.804390
407.906593	4496.989015
408.287677	4581.045214
408.668700	4611.249287
409.049661	4652.135566
409.430560	4693.505795
409.811399	4675.831509
410.192176	4733.371239
410.572891	4814.120442
410.953545	4915.119959
411.334138	4819.222089
411.714669	4925.323254
412.095139	4841.198999
412.475547	4952.051452
412.855894	4958.360456
413.236180	5053.539961
413.616405	4988.209128
413.996568	5090.947843
414.376670	5092.165282
414.756711	5088.301238
415.136691	5159.439480
415.516609	5247.664713
415.896466	5281.571514
416.276262	5359.979101
416.655997	5471.403724
417.035670	5561.698351
417.415283	5707.034817
417.794834	5779.786228
418.174324	5731.847376
418.553753	5731.698662
418.933121	5897.111522
419.312428	5911.035189
419.691674	5840.670764
420.070859	6059.829886
420.449983	5941.430826
420.829045	6136.551207
421.208047	6064.142593
421.586988	6214.873093
421.965867	6288.519310
422.344686	6371.917638
422.723444	6537.595160
423.102141	6158.339073
423.480777	6546.651592
423.859352	6363.246854
424.237866	6726.474591
424.616319	6719.416976
424.994712	6882.150463
425.373044	6797.431352
425.751314	7110.958354
426.129524	6827.264901
426.507673	7090.317350
426.885762	7134.273691
427.263789	7179.119795
427.641756	7262.644153
428.019662	7339.801533
428.397508	7380.859210
428.775292	7364.886314
429.153016	7538.526338
429.530679	7469.112170
429.908282	7519.581682
430.285824	7459.125644
430.663305	7743.401351
431.040726	7627.086808
431.418086	7633.887325
431.795385	7758.973475
432.172624	7946.007845
432.549802	7834.051379
432.926920	7968.753531
433.303977	7913.898215
433.680974	7951.822816
434.057910	8155.568610
434.434786	8199.887914
434.811601	8164.163777
435.188355	8502.117690
435.565050	8384.752067
435.941683	8398.406032
436.318257	8734.565294
436.694770	8680.178806
437.071222	8905.437724
437.447614	8683.047222
437.823946	8649.175709
438.200218	8798.529974
438.576429	8681.161831
438.952580	8846.196605
439.328670	8857.118264
439.704700	8935.500645
440.080670	8826.798245
440.456580	9093.573586
440.832429	9060.707783
441.208218	8802.789749
441.583947	8920.813243
441.959616	9038.758599
442.335224	9065.229698
442.710773	9148.353284
443.086261	9323.006579
443.461689	9048.931648
443.837057	9219.655364
444.212365	9429.311911
444.587612	9413.618799
444.962800	9308.167943
445.337927	9440.793139
445.712995	8984.452769
446.088002	9649.539758
446.462949	9711.490498
446.837837	9695.736892
447.212664	9716.750942
447.587431	10548.811028
447.962139	11561.082282
448.336786	12477.657313
448.711374	12247.659710
449.085901	11037.379494
449.460369	10960.766559
449.834776	10741.680533
450.209124	11655.742548
450.583412	11482.112607
450.957640	11788.443362
451.331808	11368.147242
451.705917	10805.501541
452.079965	10688.597183
452.453954	10887.422811
452.827883	10831.513895
453.201752	10803.434668
453.575562	10809.410956
453.949311	11151.337298
454.323001	11209.882738
454.696632	11133.572271
455.070202	11715.235726
455.443713	11778.925663
455.817164	11936.933069
456.190556	12254.366965
456.563888	12119.319494
456.937160	12366.580529
457.310373	11857.431552
457.683526	11866.278777
458.056619	11883.743855
458.429653	11946.239039
458.802628	12088.187849
459.175542	12135.864561
459.548398	12688.007019
459.921194	13263.328701
460.293930	13560.908013
460.666607	14412.789916
461.039224	15203.757037
461.411782	15544.745724
461.784280	15194.667837
462.156719	15131.756757
462.529099	15029.665830
462.901419	14391.586823
463.273680	13996.405732
463.645882	14206.316858
464.018024	14101.148306
464.390106	14470.697650
464.762130	15546.338729
465.134094	17092.500943
465.505999	19401.011647
465.877845	21644.637660
466.249631	22862.479606
466.621358	22354.353984
466.993026	21518.041684
467.364634	20765.049575
467.736184	19964.443768
468.107674	19356.561273
468.479105	19214.927535
468.850477	18949.891392
469.221790	18508.981994
469.593043	17846.881889
469.964238	17468.041698
470.335373	17518.813679
470.706449	18244.656654
471.077467	19119.352299
471.448425	21579.039646
471.819324	23448.783442
472.190164	23335.811185
472.560945	21580.735994
472.931667	20022.356544
473.302330	19689.680719
473.672934	19144.235435
474.043479	19568.267049
474.413965	19355.298464
474.784393	19196.832313
475.154761	19849.187868
475.525070	19974.410129
475.895321	19806.940478
476.265513	20338.998978
476.635645	20919.591188
477.005719	20988.269347
477.375734	21354.635203
477.745691	21984.993683
478.115588	22604.778342
478.485427	23802.972391
478.855207	25620.270544
479.224928	27426.866327
479.594591	28835.344547
479.964194	28468.028434
480.333739	28893.118691
480.703226	29099.437994
481.072653	29552.952797
481.442022	30071.581664
481.811333	30476.406482
482.180584	30031.633040
482.549777	29802.074018
482.918912	29571.199254
483.287988	29494.341822
483.657005	29359.995072
484.025964	28983.809049
484.394864	29174.667133
484.763706	29083.873432
485.132489	28560.843638
485.501213	28632.780903
485.869879	28801.684763
486.238487	28727.728516
486.607036	29008.150260
486.975527	28685.168574
487.343959	29024.254226
487.712333	29375.398318
488.080648	29330.930300
488.448905	29772.331210
488.817104	29640.384049
489.185244	30458.533071
489.553326	31415.621335
489.921350	33321.021213
490.289315	35825.264797
490.657222	36734.835145
491.025070	37279.284801
491.392861	37000.955136
491.760593	36203.777313
492.128267	35179.283782
492.495883	34204.536357
492.863440	33293.632624
493.230939	32331.503207
493.598380	31759.216299
493.965763	31599.545312
494.333088	31109.910642
494.700354	30905.393551
495.067563	30869.061955
495.434713	30755.686405
495.801805	31038.036391
496.168839	30859.821520
496.535815	30717.419007
496.902733	30827.898414
497.269593	30651.906692
497.636395	30797.719546
498.003139	31069.427656
498.369825	30814.950210
498.736453	31209.995190
499.103023	31055.917364
499.469535	31136.235548
499.835989	31245.240417
500.202385	31113.026075
500.568723	31142.836938
500.935003	31452.603239
501.301226	31327.199496
501.667390	32022.268747
502.033497	32232.671386
502.399546	32025.497607
502.765537	31622.343931
503.131470	32082.971802
503.497345	32517.219314
503.863163	31463.489611
504.228923	32222.032030
504.594625	32609.409415
504.960269	32084.456421
505.325856	32737.134610
505.691385	32414.694848
506.056856	32707.785012
506.422270	33212.202866
506.787625	32721.307907
507.152924	33168.417924
507.518164	33341.447968
507.883347	32928.879938
508.248472	33049.454255
508.613540	33719.600042
508.978550	33945.158909
509.343503	33791.590239
509.708398	34136.513547
510.073236	34726.068928
510.438016	34812.693595
510.802738	34477.756813
511.167403	35018.125655
511.532010	35253.613075
511.896561	35771.319410
512.261053	36501.588518
512.625488	36274.809692
512.989866	36208.568930
513.354186	36266.688393
513.718449	36215.724848
514.082655	37070.442400
514.446803	36762.896728
514.810894	37365.682617
515.174927	37389.857470
515.538904	37374.948257
515.902822	37995.925150
516.266684	37690.607667
516.630488	38045.330978
516.994235	38043.407778
517.357925	38613.889953
517.721558	38850.786375
518.085133	39230.743182
518.448651	39424.683932
518.812112	39322.096451
519.175516	39451.044125
519.538863	39895.449563
519.902152	39945.979569
520.265385	40489.531900
520.628560	40494.142035
520.991678	40458.042332
521.354739	40677.476197
521.717743	41037.051619
522.080690	40933.647471
522.443580	41608.194185
522.806413	41611.705349
523.169189	41743.937335
523.531908	41970.343116
523.894569	41816.661020
524.257174	42013.303829
524.619722	42343.448994
524.982213	42503.354394
525.344647	42538.637430
525.707025	42657.674196
526.069345	43077.740943
526.431608	43010.151673
526.793815	43384.832912
527.155964	42940.319089
527.518057	43194.645301
527.880093	43050.354875
528.242072	43677.499619
528.603995	43407.661777
528.965860	43331.028677
529.327669	43544.322417
529.689421	43596.798307
530.051117	43563.642639
530.412755	43838.473743
530.774337	43877.298190
531.135862	43823.395652
531.497331	43997.655738
531.858743	43976.377028
532.220098	44409.956587
532.581396	44103.088950
532.942638	43895.471549
533.303824	44125.406138
533.664953	44190.517681
534.026025	43873.310637
534.387040	44429.760760
534.747999	44488.795192
535.108902	44830.290516
535.469748	44163.494576
535.830537	44434.386019
536.191270	44675.206979
536.551947	44400.665741
536.912567	44691.555441
537.273131	44828.344630
537.633638	44460.625225
537.994089	44607.995796
538.354483	44406.032049
538.714821	45039.256425
539.075103	45327.718810
539.435328	45188.290577
539.795497	44953.294670
540.155609	45069.662144
540.515665	45646.334856
540.875665	44956.546214
541.235609	45223.598818
541.595496	45361.693666
541.955328	45930.310614
542.315102	45371.085336
542.674821	45249.722078
543.034483	45154.429146
543.394090	45178.949319
543.753640	45160.420558
544.113134	46210.208079
544.472571	45342.537282
544.831953	46453.617672
545.191278	45713.634260
545.550548	45421.431339
545.909761	46035.522016
546.268918	46188.906683
546.628019	46570.428768
546.987064	46020.847217
547.346053	45343.558115
547.704986	46237.815958
548.063863	45883.508542
548.422684	46080.148830
548.781449	45663.603329
549.140158	46171.313056
549.498811	45941.650690
549.857408	45332.807855
550.215949	46176.412183
550.574434	46022.213369
550.932864	45974.876935
551.291237	46671.977771
551.649555	46419.642815
552.007817	46591.775534
552.366022	46296.013558
552.724173	46356.953547
553.082267	46756.313754
553.440305	47109.028165
553.798288	46367.204733
554.156215	46756.099505
554.514086	46953.012016
554.871902	46528.725823
555.229661	46726.875936
555.587365	46415.645180
555.945014	46528.128446
556.302606	46551.584935
556.660143	46657.764238
557.017625	46874.463277
557.375050	46563.320741
557.732421	46970.613204
558.089735	47027.973973
558.446994	46905.058040
558.804197	47363.251033
559.161345	47221.501349
559.518437	46580.206086
559.875474	46806.395097
560.232455	47022.113632
560.589381	47077.311746
560.946251	46910.628515
561.303065	47548.760454
561.659825	47241.108917
562.016528	47033.620066
562.373177	46616.162116
562.729770	47254.261287
563.086307	46780.022301
563.442789	47324.018253
563.799216	47136.862896
564.155587	47061.263233
564.511904	47012.220368
564.868164	47070.138184
565.224370	47381.033703
565.580520	47127.806463
565.936615	47305.660892
566.292654	46934.213553
566.648638	47307.858835
567.004567	47244.108403
567.360441	47345.397787
567.716260	47053.570432
568.072023	47437.056046
568.427732	47353.335084
568.783385	46902.797082
569.138982	47304.355233
569.494525	47456.968604
569.850013	47074.801251
570.205445	47182.422324
570.560823	46966.807133
570.916145	46841.884820
571.271412	47084.636543
571.626625	46714.633494
571.981782	46784.156047
572.336884	46397.426450
572.691931	46701.728140
573.046923	46381.030097
573.401860	46228.336068
573.756743	46224.804740
574.111570	46379.011115
574.466342	46293.866027
574.821059	46456.415512
575.175722	45936.488548
575.530330	46014.702050
575.884882	45687.727771
576.239380	45595.751919
576.593823	45670.839905
576.948211	45638.526109
577.302544	45161.592626
577.656823	45171.627043
578.011047	45443.418332
578.365216	45281.327592
578.719330	44981.615872
579.073389	44969.408718
579.427394	45018.325554
579.781344	44915.493577
580.135239	44686.637796
580.489080	44759.729485
580.842866	44248.813584
581.196597	44741.949336
581.550273	44732.955917
581.903895	44681.468092
582.257463	45106.354183
582.610975	44530.467891
582.964434	44868.084046
583.317837	44361.659813
583.671186	44341.064179
584.024481	44607.164005
584.377721	44161.848639
584.730906	44367.290782
585.084037	44532.277665
585.437113	44237.327315
585.790135	44351.874933
586.143103	43919.195219
586.496016	44092.487403
586.848874	44183.878482
587.201679	44215.375611
587.554428	43719.409251
587.907124	43992.664996
588.259765	43767.958083
588.612352	43942.707161
588.964884	43391.827513
589.317362	43686.336762
589.669786	43694.304305
590.022155	43588.871093
590.374470	44016.118964
590.726731	43607.006644
591.078937	42973.094151
591.431090	43308.756859
591.783188	42806.453769
592.135232	42616.861014
592.487222	42892.811255
592.839157	43053.485431
593.191038	42702.053994
593.542866	42524.723845
593.894639	41905.677715
594.246358	42197.172354
594.598022	42190.021477
594.949633	41762.574481
595.301190	41772.984463
595.652692	41708.684546
596.004141	42202.120246
596.355535	41122.864660
596.706876	41114.947528
597.058162	40828.728457
597.409395	41334.930879
597.760573	41571.764287
598.111698	41156.453868
598.462768	41073.783987
598.813785	41106.092742
599.164748	40732.369322
599.515657	40992.578560
599.866511	40484.820942
600.217312	41175.131343
600.568060	40126.470520
600.918753	40945.332866
601.269392	40865.758252
601.619978	40596.182551
601.970510	40807.343882
602.320988	40933.508840
602.671412	41206.295757
603.021783	41067.084293
603.372100	40640.363223
603.722363	40731.744219
604.072572	40779.075612
604.422728	40780.030911
604.772830	40544.079705
605.122878	40721.261139
605.472872	40572.216905
605.822813	40826.903559
606.172701	40601.579106
606.522534	40923.340832
606.872314	41120.654114
607.222041	40964.176699
607.571714	41302.914511
607.921333	40793.705041
608.270899	40978.392753
608.620411	41346.810358
608.969870	41141.499286
609.319276	41131.911011
609.668627	41160.257419
610.017926	41556.950856
610.367171	41701.939482
610.716362	41739.846438
611.065500	41642.564772
611.414585	41875.652603
611.763616	42031.570450
612.112594	41938.803137
612.461518	42071.728281
612.810389	42440.019858
613.159207	42224.520613
613.507971	42213.281361
613.856682	42713.691497
614.205340	42545.974829
614.553945	43247.592539
614.902496	42577.834922
615.250994	42990.778518
615.599439	43088.879372
615.947830	43198.186711
616.296169	43190.723283
616.644454	43217.711100
616.992686	43383.086152
617.340864	43820.819623
617.688990	43335.830376
618.037063	44001.373589
618.385082	43811.813601
618.733048	44156.036189
619.080961	44053.700766
619.428821	44088.512454
619.776628	44127.846057
620.124382	43958.463287
620.472083	44081.744705
620.819731	44199.279207
621.167326	43771.499494
621.514868	43759.763688
621.862357	43202.658215
622.209793	43296.234633
622.557176	42866.859395
622.904506	42640.940086
623.251783	42287.479584
623.599007	41959.149234
623.946179	41882.180897
624.293297	41620.930660
624.640363	41089.487181
624.987376	40959.352315
625.334336	40756.312282
625.681243	40335.466677
626.028097	40253.510118
626.374899	40084.896125
626.721647	40048.751052
627.068343	39806.725255
627.414987	39536.020335
627.761577	39276.234554
628.108115	39598.034089
628.454600	38849.158082
628.801032	39098.551525
629.147412	38982.065583
629.493739	38866.489569
629.840014	38444.151782
630.186236	38857.264258
630.532405	38298.288516
630.878521	38554.180006
631.224585	38315.738470
631.570597	37979.105340
631.916556	38170.253291
632.262462	38077.541431
632.608316	38001.861108
632.954117	37878.967860
633.299866	37829.887186
633.645562	37750.176462
633.991206	37223.436378
634.336797	36812.531928
634.682336	36696.658487
635.027823	36476.901988
635.373257	36355.243822
635.718639	36026.174943
636.063968	35923.922699
636.409245	35279.600223
636.754470	35222.370524
637.099642	35007.425806
637.444762	34446.398315
637.789829	34573.027059
638.134845	34188.225703
638.479808	34100.234883
638.824719	34056.190322
639.169577	33546.910276
639.514383	33658.244158
639.859137	33287.578198
640.203839	33443.715336
640.548489	33151.976201
640.893086	33145.064779
641.237632	32874.604355
641.582125	32962.310349
641.926566	32727.589185
642.270955	32761.201078
642.615292	32700.639177
642.959576	32583.351691
643.303809	32581.304983
643.647990	32675.393078
643.992118	32638.953097
644.336195	32473.295741
644.680219	32534.880997
645.024192	32736.612850
645.368112	33263.572224
645.711981	33277.042187
646.055797	33974.062364
646.399562	33768.030407
646.743274	34622.805932
647.086935	35047.187907
647.430544	35023.943147
647.774101	35065.542748
648.117606	35364.112647
648.461059	35504.533987
648.804460	35133.862986
649.147810	34611.758244
649.491108	34300.759381
649.834354	34199.981674
650.177548	33398.854108
650.520690	32881.293966
650.863781	32841.662935
651.206820	32657.794410
651.549807	32248.309045
651.892742	31679.046829
652.235626	31595.245208
652.578458	31431.652204
652.921238	30751.351013
653.263967	31050.908978
653.606644	30734.324516
653.949269	30641.539559
654.291843	30248.327038
654.634365	30606.100247
654.976836	30139.022220
655.319255	30224.885673
655.661622	30083.279661
656.003938	29957.528079
656.346203	29784.203127
656.688416	30017.341369
657.030577	29805.300356
657.372687	29611.573855
657.714746	29761.346536
658.056753	29951.513982
658.398708	29315.731221
658.740612	29407.455015
659.082465	29593.869323
659.424266	29482.482508
659.766016	29470.096393
660.107715	29328.238323
660.449362	29423.735421
660.790958	29402.975950
661.132503	29329.433077
661.473996	29408.443081
661.815438	29493.976338
662.156829	29602.499778
662.498168	29406.154397
662.839456	29375.317659
663.180693	29499.337606
663.521879	29580.248125
663.863013	29531.522852
664.204097	29506.266672
664.545129	29904.961447
664.886110	29860.221207
665.227040	29957.848192
665.567918	29951.264445
665.908746	29991.802884
666.249522	30096.553019
666.590248	30125.123759
666.930922	30230.604862
667.271545	30236.598794
667.612118	30297.009461
667.952639	30109.206316
668.293109	30147.100669
668.633528	29992.828758
668.973896	29960.381372
669.314213	29937.786920
669.654480	29760.136659
669.994695	29751.685164
670.334859	29666.111578
670.674973	29461.607090
671.015035	29651.887962
671.355047	29578.531612
671.695008	29509.540901
672.034918	29411.465253
672.374777	29497.726957
672.714585	29371.819098
673.054342	29500.202163
673.394049	29372.139212
673.733705	29573.911394
674.073310	29299.413006
674.412864	29363.599497
674.752368	29085.731097
675.091820	29318.556788
675.431223	28932.963971
675.770574	28717.570591
676.109875	28552.931547
676.449125	28342.894393
676.788324	28237.443537
677.127473	27757.220701
677.466571	27665.663264
677.805619	27398.789621
678.144616	27321.423033
678.483562	27279.863761
678.822458	26941.998068
679.161303	26892.788845
679.500098	26815.112226
679.838842	26723.474131
680.177535	26794.375439
680.516179	27002.620464
680.854771	27046.876753
681.193314	27746.498166
681.531805	28695.815491
681.870247	29463.739498
682.208638	30276.822160
682.546978	30616.976537
682.885268	30809.651957
683.223508	30392.556970
683.561697	30139.763270
683.899836	29991.455044
684.237925	29563.032584
684.575963	29405.151208
684.913951	29024.128197
685.251889	29159.952005
685.589776	29153.809359
685.927614	29154.797425
686.265401	29328.694548
686.603137	29418.268290
686.940824	29903.597815
687.278460	30217.109693
687.616046	30408.038354
687.953582	31094.227612
688.291068	31030.714115
688.628504	31388.537736
688.965889	31402.957956
689.303224	31165.504487
689.640510	30903.087223
689.977745	30289.689706
690.314930	29563.967718
690.652065	29161.260185
690.989150	28474.768457
691.326185	27644.213155
691.663170	27016.468513
692.000105	26309.146738
692.336990	25707.137187
692.673825	25287.814010
693.010610	24772.764362
693.347345	24294.341218
693.684030	23669.966588
694.020665	23474.914263
694.357251	22807.362151
694.693786	22801.005256
695.030272	22574.392787
695.366707	22075.736972
695.703093	21788.081172
696.039429	21839.442968
696.375716	21606.622319
696.711952	21594.523550
697.048139	21464.575206
697.384276	21300.402470
697.720363	21423.081469
698.056400	21307.356741
698.392388	21150.145838
698.728326	21149.790437
699.064214	21013.281032
699.400053	21017.324037
699.735842	20635.789349
700.071581	20462.338369
700.407270	20214.870647
700.742910	20028.642862
701.078501	19771.133162
701.414042	19582.241128
701.749533	19285.110479
702.084974	18986.938832
702.420366	19196.814669
702.755709	18792.809038
703.091002	18498.700561
703.426246	18553.482780
703.761440	18479.513930
704.096584	18252.286441
704.431679	18185.092901
704.766725	18135.742525
705.101721	18050.489052
705.436668	18178.536880
705.771565	17886.548208
706.106413	18198.812401
706.441212	18261.544520
706.775961	18353.860649
707.110661	18425.351773
707.445311	18796.300037
707.779913	18673.515174
708.114465	18960.737435
708.448967	19261.908568
708.783421	19864.283603
709.117825	20220.816688
709.452180	20429.727145
709.786485	20880.605424
710.120742	21600.787183
710.454949	21718.442673
710.789107	22235.602043
711.123216	22936.002314
711.457275	23164.336337
711.791286	23709.174162
712.125247	23906.845366
712.459159	23672.451877
712.793023	24423.001547
713.126837	23454.548002
713.460602	23708.271796
713.794318	23401.741915
714.127985	23122.348566
714.461602	22228.655333
714.795171	22229.356053
715.128691	21247.051938
715.462162	20739.720298
715.795584	20303.007661
716.128957	20039.466220
716.462281	19676.462814
716.795556	19390.647035
717.128782	18912.261699
717.461960	18314.058219
717.795088	18285.490000
718.128167	17950.686809
718.461198	17503.924632
718.794180	17369.865227
719.127113	17053.777319
719.459997	16847.105135
719.792833	16475.108311
720.125619	16515.092222
720.458357	16180.672158
720.791046	16037.843667
721.123686	15881.779626
721.456278	15656.500543
721.788821	15655.336037
722.121315	15399.570576
722.453761	15492.622714
722.786158	15384.139604
723.118506	15463.968796
723.450805	15353.849831
723.783056	15523.540111
724.115259	15416.859213
724.447412	15388.885850
724.779518	15604.576659
725.111574	15651.179605
725.443582	15907.063533
725.775542	15852.704772
726.107453	16371.308432
726.439315	16274.087260
726.771129	16654.729663
727.102895	17062.800985
727.434612	17354.149430
727.766281	17534.360598
728.097901	17859.295731
728.429473	17962.984704
728.760996	17991.477305
729.092471	18110.420810
729.423897	17982.100759
729.755276	17826.371955
730.086606	17925.176050
730.417887	18466.338874
730.749120	19009.606380
731.080305	19233.083251
731.411442	19660.585700
731.742530	19762.805176
732.073570	19903.226517
732.404562	20226.976978
732.735506	20120.976636
733.066401	19996.752523
733.397249	19555.104597
733.728048	18959.519996
734.058798	18115.610678
734.389501	17348.281527
734.720156	16835.074422
735.050762	16250.482057
735.381320	15841.853688
735.711831	15559.697787
736.042293	15187.590057
736.372707	15193.775552
736.703073	14973.053672
737.033391	15168.562221
737.363661	15141.985258
737.693883	15270.683395
738.024056	15452.225428
738.354182	15652.530635
738.684260	15999.591392
739.014290	16276.479287
739.344272	16504.422620
739.674207	16847.084971
740.004093	17028.637085
740.333931	17102.610977
740.663722	17193.820573
740.993464	17245.162205
741.323159	17119.501363
741.652806	16835.213053
741.982405	16670.059812
742.311956	16305.075232
742.641460	16212.769185
742.970915	15879.342228
743.300323	15541.221958
743.629683	15338.086143
743.958996	15014.774262
744.288260	14715.594384
744.617477	14402.145520
744.946647	14358.899982
745.275768	14052.783476
745.604842	13855.563455
745.933869	13672.181402
746.262847	13632.731852
746.591778	13549.373853
746.920662	13424.058330
747.249498	13414.472576
747.578286	13557.538002
747.907027	13709.584243
748.235720	13982.524915
748.564365	14071.259305
748.892963	14007.279501
749.221514	14113.569709
749.550017	13988.871728
749.878473	13968.238285
750.206881	13757.013939
750.535242	13682.046940
750.863555	13610.694448
751.191821	13505.099919
751.520039	13510.078059
751.848210	13432.582921
752.176334	13472.816370
752.504411	13400.178384
752.832440	13227.947363
753.160421	13346.074201
753.488356	13248.573244
753.816243	13154.563287
754.144082	12979.526863
754.471875	12932.013988
754.799620	12890.686609
755.127318	12862.907331
755.454969	12845.782531
755.782572	12816.314466
756.110129	12834.460100
756.437638	12741.012231
756.765100	12743.084145
757.092515	12764.335129
757.419882	12799.943319
757.747203	12795.663380
758.074477	12884.589333
758.401703	12862.819111
758.728882	13053.362123
759.056014	13098.755193
759.383099	13265.322478
759.710138	13387.935942
760.037129	13520.914019
760.364073	13595.228188
760.690970	13608.229324
761.017820	13617.084111
761.344623	13810.901353
761.671379	14137.134583
761.998088	14676.379248
762.324751	16087.751090
762.651366	19036.936996
762.977935	23365.858982
763.304456	26652.051063
763.630931	28273.795297
763.957359	27476.221744
764.283740	25425.566059
764.610074	23265.797120
764.936362	20617.426947
765.262602	18717.302636
765.588796	16738.160759
765.914943	15401.032510
766.241044	14255.543725
766.567097	13440.368983
766.893104	12688.707739
767.219064	12213.871376
767.544978	11722.711757
767.870845	11324.473206
768.196665	11091.450910
768.522438	10865.458504
768.848165	10660.868316
769.173846	10448.187077
769.499479	10327.587553
769.825066	10160.130505
770.150607	9931.312532
770.476101	9846.212814
770.801548	9721.872754
771.126949	9572.337007
771.452303	9461.129154
771.777611	9257.096013
772.102872	9247.348943
772.428087	9116.467986
772.753256	8962.241446
773.078378	8883.607007
773.403453	8699.564563
773.728482	8579.176768
774.053465	8501.767330
774.378401	8404.914162
774.703291	8285.978219
775.028135	8169.187287
775.352932	8136.248388
775.677683	8025.274948
776.002388	7924.716531
776.327046	7930.327336
776.651658	7831.866039
776.976224	7732.787202
777.300743	7732.736790
777.625216	7641.864951
777.949643	7602.836338
778.274024	7613.584078
778.598359	7525.666355
778.922647	7550.163842
779.246889	7494.310378
779.571086	7501.032756
779.895236	7505.524424
780.219339	7514.946341
780.543397	7523.690222
780.867409	7604.673838
781.191374	7614.347813
781.515294	7576.506391
781.839167	7667.932757
782.162995	7649.532546
782.486776	7597.394412
782.810511	7545.654530
783.134201	7452.942669
783.457844	7457.202444
783.781441	7403.327633
784.104993	7342.488468
784.428498	7313.406051
784.751958	7302.721326
785.075372	7270.049608
785.398739	7214.783438
785.722061	7251.094869
786.045337	7249.590085
786.368568	7386.091928
786.691752	7390.137454
787.014891	7692.221037
787.337983	7999.567584
787.661030	8554.941421
787.984031	9183.686731
788.306987	9622.887178
788.629897	9883.645902
788.952760	9882.191529
789.275579	9705.282317
789.598351	9320.329727
789.921078	8988.095003
790.243759	8575.335408
790.566395	8285.214484
790.888984	8026.394084
791.211529	7814.406003
791.534027	7591.808814
791.856480	7383.440281
792.178888	7304.609238
792.501249	7203.695420
792.823566	7049.191617
793.145836	7038.733743
793.468062	7004.678228
793.790241	6952.383819
794.112375	7015.494024
794.434464	7155.920405
794.756507	7178.784558
795.078505	7318.797565
795.400457	7604.482274
795.722364	7941.725384
796.044226	8238.477947
796.366042	8525.027214
796.687812	8500.870004
797.009538	8600.004295
797.331218	8505.114656
797.652852	8431.138244
797.974442	8278.275336
798.295986	8197.473201
798.617484	8015.026282
798.938938	7874.816670
799.260346	7772.909745
799.581709	7569.685710
799.903026	7494.774164
800.224299	7388.723410
800.545526	7220.442133
800.866708	7123.324304
801.187845	7054.938532
801.508936	6950.347192
801.829983	6910.587612
802.150984	6761.646722
802.471940	6722.716411
802.792851	6701.914090
803.113717	6674.066756
803.434538	6636.265664
803.755314	6583.686429
804.076045	6576.850625
804.396731	6521.196286
804.717372	6552.569907
805.037967	6554.611574
805.358518	6588.268838
805.679024	6667.954357
805.999485	6676.035327
806.319901	6712.525719
806.640272	6734.956333
806.960598	6820.681154
807.280879	6827.784140
807.601115	6902.027733
807.921306	6850.759198
808.241453	6862.366455
808.561554	6891.448872
808.881611	6855.540733
809.201623	6864.501384
809.521590	6811.917108
809.841513	6787.379292
810.161390	6824.351114
810.481223	6702.818977
810.801011	6686.750299
811.120755	6665.663153
811.440453	6586.035607
811.760107	6553.769702
812.079716	6522.257449
812.399281	6458.010464
812.718801	6451.711542
813.038276	6407.601446
813.357707	6336.107802
813.677093	6377.725048
813.996434	6280.818947
814.315731	6322.078271
814.634983	6311.789276
814.954191	6318.292364
815.273354	6424.038128
815.592473	6473.166693
815.911547	6588.291523
816.230577	6668.662639
816.549562	6805.897970
816.868502	6906.673156
817.187399	6995.808318
817.506250	7144.890361
817.825058	7168.185532
818.143821	7412.464724
818.462539	7652.905078
818.781213	7971.707647
819.099843	8462.922719
819.418429	9370.143888
819.736970	10273.286765
820.055466	11377.581762
820.373919	12753.073191
820.692327	14753.745836
821.010691	18076.249348
821.329011	25531.135382
821.647286	37191.271296
821.965517	51160.999242
822.283704	58593.464744
822.601847	61766.278755
822.919945	59613.917791
823.237999	55783.732278
823.556010	49823.830664
823.873976	43181.518136
824.191897	36678.180137
824.509775	31827.274396
824.827609	27164.350761
825.145398	24353.042934
825.463144	22681.832379
825.780845	22569.323907
826.098502	23803.534480
826.416116	27131.132078
826.733685	30895.260832
827.051210	32740.252563
827.368692	31795.643676
827.686129	28266.835984
828.003522	24235.793257
828.320872	20469.123762
828.638177	17560.375472
828.955439	15356.816550
829.272656	13516.747505
829.589830	12021.813497
829.906960	10719.244878
830.224046	9738.143078
830.541088	8958.674829
830.858086	8466.958163
831.175041	8049.217908
831.491952	7898.500011
831.808819	7889.511633
832.125642	8183.723454
832.442421	8885.081545
832.759157	10368.267144
833.075849	12945.478910
833.392497	16090.765700
833.709101	18581.171318
834.025662	18966.804463
834.342179	17619.757744
834.658653	15549.542382
834.975083	13614.112351
835.291469	11959.945936
835.607811	10620.801226
835.924110	9699.832829
836.240366	8828.179521
836.556578	8019.273454
836.872746	7362.859771
837.188871	6842.219484
837.504952	6410.888278
837.820990	6087.001705
838.136984	5852.404049
838.452935	5736.318879
838.768842	5715.385488
839.084706	5995.719012
839.400526	6960.595858
839.716303	8468.417577
840.032037	9718.918638
840.347727	9948.333988
840.663373	9155.332761
840.978977	8111.377855
841.294537	7274.541276
841.610054	6657.902296
841.925527	6211.845880
842.240957	5853.376992
842.556344	5523.834245
842.871687	5241.564917
843.186987	4962.254747
843.502244	4724.730702
843.817458	4554.863982
844.132629	4416.335594
844.447756	4322.184485
844.762840	4238.100559
845.077881	4164.003159
845.392879	4101.157615
845.707833	4054.138773
846.022745	4010.857947
846.337613	3977.982062
846.652438	3934.265176
846.967221	3918.786313
847.281960	3887.216087
847.596656	3871.099518
847.911309	3849.397351
848.225919	3830.208198
848.540485	3809.950322
848.855009	3796.003970
849.169490	3777.510497
849.483928	3762.949124
849.798323	3755.331940
850.112675	3735.517685
850.426984	3738.605392
850.741251	3727.262796
851.055474	3723.902867
851.369654	3729.057447
851.683792	3726.332703
851.997887	3729.669947
852.311938	3731.988878
852.625947	3733.256728
852.939914	3722.019996
853.253837	3732.838312
853.567718	3735.041296
853.881555	3720.144687
854.195350	3735.605905
854.509103	3730.020307
854.822812	3730.158939
855.136479	3722.516549
855.450103	3731.532653
855.763685	3718.397927
856.077224	3721.861199
856.390720	3734.282602
856.704173	3754.656426
857.017584	3767.566821
857.330953	3774.785753
857.644278	3799.467242
857.957561	3805.793890
858.270802	3805.622491
858.584000	3813.998368
858.897155	3807.119714
859.210268	3787.391158
859.523339	3766.571193
859.836367	3767.720576
860.149352	3758.918721
860.462295	3751.576281
860.775195	3741.867018
861.088054	3734.411152
861.400869	3731.436871
861.713642	3731.646079
862.026373	3740.473139
862.339062	3746.363728
862.651708	3763.473404
862.964312	3797.833908
863.276873	3802.121410
863.589392	3853.863813
863.901869	3899.526584
864.214303	3943.021660
864.526696	3976.255467
864.839045	4024.484185
865.151353	4049.130387
865.463619	4060.142787
865.775842	4069.219385
866.088023	4084.541972
866.400162	4078.898400
866.712258	4084.511725
867.024313	4087.589349
867.336325	4086.467692
867.648296	4090.309052
867.960224	4090.041871
868.272110	4100.807255
868.583954	4101.213067
868.895755	4114.546919
869.207515	4106.110548
869.519233	4146.775016
869.830909	4160.204650
870.142542	4183.756921
870.454134	4195.583468
870.765684	4226.702510
871.077191	4257.042695
871.388657	4281.363741
871.700081	4315.966221
872.011463	4359.249568
872.322803	4391.608735
872.634101	4420.260133
872.945357	4458.560299
873.256571	4511.104246
873.567744	4541.038617
873.878874	4560.623500
874.189963	4601.023307
874.501010	4607.055047
874.812015	4611.448413
875.122979	4651.006347
875.433900	4649.960308
875.744780	4660.748377
876.055618	4682.309392
876.366415	4684.093960
876.677169	4697.382442
876.987882	4741.036314
877.298554	4785.244712
877.609183	4855.367162
877.919771	4949.755206
878.230317	5075.615174
878.540822	5259.203915
878.851285	5539.746647
879.161707	5932.576040
879.472087	6572.568164
879.782425	7603.461441
880.092722	9427.718907
880.402977	12285.727983
880.713191	15810.238092
881.023363	19551.963958
881.333494	22017.105832
881.643583	23498.900073
881.953631	23715.715059
882.263637	23058.958577
882.573602	21750.585070
882.883526	20314.602314
883.193408	18733.336026
883.503248	17121.013709
883.813048	15627.004752
884.122806	14256.604888
884.432522	12826.535406
884.742197	11586.507342
885.051831	10505.079018
885.361424	9498.053085
885.670975	8672.352414
885.980485	7975.599418
886.289954	7403.259578
886.599382	6925.292658
886.908768	6544.239400
887.218113	6188.575914
887.527417	5890.623557
887.836680	5628.130677
888.145901	5411.265279
888.455082	5248.531792
888.764221	5092.689562
889.073319	4957.246361
889.382376	4881.528230
889.691392	4815.090864
890.000366	4788.692862
890.309300	4768.913894
890.618193	4770.726189
890.927044	4752.199949
891.235855	4772.072177
891.544625	4790.515239
891.853353	4842.855018
892.162041	4935.561838
892.470687	5098.239872
892.779293	5318.639118
893.087858	5633.098734
893.396381	6126.733559
893.704864	6815.821482
894.013306	7846.578647
894.321707	8982.370773
894.630068	9883.681190
894.938387	10228.864117
895.246665	10113.537640
895.554903	9595.695194
895.863100	8928.208616
896.171256	8404.457937
896.479371	7906.003768
896.787446	7423.595592
897.095480	6995.175653
897.403473	6682.364495
897.711425	6376.328648
898.019336	6119.938084
898.327207	5844.282751
898.635038	5622.928206
898.942827	5375.589033
899.250576	5179.571328
899.558284	4984.511442
899.865952	4865.779666
900.173579	4716.914392
900.481165	4611.939925
900.788711	4514.675903
901.096216	4442.889872
901.403681	4378.695819
901.711105	4346.122404
902.018489	4323.553158
902.325832	4372.863204
902.633135	4462.683963
902.940397	4725.141556
903.247619	5337.122509
903.554800	6533.920158
903.861941	8301.941033
904.169041	9884.326457
904.476101	10736.722558
904.783121	10604.246076
905.090100	9981.217434
905.397039	9190.235190
905.703938	8460.636556
906.010796	7784.085983
906.317614	7252.672750
906.624391	6733.693524
906.931129	6315.557538
907.237826	5928.921203
907.544483	5564.624741
907.851099	5201.263413
908.157675	4853.068396
908.464211	4523.686966
908.770707	4280.441210
909.077163	4072.133172
909.383578	3924.180347
909.689954	3803.898417
909.996289	3726.655337
910.302584	3660.001201
910.608839	3627.992394
910.915054	3593.548711
911.221229	3577.704364
911.527363	3586.347422
911.833458	3595.527363
912.139513	3617.776496
912.445527	3637.525216
912.751502	3707.461143
913.057436	3797.259217
913.363331	3912.600817
913.669186	4086.611365
913.975000	4307.514727
914.280775	4671.017207
914.586510	5162.093648
914.892205	5860.437128
915.197859	6789.340300
915.503475	7938.758665
915.809050	8998.842743
916.114585	9722.165141
916.420081	10079.638401
916.725536	10135.902719
917.030952	9761.546635
917.336328	9404.247294
917.641665	9029.422382
917.946961	8578.712982
918.252218	8176.786827
918.557435	7687.021086
918.862612	7277.974302
919.167750	6914.865031
919.472848	6508.744636
919.777906	6152.947559
920.082925	5796.495133
920.387904	5433.537097
920.692843	5167.056663
920.997743	4916.481070
921.302603	4679.509031
921.607423	4520.740411
921.912204	4350.409905
922.216946	4241.336980
922.521647	4120.205615
922.826310	4013.945653
923.130932	3925.836366
923.435516	3824.826767
923.740059	3752.871857
924.044564	3681.390816
924.349028	3624.017444
924.653454	3557.766601
924.957840	3495.742764
925.262186	3451.559571
925.566493	3389.722258
925.870761	3333.291582
926.174989	3296.841519
926.479178	3263.151487
926.783328	3221.458625
927.087438	3195.204295
927.391509	3159.954027
927.695541	3130.808596
927.999533	3105.837241
928.303486	3084.873602
928.607400	3070.561767
928.911275	3059.093142
929.215110	3042.376675
929.518906	3031.465098
929.822663	3030.489635
930.126381	3024.926721
930.430060	3031.636497
930.733699	3034.119265
931.037299	3043.773075
931.340861	3043.205945
931.644383	3050.515618
931.947866	3048.300031
932.251309	3045.212324
932.554714	3043.662170
932.858080	3037.809390
933.161407	3030.391332
933.464694	3023.371525
933.767943	3021.937317
934.071153	3017.533869
934.374323	3001.906292
934.677455	2999.766323
934.980548	2991.534118
935.283602	2985.376349
935.586617	2982.737305
935.889593	2990.301556
936.192530	2992.063439
936.495428	3006.992817
936.798287	3021.952441
937.101108	3049.399003
937.403890	3095.379367
937.706632	3149.780979
938.009336	3223.036506
938.312002	3295.248514
938.614628	3363.392311
938.917216	3414.328130
939.219765	3449.669139
939.522275	3481.239365
939.824747	3486.648523
940.127179	3483.770024
940.429573	3482.260198
940.731929	3481.967811
941.034246	3468.737303
941.336524	3459.743885
941.638763	3444.123869
941.940964	3434.366716
942.243126	3391.345509
942.545250	3374.505535
942.847335	3337.705112
943.149381	3304.050369
943.451389	3272.517951
943.753359	3240.390678
944.055290	3215.197512
944.357182	3186.220959
944.659036	3172.241840
944.960851	3162.429234
945.262628	3147.235196
945.564367	3150.897594
945.866067	3142.594814
946.167729	3139.938126
946.469352	3139.741521
946.770937	3133.992085
947.072484	3118.561113
947.373992	3123.743419
947.675462	3117.197481
947.976893	3098.830037
948.278286	3090.277719
948.579641	3085.357553
948.880958	3079.071234
949.182236	3078.173909
949.483476	3073.967066
949.784678	3072.258115
950.085841	3075.769278
950.386967	3081.874116
950.688054	3096.364912
950.989103	3114.427367
951.290114	3129.984368
951.591087	3158.502175
951.892021	3183.531504
952.192917	3212.278683
952.493776	3243.390164
952.794596	3249.197574
953.095378	3253.621186
953.396122	3253.850559
953.696828	3250.069693
953.997496	3238.162488
954.298126	3218.280177
954.598718	3199.595140
954.899272	3178.621420
955.199788	3153.725682
955.500266	3122.977164
955.800706	3091.472473
956.101108	3051.417985
956.401472	3023.263141
956.701798	2989.983963
957.002087	2951.714044
957.302337	2924.050712
957.602550	2895.893348
957.902724	2866.639532
958.202861	2843.493074
958.502960	2821.306956
958.803022	2800.439099
959.103045	2780.992848
959.403031	2765.072885
959.702979	2751.033271
960.002889	2740.078844
960.302762	2725.146946
960.602596	2714.563044
960.902393	2706.867722
961.202153	2699.661393
961.501875	2688.528005
961.801559	2683.595236
962.101205	2679.400996
962.400814	2672.560150
962.700385	2666.929181
962.999918	2661.381391
963.299414	2654.777480
963.598873	2654.021307
963.898293	2643.402116
964.197677	2648.579381
964.497022	2643.772641
964.796331	2644.029740
965.095601	2640.871457
965.394835	2641.962867
965.694030	2635.510190
965.993189	2635.575725
966.292309	2633.798718
966.591393	2634.602782
966.890439	2632.122534
967.189447	2632.906434
967.488419	2631.341155
967.787353	2631.807462
968.086249	2633.077833
968.385108	2635.482463
968.683930	2636.669655
968.982714	2640.921868
969.281462	2645.184164
969.580172	2650.479896
969.878844	2652.859321
970.177480	2661.293171
970.476078	2668.824655
970.774639	2677.404699
971.073162	2682.650019
971.371649	2688.767459
971.670098	2693.775846
971.968510	2700.072247
972.266885	2705.153730
972.565223	2706.340922
972.863524	2710.444421
973.161788	2714.857951
973.460014	2716.939948
973.758204	2722.439847
974.056356	2720.816595
974.354471	2722.462532
974.652550	2725.288098
974.950591	2721.197202
975.248595	2722.351626
975.546563	2721.361040
975.844493	2716.614793
976.142386	2711.074565
976.440243	2706.918134
976.738062	2702.292875
977.035845	2697.496217
977.333590	2689.516071
977.631299	2684.684125
977.928971	2680.673887
978.226606	2670.548729
978.524204	2670.571415
978.821765	2665.638646
979.119290	2666.636794
979.416777	2669.439676
979.714228	2668.600323
980.011642	2670.442865
980.309020	2677.147600
980.606360	2688.643951
980.903664	2710.772096
981.200931	2738.541292
981.498162	2777.829524
981.795356	2843.614062
982.092513	2921.746905
982.389633	3020.901360
982.686717	3116.834518
982.983764	3192.668595
983.280775	3248.761514
983.577749	3265.510748
983.874686	3258.238883
984.171587	3231.767784
984.468451	3198.092877
984.765279	3160.558966
985.062070	3116.877367
985.358824	3076.109556
985.655543	3024.253727
985.952224	2970.441931
986.248869	2914.399423
986.545478	2850.979187
986.842050	2802.856333
987.138586	2756.306318
987.435086	2713.401058
987.731549	2684.064063
988.027975	2658.933911
988.324366	2637.201497
988.620719	2623.260186
988.917037	2617.732561
989.213318	2602.949377
989.509563	2598.109869
989.805772	2592.962851
990.101944	2589.723910
990.398080	2590.512850
990.694180	2585.078487
990.990244	2586.684094
991.286271	2582.615883
991.582262	2587.031934
991.878217	2585.882551
992.174136	2591.861359
992.470019	2594.747420
992.765865	2593.744230
993.061676	2598.099787
993.357450	2605.830396
993.653188	2610.473299
993.948890	2628.941566
994.244556	2647.177940
994.540186	2663.642349
994.835780	2693.173428
995.131337	2725.900599
995.426859	2763.162287
995.722345	2806.881694
996.017795	2859.347503
996.313208	2897.536764
996.608586	2924.552307
996.903928	2941.261212
997.199234	2945.314299
997.494504	2947.174485
997.789738	2934.846343
998.084936	2913.300452
998.380099	2886.478993
998.675225	2856.584950
998.970316	2828.538491
999.265371	2794.107410
999.560390	2760.498037
999.855373	2733.306054
1000.150320	2700.977134
1000.445232	2674.523679
1000.740108	2655.579023
1001.034948	2638.182001
1001.329752	2621.679784
1001.624521	2607.294852
1001.919254	2595.496031
1002.213951	2590.916143
1002.508613	2580.649833
1002.803239	2575.502815
1003.097829	2569.990313
1003.392384	2564.288768
1003.686903	2559.038406
1003.981386	2560.046637
1004.275834	2553.523384
1004.570246	2551.925338
1004.864623	2549.003990
1005.158964	2546.178423
1005.453270	2544.058618
1005.747540	2542.997455
1006.041775	2544.983669
1006.335974	2539.440921
1006.630138	2539.808925
1006.924266	2541.832948
1007.218359	2535.929757
1007.512416	2533.852802
1007.806438	2531.680064
1008.100425	2533.099149
1008.394376	2530.571011
1008.688292	2534.457740
1008.982172	2531.377595
1009.276017	2532.221988
1009.569827	2533.835158
1009.863602	2530.334076
1010.157341	2528.083201
1010.451045	2530.702081
1010.744714	2531.034797
1011.038347	2528.486493
1011.331945	2528.746113
1011.625508	2528.436082
1011.919036	2525.998684
1012.212528	2525.504651
1012.505986	2521.827129
1012.799408	2524.014990
1013.092795	2524.451050
1013.386147	2525.184538
1013.679464	2521.693539
1013.972745	2521.703621
1014.265992	2523.238652
1014.559204	2523.397449
1014.852380	2521.156656
1015.145521	2523.788138
1015.438628	2521.194464
1015.731699	2524.158663
1016.024736	2524.309898
1016.317737	2523.349558
1016.610703	2525.441637
1016.903635	2528.927594
1017.196531	2530.432379
1017.489393	2529.797193
1017.782219	2528.123530
1018.075011	2532.405991
1018.367768	2533.530168
1018.660490	2531.707791
1018.953177	2531.707791
1019.245829	2531.707791
