Dividing Wavelength (nm)	Counts (n)	Blue Motor Position (mm): 18.500000	Red Motor Position (mm): 0.000000	
326.493990	2070.744683
326.888308	2070.744683
327.282561	2070.744683
327.676750	2044.334078
328.070874	2047.159645
328.464933	2053.209029
328.858929	2060.435523
329.252859	2070.893397
329.646726	2082.656930
330.040528	2100.827769
330.434265	2115.391662
330.827938	2138.059210
331.221547	2158.090235
331.615091	2178.781651
332.008571	2199.276462
332.401986	2219.239431
332.795338	2237.085116
333.188625	2259.356934
333.581847	2277.351332
333.975006	2295.413787
334.368100	2312.460448
334.761129	2329.562563
335.154095	2343.889522
335.546996	2389.269989
335.939833	2477.240644
336.332606	2486.130719
336.725315	2497.521206
337.117960	2511.384379
337.510540	2518.137005
337.903056	2526.772501
338.295508	2534.729963
338.687896	2543.657846
339.080220	2545.550799
339.472480	2552.431974
339.864676	2555.935576
340.256807	2557.410114
340.648875	2557.430278
341.040879	2558.612429
341.432818	2565.239026
341.824694	2563.245249
342.216506	2563.605692
342.608253	2562.174004
342.999937	2561.289282
343.391557	2564.298850
343.783113	2559.292985
344.174605	2556.981616
344.566033	2556.926163
344.957397	2554.382901
345.348697	2554.098076
345.739934	2551.136398
346.131106	2551.096068
346.522215	2546.949719
346.913260	2548.026006
347.304241	2544.706406
347.695159	2543.367980
348.086012	2542.826056
348.476802	2537.356404
348.867528	2536.040663
349.258191	2534.765251
349.648789	2534.621578
350.039324	2528.138654
350.429796	2533.056299
350.820203	2535.229037
351.210548	2531.566638
351.600828	2531.405322
351.991045	2527.521112
352.381198	2532.940353
352.771288	2531.443130
353.161314	2526.643952
353.551276	2529.136802
353.941175	2528.698222
354.331010	2532.325332
354.720782	2531.889272
355.110490	2532.373223
355.500135	2531.480939
355.889717	2531.584282
356.279235	2529.739220
356.668689	2529.088911
357.058080	2532.216947
357.447408	2529.507327
357.836672	2532.191742
358.225873	2531.664941
358.615010	2533.051258
359.004084	2532.126207
359.393095	2535.677699
359.782043	2535.816331
360.170927	2531.614529
360.559748	2535.846578
360.948505	2534.881197
361.337199	2536.292720
361.725830	2536.774150
362.114398	2535.803728
362.502903	2535.823893
362.891344	2539.763555
363.279722	2538.180632
363.668037	2537.419418
364.056289	2536.610313
364.444478	2538.404964
364.832603	2540.108874
365.220665	2540.875129
365.608665	2542.392516
365.996601	2539.400592
366.384474	2541.177598
366.772284	2540.794471
367.160031	2543.352856
367.547715	2541.734646
367.935336	2539.314892
368.322893	2538.873791
368.710388	2540.486960
369.097820	2538.193235
369.485189	2536.201979
369.872495	2541.044008
370.259738	2544.240099
370.646918	2543.478885
371.034035	2546.513660
371.421090	2542.823535
371.808081	2546.067518
372.195010	2546.531304
372.581875	2544.882846
372.968678	2543.960315
373.355418	2544.403937
373.742096	2546.221273
374.128710	2545.379400
374.515262	2546.924514
374.901751	2544.824873
375.288177	2551.010369
375.674540	2545.026519
376.060841	2550.171017
376.447079	2546.238917
376.833254	2548.260419
377.219367	2548.870399
377.605417	2548.290666
377.991404	2547.526932
378.377329	2548.547765
378.763191	2548.416695
379.148991	2544.741694
379.534727	2550.899463
379.920402	2551.892571
380.306013	2550.826367
380.691563	2553.049516
381.077049	2549.208156
381.462474	2549.316541
381.847835	2551.927859
382.233134	2551.612787
382.618371	2546.828732
383.003545	2552.870555
383.388657	2552.845349
383.773706	2551.781665
384.158693	2550.654967
384.543618	2553.130174
384.928480	2551.451470
385.313280	2552.716799
385.698017	2554.382901
386.082692	2553.379711
386.467305	2555.202088
386.851856	2554.196378
387.236344	2554.801317
387.620770	2552.237890
388.005133	2550.039947
388.389435	2551.264947
388.773674	2546.024668
389.157851	2554.193858
389.541965	2552.439536
389.926018	2555.761656
390.310008	2556.694270
390.693936	2553.460370
391.077802	2556.326266
391.461606	2556.187634
391.845348	2558.166287
392.229027	2556.422047
392.612645	2555.539846
392.996200	2557.268961
393.379694	2558.251986
393.763125	2559.111503
394.146494	2555.343241
394.529801	2557.808365
394.913047	2560.729713
395.296230	2560.341545
395.679351	2557.740309
396.062410	2557.004301
396.445408	2558.554456
396.828343	2558.141081
397.211217	2558.267110
397.594028	2559.484548
397.976778	2558.990515
398.359466	2559.925649
398.742092	2560.805331
399.124656	2558.872048
399.507158	2558.980433
399.889598	2560.152501
400.271977	2564.548387
400.654294	2561.823644
401.036549	2561.664848
401.418742	2562.539488
401.800874	2560.613767
402.182944	2559.088818
402.564952	2560.623849
402.946898	2562.005125
403.328783	2564.021587
403.710606	2562.330280
404.092367	2565.223902
404.474067	2562.050496
404.855705	2560.722152
405.237282	2565.506207
405.618797	2563.469581
406.000250	2563.388922
406.381642	2566.549726
406.762972	2565.423028
407.144240	2562.090825
407.525447	2560.102090
407.906593	2560.580999
408.287677	2563.792214
408.668700	2564.308933
409.049661	2566.259859
409.430560	2566.642987
409.811399	2566.292627
410.192176	2566.229612
410.572891	2565.478480
410.953545	2565.856567
411.334138	2565.700291
411.714669	2567.139541
412.095139	2565.859087
412.475547	2565.838923
412.855894	2566.285065
413.236180	2566.012843
413.616405	2566.582493
413.996568	2566.625343
414.376670	2567.368913
414.756711	2568.699778
415.136691	2569.029973
415.516609	2569.720611
415.896466	2569.430745
416.276262	2566.156516
416.655997	2566.706001
417.035670	2566.771536
417.415283	2571.106929
417.794834	2567.104252
418.174324	2569.090467
418.553753	2568.306568
418.933121	2570.438976
419.312428	2570.557443
419.691674	2568.588872
420.070859	2568.092319
420.449983	2569.166084
420.829045	2567.220199
421.208047	2568.288924
421.586988	2568.162895
421.965867	2570.829665
422.344686	2568.914027
422.723444	2567.807493
423.102141	2569.173646
423.480777	2569.965107
423.859352	2570.900241
424.237866	2570.277659
424.616319	2571.270766
424.994712	2572.904100
425.373044	2571.051476
425.751314	2568.372103
426.129524	2568.629202
426.507673	2569.254305
426.885762	2566.443861
427.263789	2569.947463
427.641756	2571.452248
428.019662	2572.026939
428.397508	2571.903431
428.775292	2573.337639
429.153016	2571.933678
429.530679	2569.975190
429.908282	2569.808832
430.285824	2572.727660
430.663305	2572.127762
431.040726	2573.854357
431.418086	2570.214644
431.795385	2571.172464
432.172624	2572.694892
432.549802	2571.124573
432.926920	2569.319840
433.303977	2572.881415
433.680974	2572.730180
434.057910	2571.139696
434.434786	2572.551219
434.811601	2572.291600
435.188355	2572.962073
435.565050	2571.505180
435.941683	2574.149265
436.318257	2573.209090
436.694770	2573.035170
437.071222	2575.540623
437.447614	2572.750345
437.823946	2572.326888
438.200218	2574.915520
438.576429	2573.476271
438.952580	2572.097515
439.328670	2572.926785
439.704700	2572.538616
440.080670	2574.887794
440.456580	2571.981569
440.832429	2572.427711
441.208218	2574.892835
441.583947	2573.574573
441.959616	2573.738411
442.335224	2571.139696
442.710773	2572.533575
443.086261	2574.250088
443.461689	2574.539954
443.837057	2575.291086
444.212365	2575.391909
444.587612	2572.803277
444.962800	2573.713205
445.337927	2572.268915
445.712995	2570.353276
446.088002	2578.603124
446.462949	2576.362332
446.837837	2574.154306
447.212664	2576.914338
447.587431	2578.114133
447.962139	2576.790830
448.336786	2577.806622
448.711374	2578.683783
449.085901	2577.728484
449.460369	2576.659760
449.834776	2576.916858
450.209124	2577.486509
450.583412	2574.726477
450.957640	2575.331416
451.331808	2579.722261
451.705917	2579.510532
452.079965	2579.997003
452.453954	2578.925758
452.827883	2577.806622
453.201752	2575.696899
453.575562	2579.576067
453.949311	2578.051118
454.323001	2579.689493
454.696632	2577.945254
455.070202	2577.738567
455.443713	2579.603793
455.817164	2577.534400
456.190556	2580.612024
456.563888	2582.250399
456.937160	2581.549679
457.310373	2581.191757
457.683526	2581.668146
458.056619	2581.431212
458.429653	2580.168403
458.802628	2580.301993
459.175542	2581.849627
459.548398	2581.441294
459.921194	2581.080852
460.293930	2582.757035
460.666607	2580.753177
461.039224	2583.545976
461.411782	2583.893815
461.784280	2583.722416
462.156719	2583.548496
462.529099	2583.717375
462.901419	2582.222673
463.273680	2582.699062
463.645882	2579.044225
464.018024	2581.320306
464.390106	2581.463979
464.762130	2586.575709
465.134094	2586.149732
465.505999	2589.197109
465.877845	2587.258786
466.249631	2588.902202
466.621358	2589.328179
466.993026	2586.873137
467.364634	2592.897316
467.736184	2588.080494
468.107674	2588.251893
468.479105	2590.346492
468.850477	2589.098807
469.221790	2588.219125
469.593043	2588.206523
469.964238	2589.797007
470.335373	2588.130905
470.706449	2588.052767
471.077467	2592.118458
471.448425	2594.976792
471.819324	2597.978799
472.190164	2599.178594
472.560945	2597.187338
472.931667	2595.296905
473.302330	2592.332707
473.672934	2594.298757
474.043479	2592.012594
474.413965	2594.535691
474.784393	2596.234560
475.154761	2598.757657
475.525070	2596.080805
475.895321	2596.383274
476.265513	2598.097266
476.635645	2599.899479
477.005719	2598.356886
477.375734	2599.443254
477.745691	2599.100456
478.115588	2604.217227
478.485427	2605.356528
478.855207	2605.432145
479.224928	2609.308792
479.594591	2611.695779
479.964194	2609.921293
480.333739	2616.164762
480.703226	2615.332971
481.072653	2617.881275
481.442022	2618.788682
481.811333	2614.538990
482.180584	2614.183588
482.549777	2618.314814
482.918912	2614.695265
483.287988	2618.864300
483.657005	2622.072994
484.025964	2621.649537
484.394864	2621.621811
484.763706	2623.267747
485.132489	2623.902933
485.501213	2625.937038
485.869879	2622.859414
486.238487	2625.929477
486.607036	2628.508027
486.975527	2627.535084
487.343959	2631.416773
487.712333	2631.283182
488.080648	2632.518265
488.448905	2634.885087
488.817104	2634.443986
489.185244	2635.963893
489.553326	2642.151910
489.921350	2646.441932
490.289315	2655.203457
490.657222	2658.054230
491.025070	2657.086328
491.392861	2659.700166
491.760593	2659.659837
492.128267	2660.027841
492.495883	2658.008859
492.863440	2656.178920
493.230939	2658.185300
493.598380	2659.546411
493.965763	2659.475835
494.333088	2659.954745
494.700354	2662.384581
495.067563	2666.959428
495.434713	2669.117042
495.801805	2670.967145
496.168839	2672.252639
496.535815	2676.363700
496.902733	2676.948474
497.269593	2680.187416
497.636395	2685.677232
498.003139	2691.759384
498.369825	2694.025383
498.736453	2695.542770
499.103023	2699.308512
499.469535	2706.993751
499.835989	2711.664380
500.202385	2713.287632
500.568723	2715.435163
500.935003	2724.811709
501.301226	2729.842781
501.667390	2744.757035
502.033497	2750.851790
502.399546	2755.605598
502.765537	2759.356216
503.131470	2771.114707
503.497345	2781.040739
503.863163	2784.372942
504.228923	2797.159829
504.594625	2808.656180
504.960269	2817.987356
505.325856	2833.128462
505.691385	2843.011644
506.056856	2857.507482
506.422270	2872.807383
506.787625	2886.075700
507.152924	2904.609503
507.518164	2919.405289
507.883347	2931.360385
508.248472	2949.563992
508.613540	2972.286993
508.978550	2996.905468
509.343503	3011.681090
509.708398	3037.585059
510.073236	3067.040521
510.438016	3089.614808
510.802738	3109.620627
511.167403	3143.686224
511.532010	3174.986748
511.896561	3207.214844
512.261053	3252.585229
512.625488	3277.314609
512.989866	3306.477684
513.354186	3338.312571
513.718449	3373.938405
514.082655	3427.972013
514.446803	3454.591825
514.810894	3508.252388
515.174927	3553.804254
515.538904	3591.345726
515.902822	3652.018533
516.266684	3686.058925
516.630488	3742.971031
516.994235	3792.480203
517.357925	3856.447404
517.721558	3916.769851
518.085133	3985.684945
518.448651	4043.431362
518.812112	4092.522118
519.175516	4160.076100
519.538863	4231.811720
519.902152	4299.965599
520.265385	4389.201584
520.628560	4455.233138
520.991678	4517.728322
521.354739	4598.190178
521.717743	4684.653528
522.080690	4750.906893
522.443580	4860.398234
522.806413	4940.353454
523.169189	5022.315054
523.531908	5114.842913
523.894569	5184.930074
524.257174	5279.061020
524.619722	5386.137648
524.982213	5482.799252
525.344647	5575.594292
525.707025	5675.512482
526.069345	5794.844155
526.431608	5882.015787
526.793815	6007.953893
527.155964	6070.338171
527.518057	6188.780081
527.880093	6270.565240
528.242072	6419.727942
528.603995	6511.202199
528.965860	6605.509584
529.327669	6736.461117
529.689421	6848.752819
530.051117	6951.811648
530.412755	7087.643017
530.774337	7215.577420
531.135862	7319.616753
531.497331	7454.457536
531.858743	7574.041267
532.220098	7749.488544
532.581396	7833.327974
532.942638	7930.614681
533.303824	8086.986232
533.664953	8225.935556
534.026025	8315.809247
534.387040	8526.753809
534.747999	8666.149274
535.108902	8848.938992
535.469748	8882.034167
535.830537	9059.883554
536.191270	9239.323426
536.551947	9338.888735
536.912567	9524.438484
537.273131	9698.441471
537.633638	9776.188666
537.994089	9954.348084
538.354483	10064.572913
538.714821	10332.399335
539.075103	10540.031859
539.435328	10675.505307
539.795497	10789.513521
540.155609	10975.466563
540.515665	11253.440827
540.875665	11271.503282
541.235609	11498.410658
541.595496	11681.838081
541.955328	11982.671458
542.315102	12032.218438
542.674821	12183.218640
543.034483	12331.789006
543.394090	12510.656706
543.753640	12698.061600
544.113134	13145.264878
544.472571	13120.046506
544.831953	13575.734046
545.191278	13585.909615
545.550548	13683.239173
545.909761	14041.256878
546.268918	14262.873562
546.628019	14565.834306
546.987064	14621.284477
547.346053	14609.979690
547.704986	15072.573611
548.063863	15160.559390
548.422684	15417.096147
548.781449	15489.766900
549.140158	15849.044894
549.498811	15982.206973
549.857408	15988.178219
550.215949	16465.013400
550.574434	16616.764734
550.932864	16808.363868
551.291237	17272.805372
551.649555	17389.520686
552.007817	17671.487544
552.366022	17791.562788
552.724173	18025.323612
553.082267	18406.127333
553.440305	18763.542620
553.798288	18700.702116
554.156215	19070.228776
554.514086	19370.442090
554.871902	19427.797818
555.229661	19730.443489
555.587365	19809.695469
555.945014	20091.037224
556.302606	20317.314455
556.660143	20586.779252
557.017625	20907.464692
557.375050	21002.422386
557.732421	21402.755537
558.089735	21666.344868
558.446994	21824.150628
558.804197	22274.187035
559.161345	22443.975617
559.518437	22365.313452
559.875474	22694.011806
560.232455	23034.788765
560.589381	23282.561477
560.946251	23428.366769
561.303065	23986.193128
561.659825	24052.514548
562.016528	24194.523852
562.373177	24200.331261
562.729770	24760.216930
563.086307	24728.477826
563.442789	25251.016107
563.799216	25383.202723
564.155587	25566.544447
564.511904	25767.681444
564.868164	26023.865321
565.224370	26436.556860
565.580520	26495.966858
565.936615	26833.265421
566.292654	26844.855033
566.648638	27297.996791
567.004567	27481.227610
567.360441	27754.420340
567.716260	27805.227609
568.072023	28263.627290
568.427732	28441.610267
568.783385	28358.537093
569.138982	28840.211781
569.494525	29151.165274
569.850013	29109.958883
570.205445	29399.641227
570.560823	29469.975405
570.916145	29583.648383
571.271412	29938.815316
571.626625	29918.219682
571.981782	30175.207622
572.336884	30132.062907
572.691931	30530.520748
573.046923	30522.815345
573.401860	30601.855596
573.756743	30830.408908
574.111570	31112.539604
574.466342	31247.730747
574.821059	31550.598229
575.175722	31398.942677
575.530330	31660.497903
575.884882	31597.601948
576.239380	31716.681563
576.593823	31972.401654
576.948211	32117.334827
577.302544	31973.268732
577.656823	32146.437408
578.011047	32527.195758
578.365216	32585.652978
578.719330	32544.688562
579.073389	32702.118755
579.427394	32917.570109
579.781344	33009.324150
580.135239	32998.248735
580.489080	33222.638054
580.842866	33002.498428
581.196597	33527.204405
581.550273	33680.155533
581.903895	33781.200421
582.257463	34282.868326
582.610975	34001.201416
582.964434	34404.448353
583.317837	34167.067981
583.671186	34279.972183
584.024481	34644.518182
584.377721	34457.287207
584.730906	34782.746620
585.084037	35037.796237
585.437113	34965.458200
585.790135	35199.765990
586.143103	35002.218294
586.496016	35262.881236
586.848874	35496.826063
587.201679	35657.202811
587.554428	35377.322990
587.907124	35726.241412
588.259765	35656.804559
588.612352	35921.931443
588.964884	35612.770081
589.317362	35978.944372
589.669786	36099.430470
590.022155	36111.282223
590.374470	36636.187326
590.726731	36421.096415
591.078937	35982.717676
591.431090	36387.108955
591.783188	36083.641576
592.135232	36053.944139
592.487222	36383.469242
592.839157	36618.586137
593.191038	36436.706348
593.542866	36378.690228
593.894639	35951.994364
594.246358	36315.010373
594.598022	36426.828207
594.949633	36147.248335
595.301190	36247.713490
595.652692	36289.247556
596.004141	36826.858888
596.355535	35974.634186
596.706876	36074.839722
597.058162	35911.985247
597.409395	36450.486342
597.760573	36740.834118
598.111698	36486.361713
598.462768	36501.114650
598.813785	36608.672708
599.164748	36342.066246
599.515657	36654.516961
599.866511	36298.777858
600.217312	36991.497931
600.568060	36130.698227
600.918753	36920.389936
601.269392	36935.188243
601.619978	36766.506194
601.970510	37030.871863
602.320988	37233.800991
602.671412	37539.163844
603.021783	37477.029102
603.372100	37176.157917
603.722363	37341.543051
604.072572	37419.370905
604.422728	37480.855338
604.772830	37330.989396
605.122878	37572.604338
605.472872	37497.652463
605.822813	37781.141749
606.172701	37613.798127
606.522534	37982.223294
606.872314	38224.193637
607.222041	38128.152095
607.571714	38499.065071
607.921333	38080.976977
608.270899	38308.794281
608.620411	38719.895336
608.969870	38551.850993
609.319276	38626.981829
609.668627	38712.053821
610.017926	39121.249320
610.367171	39311.578083
610.716362	39381.503928
611.065500	39330.021145
611.414585	39608.338207
611.763616	39803.445985
612.112594	39750.082851
612.461518	39906.189741
612.810389	40326.395120
613.159207	40168.735554
613.507971	40173.144043
613.856682	40698.044105
614.205340	40569.275392
614.553945	41268.740529
614.902496	40658.745790
615.250994	41085.890317
615.599439	41205.330376
615.947830	41324.281442
616.296169	41360.421474
616.644454	41448.427417
616.992686	41621.399488
617.340864	42085.152874
617.688990	41617.013684
618.037063	42299.457365
618.385082	42161.307065
618.733048	42534.854044
619.080961	42452.269862
619.428821	42515.087680
619.776628	42583.405397
620.124382	42448.007566
620.472083	42570.447111
620.819731	42708.836866
621.167326	42330.795698
621.514868	42348.742206
621.862357	41866.359235
622.209793	41975.411996
622.557176	41600.385438
622.904506	41407.122723
623.251783	41082.169946
623.599007	40784.111725
623.946179	40753.136355
624.293297	40531.312983
624.640363	40014.181339
624.987376	39876.202438
625.334336	39723.263912
625.681243	39347.806336
626.028097	39279.695306
626.374899	39115.026016
626.721647	39097.686967
627.068343	38874.084068
627.414987	38614.512535
627.761577	38401.743076
628.108115	38714.556754
628.454600	37994.221240
628.801032	38235.775688
629.147412	38147.752101
629.493739	38059.471415
629.840014	37635.548185
630.186236	38064.494924
630.532405	37522.848149
630.878521	37785.782131
631.224585	37571.946467
631.570597	37258.908458
631.916556	37424.941380
632.262462	37332.814293
632.608316	37291.013046
632.954117	37168.439911
633.299866	37131.788202
633.645562	37063.407470
633.991206	36558.344349
634.336797	36190.239295
634.682336	36067.726653
635.027823	35858.254108
635.373257	35767.175582
635.718639	35448.022652
636.063968	35359.235330
636.409245	34749.190180
636.754470	34699.081111
637.099642	34494.732898
637.444762	33925.682411
637.789829	34068.100048
638.134845	33680.032025
638.479808	33602.574696
638.824719	33572.433637
639.169577	33075.776640
639.514383	33198.745506
639.859137	32814.397854
640.203839	32969.420897
640.548489	32703.459702
640.893086	32689.150387
641.237632	32415.030085
641.582125	32514.439118
641.926566	32287.872020
642.270955	32340.415967
642.615292	32284.280198
642.959576	32157.404438
643.303809	32185.816381
643.647990	32275.180915
643.992118	32255.636362
644.336195	32075.089958
644.680219	32151.723058
645.024192	32339.621985
645.368112	32865.232850
645.711981	32872.446741
646.055797	33560.569282
646.399562	33371.601630
646.743274	34228.812033
647.086935	34625.329030
647.430544	34612.756392
647.774101	34645.039941
648.117606	34962.970391
648.461059	35099.527687
648.804460	34738.697018
649.147810	34246.178808
649.491108	33942.938281
649.834354	33829.323276
650.177548	33033.955228
650.520690	32526.016128
650.863781	32498.909844
651.206820	32327.457681
651.549807	31927.361465
651.892742	31326.125731
652.235626	31250.314338
652.578458	31107.362339
652.921238	30428.543247
653.263967	30704.221266
653.606644	30403.970143
653.949269	30325.721353
654.291843	29939.737847
654.634365	30293.626847
654.976836	29840.603556
655.319255	29923.764951
655.661622	29792.090012
656.003938	29678.177579
656.346203	29495.823921
656.688416	29746.175183
657.030577	29535.694407
657.372687	29343.497896
657.714746	29494.815691
658.056753	29677.237404
658.398708	29071.646113
658.740612	29131.492171
659.082465	29342.905561
659.424266	29248.663710
659.766016	29235.869262
660.107715	29081.746065
660.449362	29189.667087
660.790958	29164.436112
661.132503	29078.212216
661.473996	29158.716923
661.815438	29253.712426
662.156829	29367.400527
662.498168	29171.052626
662.839456	29148.609409
663.180693	29264.828170
663.521879	29321.362190
663.863013	29283.374575
664.204097	29271.656413
664.545129	29675.568782
664.886110	29599.223028
665.227040	29717.226357
665.567918	29687.402891
665.908746	29767.562278
666.249522	29861.095847
666.590248	29897.412319
666.930922	29993.940333
667.271545	30014.092345
667.612118	30063.977083
667.952639	29870.333761
668.293109	29922.025753
668.633528	29773.931776
668.973896	29735.808050
669.314213	29705.077176
669.654480	29527.815084
669.994695	29516.883342
670.334859	29420.758620
670.674973	29244.887886
671.015035	29423.992520
671.355047	29358.878457
671.695008	29272.339489
672.034918	29191.239927
672.374777	29297.769590
672.714585	29169.837708
673.054342	29315.118721
673.394049	29159.682303
673.733705	29378.281858
674.073310	29094.590925
674.412864	29156.440842
674.752368	28890.451921
675.091820	29125.755338
675.431223	28718.866167
675.770574	28518.674386
676.109875	28365.985398
676.449125	28149.064548
676.788324	28054.285814
677.127473	27574.856960
677.466571	27486.384710
677.805619	27212.236682
678.144616	27133.836657
678.483562	27095.206295
678.822458	26781.094520
679.161303	26720.381383
679.500098	26646.588973
679.838842	26563.609060
680.177535	26623.956713
680.516179	26831.926994
680.854771	26913.228203
681.193314	27584.062107
681.531805	28519.846454
681.870247	29271.822771
682.208638	30067.480685
682.546978	30435.704206
682.885268	30610.952358
683.223508	30191.296465
683.561697	29951.675299
683.899836	29782.582396
684.237925	29371.796413
684.575963	29209.166270
684.913951	28825.191663
685.251889	28954.940881
685.589776	28957.340470
685.927614	28960.531521
686.265401	29131.661050
686.603137	29223.281500
686.940824	29695.718274
687.278460	30017.520330
687.616046	30192.949963
687.953582	30868.215042
688.291068	30789.769647
688.628504	31160.367551
688.965889	31186.997446
689.303224	30936.381524
689.640510	30670.823622
689.977745	30087.080691
690.314930	29365.474806
690.652065	28952.521127
690.989150	28288.986814
691.326185	27470.656310
691.663170	26847.481475
692.000105	26132.663503
692.336990	25546.707507
692.673825	25124.967096
693.010610	24630.417301
693.347345	24123.120948
693.684030	23510.658565
694.020665	23310.930570
694.357251	22648.003716
694.693786	22648.812821
695.030272	22412.780957
695.366707	21920.151841
695.703093	21639.611630
696.039429	21693.249507
696.375716	21467.950259
696.711952	21450.941406
697.048139	21326.200574
697.384276	21161.727889
697.720363	21281.944285
698.056400	21177.277328
698.392388	21018.299500
698.728326	21019.368225
699.064214	20864.720748
699.400053	20878.326823
699.735842	20488.975826
700.071581	20307.418670
700.407270	20074.204811
700.742910	19891.823427
701.078501	19641.358739
701.414042	19460.683785
701.749533	19153.682557
702.084974	18858.094501
702.420366	19083.340817
702.755709	18675.024999
703.091002	18379.867962
703.426246	18430.350077
703.761440	18370.388072
704.096584	18132.480899
704.431679	18064.810970
704.766725	18007.286364
705.101721	17923.749403
705.436668	18044.127116
705.771565	17766.465403
706.106413	18064.473213
706.441212	18136.317217
706.775961	18223.483808
707.110661	18288.774312
707.445311	18657.343152
707.779913	18533.149286
708.114465	18826.408329
708.448967	19128.524679
708.783421	19724.464681
709.117825	20069.146013
709.452180	20277.955647
709.786485	20717.057791
710.120742	21447.019388
710.454949	21542.939943
710.789107	22043.382847
711.123216	22749.149427
711.457275	22955.133493
711.791286	23523.783209
712.125247	23691.388971
712.459159	23464.476554
712.793023	24224.417894
713.126837	23248.773143
713.460602	23512.339790
713.794318	23197.038302
714.127985	22936.007356
714.461602	22070.388308
714.795171	22030.888347
715.128691	21082.430539
715.462162	20578.826832
715.795584	20151.291615
716.128957	19868.855930
716.462281	19506.747328
716.795556	19224.679647
717.128782	18766.965563
717.461960	18164.809818
717.795088	18140.201426
718.128167	17798.789282
718.461198	17349.498966
718.794180	17233.970843
719.127113	16906.053868
719.459997	16722.482771
719.792833	16348.613158
720.125619	16388.987759
720.458357	16053.869495
720.791046	15909.677372
721.123686	15769.124961
721.456278	15543.886208
721.788821	15540.738007
722.121315	15292.254493
722.453761	15371.637542
722.786158	15265.601912
723.118506	15339.709394
723.450805	15230.875924
723.783056	15404.805814
724.115259	15279.603717
724.447412	15263.600574
724.779518	15472.397605
725.111574	15518.511560
725.443582	15772.613440
725.775542	15731.016359
726.107453	16211.939915
726.439315	16123.966739
726.771129	16524.662853
727.102895	16930.740398
727.434612	17204.873303
727.766281	17366.618724
728.097901	17681.658072
728.429473	17788.606151
728.760996	17816.894586
729.092471	17937.244572
729.423897	17821.867684
729.755276	17663.661153
730.086606	17752.574504
730.417887	18292.721536
730.749120	18832.583742
731.080305	19053.477021
731.411442	19450.117527
731.742530	19569.131607
732.073570	19709.237875
732.404562	20035.060251
732.735506	19933.208779
733.066401	19802.733635
733.397249	19380.471466
733.728048	18792.786353
734.058798	17947.508361
734.389501	17205.405145
734.720156	16686.035229
735.050762	16110.254801
735.381320	15704.935949
735.711831	15419.460448
736.042293	15041.124373
736.372707	15069.818620
736.703073	14861.094687
737.033391	15032.975347
737.363661	15014.227296
737.693883	15120.109171
738.024056	15306.248736
738.354182	15507.589900
738.684260	15845.150602
739.014290	16123.792820
739.344272	16342.404977
739.674207	16684.427101
740.004093	16863.284718
740.333931	16940.679033
740.663722	17035.233435
740.993464	17090.789471
741.323159	16951.444417
741.652806	16670.390008
741.982405	16522.041453
742.311956	16166.844273
742.641460	16070.341465
742.970915	15740.690333
743.300323	15403.903448
743.629683	15192.749678
743.958996	14888.379932
744.288260	14577.224793
744.617477	14268.449079
744.946647	14243.361777
745.275768	13925.544753
745.604842	13725.736100
745.933869	13538.742059
746.262847	13513.069983
746.591778	13417.036003
746.920662	13292.025470
747.249498	13288.794090
747.578286	13423.670161
747.907027	13586.280140
748.235720	13840.984438
748.564365	13927.954424
748.892963	13866.500238
749.221514	13976.704903
749.550017	13865.335732
749.878473	13845.009800
750.206881	13627.955359
750.535242	13559.834247
750.863555	13471.457779
751.191821	13372.227707
751.520039	13383.310683
751.848210	13293.472281
752.176334	13341.522039
752.504411	13272.566616
752.832440	13086.711876
753.160421	13210.099158
753.488356	13108.504784
753.816243	13024.032690
754.144082	12849.328983
754.471875	12790.450827
754.799620	12751.608736
755.127318	12732.127197
755.454969	12723.653018
755.782572	12681.453519
756.110129	12696.405581
756.437638	12606.289915
756.765100	12616.357099
757.092515	12636.483906
757.419882	12665.921724
757.747203	12670.972960
758.074477	12751.505393
758.401703	12731.207187
758.728882	12913.180238
759.056014	12951.311525
759.383099	13128.429945
759.710138	13250.360333
760.037129	13376.215259
760.364073	13451.310808
760.690970	13465.725987
761.017820	13467.722284
761.344623	13669.088654
761.671379	13987.586233
761.998088	14518.155073
762.324751	15921.808908
762.651366	18831.958639
762.977935	23094.828907
763.304456	26359.502823
763.630931	27924.831504
763.957359	27154.684349
764.283740	25126.005574
764.610074	22994.023475
764.936362	20398.156919
765.262602	18517.521709
765.588796	16554.582101
765.914943	15248.346043
766.241044	14102.895066
766.567097	13287.513637
766.893104	12546.280019
767.219064	12084.301119
767.544978	11604.605084
767.870845	11212.194107
768.196665	10985.410239
768.522438	10752.382903
768.848165	10553.579960
769.173846	10344.843423
769.499479	10215.852899
769.825066	10058.921780
770.150607	9828.931738
770.476101	9748.573225
770.801548	9626.121078
771.126949	9479.655394
771.452303	9367.565338
771.777611	9172.555863
772.102872	9158.425509
772.428087	9024.935755
772.753256	8876.007468
773.078378	8790.320455
773.403453	8616.816543
773.728482	8498.772884
774.053465	8418.432016
774.378401	8317.122467
774.703291	8208.329326
775.028135	8081.902229
775.352932	8055.451295
775.677683	7950.786858
776.002388	7845.278029
776.327046	7848.635438
776.651658	7756.117662
776.976224	7659.130903
777.300743	7654.553535
777.625216	7566.091367
777.949643	7520.355499
778.274024	7537.760083
778.598359	7457.588092
778.922647	7475.166596
779.246889	7420.898575
779.571086	7421.448061
779.895236	7433.924916
780.219339	7437.693179
780.543397	7448.277081
780.867409	7522.596292
781.191374	7533.417129
781.515294	7498.179463
781.839167	7592.091118
782.162995	7567.888539
782.486776	7511.606577
782.810511	7468.282900
783.134201	7387.984881
783.457844	7374.766976
783.781441	7327.594379
784.104993	7264.506859
784.428498	7240.470637
784.751958	7228.071920
785.075372	7199.773402
785.398739	7142.180740
785.722061	7177.960330
786.045337	7181.209353
786.368568	7313.728685
786.691752	7316.629869
787.014891	7612.873275
787.337983	7913.338647
787.661030	8464.969427
787.984031	9076.630268
788.306987	9510.739149
788.629897	9764.861193
788.952760	9761.445812
789.275579	9584.367721
789.598351	9215.539262
789.921078	8879.753045
790.243759	8484.720668
790.566395	8190.143364
790.888984	7938.224303
791.211529	7734.995227
791.534027	7507.951740
791.856480	7306.623179
792.178888	7233.965028
792.501249	7134.813094
792.823566	6974.494319
793.145836	6968.555840
793.468062	6936.720954
793.790241	6888.083901
794.112375	6938.528207
794.434464	7086.849036
794.756507	7104.568692
795.078505	7242.557675
795.400457	7522.389605
795.722364	7851.183741
796.044226	8139.391547
796.366042	8424.138602
796.687812	8403.066579
797.009538	8494.082091
797.331218	8407.369203
797.652852	8339.928647
797.974442	8189.266203
798.295986	8113.636292
798.617484	7921.787621
798.938938	7787.125799
799.260346	7687.951179
799.581709	7491.429358
799.903026	7413.089827
800.224299	7305.340205
800.545526	7138.903990
800.866708	7049.947790
801.187845	6979.419527
801.508936	6880.189454
801.829983	6844.543456
802.150984	6693.666762
802.471940	6647.951058
802.792851	6631.678214
803.113717	6604.443380
803.434538	6567.758904
803.755314	6513.868969
804.076045	6508.356467
804.396731	6456.979548
804.717372	6480.592312
805.037967	6480.955276
805.358518	6520.803076
805.679024	6597.037925
805.999485	6604.897084
806.319901	6643.479555
806.640272	6665.418657
806.960598	6748.136429
807.280879	6746.992088
807.601115	6830.085426
807.921306	6775.096520
808.241453	6787.545650
808.561554	6813.671429
808.881611	6779.562983
809.201623	6784.525998
809.521590	6734.409367
809.841513	6717.264403
810.161390	6750.175576
810.481223	6624.587831
810.801011	6616.138857
811.120755	6589.758499
811.440453	6516.301326
811.760107	6479.299257
812.079716	6453.274300
812.399281	6388.888683
812.718801	6376.247990
813.038276	6335.424726
813.357707	6272.919459
813.677093	6315.338248
813.996434	6213.020469
814.315731	6255.832468
814.634983	6250.241829
814.954191	6253.319453
815.273354	6348.831674
815.592473	6400.717750
815.911547	6520.465319
816.230577	6601.033040
816.549562	6733.227217
816.868502	6829.951836
817.187399	6920.319560
817.506250	7058.371558
817.825058	7082.982471
818.143821	7326.749986
818.462539	7559.787404
818.781213	7883.681539
819.099843	8361.323304
819.418429	9250.096371
819.736970	10133.601433
820.055466	11226.974770
820.373919	12569.928072
820.692327	14545.495771
821.010691	17821.713929
821.329011	25161.076881
821.647286	36690.430141
821.965517	50468.881587
822.283704	58028.908446
822.601847	61243.075041
822.919945	59022.408963
823.237999	55105.409740
823.556010	49063.997709
823.873976	42490.035666
824.191897	36092.282114
824.509775	31323.073312
824.827609	26737.634732
825.145398	23965.078255
825.463144	22325.609324
825.780845	22219.114949
826.098502	23439.371608
826.416116	26686.225045
826.733685	30353.490549
827.051210	32151.503767
827.368692	31227.946739
827.686129	27765.936856
828.003522	23817.110307
828.320872	20133.481218
828.638177	17271.908046
828.955439	15098.502786
829.272656	13306.007110
829.589830	11836.248624
829.906960	10555.898890
830.224046	9601.071584
830.541088	8827.239346
830.858086	8351.472890
831.175041	7948.929193
831.491952	7791.163763
831.808819	7781.525077
832.125642	8075.678924
832.442421	8770.022249
832.759157	10228.942255
833.075849	12757.330446
833.392497	15846.420973
833.709101	18274.737219
834.025662	18642.252458
834.342179	17317.699367
834.658653	15291.614266
834.975083	13391.845357
835.291469	11771.094231
835.607811	10458.967584
835.924110	9558.433505
836.240366	8701.391981
836.556578	7909.000734
836.872746	7260.652897
837.188871	6755.332677
837.504952	6324.540875
837.820990	6010.179562
838.136984	5783.620026
838.452935	5666.642571
838.768842	5648.411238
839.084706	5929.833652
839.400526	6880.965792
839.716303	8360.443623
840.032037	9581.642977
840.347727	9795.087952
840.663373	9017.870578
840.978977	7995.758992
841.294537	7170.721233
841.610054	6566.092802
841.925527	6137.322503
842.240957	5779.803872
842.556344	5461.465089
842.871687	5184.698181
843.186987	4903.880706
843.502244	4673.663813
843.817458	4510.116179
844.132629	4371.620560
844.447756	4277.519862
844.762840	4201.484138
845.077881	4124.551089
845.392879	4066.298036
845.707833	4017.391282
846.022745	3974.586845
846.337613	3944.123152
846.652438	3905.323911
846.967221	3888.249523
847.281960	3852.759800
847.596656	3834.261286
847.911309	3818.127073
848.225919	3794.761325
848.540485	3778.927061
848.855009	3766.805607
849.169490	3743.346597
849.483928	3734.118765
849.798323	3726.504102
850.112675	3706.117676
850.426984	3710.233778
850.741251	3697.978733
851.055474	3693.482024
851.369654	3697.121737
851.683792	3692.551931
851.997887	3701.348744
852.311938	3701.131975
852.625947	3702.767829
852.939914	3698.225750
853.253837	3705.951318
853.567718	3704.222202
853.881555	3692.098227
854.195350	3707.337635
854.509103	3704.645659
854.822812	3703.549208
855.136479	3691.248793
855.450103	3701.338662
855.763685	3686.547917
856.077224	3691.934390
856.390720	3708.774364
856.704173	3727.411510
857.017584	3735.429465
857.330953	3743.258377
857.644278	3766.712345
857.957561	3772.091256
858.270802	3771.065382
858.584000	3778.896814
858.897155	3774.889097
859.210268	3753.822115
859.523339	3734.257397
859.836367	3736.193200
860.149352	3729.571644
860.462295	3719.073441
860.775195	3710.059858
861.088054	3706.362172
861.400869	3702.540977
861.713642	3700.113662
862.026373	3709.404508
862.339062	3715.612689
862.651708	3733.470977
862.964312	3760.030296
863.276873	3770.243673
863.589392	3822.520439
863.901869	3864.830843
864.214303	3909.422369
864.526696	3940.140640
864.839045	3985.629492
865.151353	4011.115045
865.463619	4021.131818
865.775842	4024.393445
866.088023	4046.249367
866.400162	4034.833674
866.712258	4045.883883
867.024313	4048.356569
867.336325	4044.789953
867.648296	4051.040984
867.960224	4049.140469
868.272110	4060.223446
868.583954	4057.281932
868.895755	4071.893717
869.207515	4067.555804
869.519233	4106.851598
869.830909	4114.940129
870.142542	4135.550887
870.454134	4151.513701
870.765684	4179.227444
871.077191	4216.030388
871.388657	4235.325404
871.700081	4268.670116
872.011463	4307.517248
872.322803	4336.587061
872.634101	4365.742574
872.945357	4407.402670
873.256571	4455.250782
873.567744	4487.362932
873.878874	4505.178369
874.189963	4543.924678
874.501010	4551.476326
874.812015	4555.395823
875.122979	4595.876289
875.433900	4590.489816
875.744780	4604.264769
876.055618	4626.486175
876.366415	4623.776555
876.677169	4642.822034
876.987882	4680.106408
877.298554	4724.718099
877.609183	4793.504643
877.919771	4888.847986
878.230317	5010.284341
878.540822	5191.796126
878.851285	5460.320747
879.161707	5849.573442
879.472087	6478.038968
879.782425	7475.567368
880.092722	9268.322663
880.402977	12056.940257
880.713191	15498.465411
881.023363	19125.315984
881.333494	21541.349459
881.643583	22971.033293
881.953631	23203.828736
882.263637	22551.510990
882.573602	21269.318715
882.883526	19872.440190
883.193408	18333.703596
883.503248	16758.738749
883.813048	15306.825948
884.122806	13964.190238
884.432522	12550.494424
884.742197	11348.118738
885.051831	10289.604980
885.361424	9313.793871
885.670975	8515.731326
885.980485	7834.505083
886.289954	7268.559947
886.599382	6803.339585
886.908768	6439.010355
887.218113	6084.549184
887.527417	5801.972346
887.836680	5536.910998
888.145901	5329.470037
888.455082	5170.363660
888.764221	5022.463768
889.073319	4887.771699
889.382376	4817.233354
889.691392	4753.210700
890.000366	4725.527204
890.309300	4702.093400
890.618193	4705.077763
890.927044	4692.086710
891.235855	4708.029359
891.544625	4729.383687
891.853353	4779.873363
892.162041	4872.862487
892.470687	5027.759500
892.779293	5236.566613
893.087858	5549.491197
893.396381	6024.070461
893.704864	6695.899993
894.013306	7703.760238
894.321707	8815.891708
894.630068	9685.548720
894.938387	10027.132263
895.246665	9913.834851
895.554903	9389.922856
895.863100	8758.800641
896.171256	8238.699757
896.479371	7749.296980
896.787446	7282.491175
897.095480	6868.612445
897.403473	6562.347225
897.711425	6261.292038
898.019336	6009.935066
898.327207	5751.192804
898.635038	5530.720461
898.942827	5296.420233
899.250576	5098.668370
899.558284	4911.540740
899.865952	4796.788955
900.173579	4653.224455
900.481165	4547.282086
900.788711	4456.311944
901.096216	4384.896438
901.403681	4319.752128
901.711105	4291.952685
902.018489	4269.151546
902.325832	4320.024350
902.633135	4404.151126
902.940397	4660.582019
903.247619	5254.356845
903.554800	6433.301248
903.861941	8155.929053
904.169041	9691.245224
904.476101	10520.814980
904.783121	10378.609071
905.090100	9770.630794
905.397039	9003.291561
905.703938	8292.889641
906.010796	7639.866133
906.317614	7115.260979
906.624391	6609.116530
906.931129	6203.364139
907.237826	5823.949257
907.544483	5473.364733
907.851099	5120.912462
908.157675	4779.424700
908.464211	4458.928303
908.770707	4225.984146
909.077163	4024.685832
909.383578	3877.970611
909.689954	3763.024741
909.996289	3685.879964
910.302584	3622.326137
910.608839	3587.867330
910.915054	3557.343144
911.221229	3541.758417
911.527363	3549.738563
911.833458	3558.270716
912.139513	3578.896597
912.445527	3601.286882
912.751502	3672.208355
913.057436	3757.139194
913.363331	3865.463508
913.669186	4037.671844
913.975000	4254.355760
914.280775	4603.430458
914.586510	5092.684521
914.892205	5767.042191
915.197859	6670.626168
915.503475	7781.840149
915.809050	8810.290986
916.114585	9507.480043
916.420081	9855.511222
916.725536	9906.033666
917.030952	9553.306652
917.336328	9199.795738
917.641665	8835.224533
917.946961	8392.240701
918.252218	8000.611102
918.557435	7523.992692
918.862612	7132.562219
919.167750	6778.716069
919.472848	6385.899279
919.777906	6038.377256
920.082925	5695.994690
920.387904	5338.103013
920.692843	5080.905865
920.997743	4838.144060
921.302603	4610.412456
921.607423	4449.546716
921.912204	4292.290442
922.216946	4179.245088
922.521647	4061.995411
922.826310	3961.469762
923.130932	3876.680075
923.435516	3781.251033
923.740059	3714.969942
924.044564	3639.962614
924.349028	3587.055704
924.653454	3522.796116
924.957840	3462.536684
925.262186	3414.466761
925.566493	3358.083976
925.870761	3303.034576
926.174989	3269.730193
926.479178	3237.426479
926.783328	3198.579348
927.087438	3169.738907
927.391509	3135.940491
927.695541	3106.326233
927.999533	3081.521235
928.303486	3063.050447
928.607400	3049.557799
928.911275	3033.708411
929.215110	3020.924045
929.518906	3008.807632
929.822663	3010.375431
930.126381	3005.019205
930.430060	3012.162520
930.733699	3013.783251
931.037299	3022.201978
931.340861	3021.944879
931.644383	3030.139274
931.947866	3028.815972
932.251309	3021.866741
932.554714	3026.330683
932.858080	3017.407840
933.161407	3010.156141
933.464694	3003.184225
933.767943	2999.723473
934.071153	2996.953359
934.374323	2986.480362
934.677455	2979.727736
934.980548	2974.547950
935.283602	2965.635190
935.586617	2964.478246
935.889593	2972.544092
936.192530	2974.696664
936.495428	2985.207470
936.798287	2998.896723
937.101108	3025.445960
937.403890	3071.504462
937.706632	3124.116464
938.009336	3196.502392
938.312002	3265.848505
938.614628	3328.331086
938.917216	3381.421998
939.219765	3412.420053
939.522275	3446.641926
939.824747	3450.594190
940.127179	3451.383131
940.429573	3446.490691
940.731929	3448.421453
941.034246	3434.752364
941.336524	3423.152669
941.638763	3411.351328
941.940964	3397.142836
942.243126	3359.903833
942.545250	3340.402129
942.847335	3308.884835
943.149381	3272.762447
943.451389	3243.879156
943.753359	3208.467571
944.055290	3186.949406
944.357182	3160.856394
944.659036	3148.019095
944.960851	3136.845378
945.262628	3121.550517
945.564367	3124.844911
945.866067	3119.768469
946.167729	3114.848303
946.469352	3114.775206
946.770937	3110.432252
947.072484	3095.424737
947.373992	3097.259717
947.675462	3092.344592
947.976893	3074.834144
948.278286	3070.075295
948.579641	3063.572207
948.880958	3056.766649
949.182236	3058.029458
949.483476	3053.308418
949.784678	3049.953530
950.085841	3050.392110
950.386967	3059.897206
950.688054	3073.150399
950.989103	3088.104982
951.290114	3106.631222
951.591087	3132.487300
951.892021	3161.725993
952.192917	3189.089376
952.493776	3210.289948
952.794596	3222.630693
953.095378	3227.515571
953.396122	3224.069942
953.696828	3221.347719
953.997496	3210.970504
954.298126	3188.247503
954.598718	3172.330060
954.899272	3148.394661
955.199788	3126.783235
955.500266	3099.064450
955.800706	3067.136303
956.101108	3033.166487
956.401472	3002.448216
956.701798	2971.114925
957.002087	2934.475818
957.302337	2909.585121
957.602550	2878.836603
957.902724	2852.952799
958.202861	2830.771722
958.502960	2809.087199
958.803022	2789.492234
959.103045	2770.676127
959.403031	2753.692480
959.702979	2738.856364
960.002889	2727.992677
960.302762	2716.599670
960.602596	2704.674820
960.902393	2699.835313
961.202153	2692.306349
961.501875	2682.145904
961.801559	2677.964267
962.101205	2671.773730
962.400814	2665.137051
962.700385	2662.109838
962.999918	2652.551810
963.299414	2650.358908
963.598873	2644.523773
963.898293	2637.602268
964.197677	2642.935809
964.497022	2637.695530
964.796331	2635.721918
965.095601	2632.016670
965.394835	2630.012811
965.694030	2630.030455
965.993189	2631.409211
966.292309	2625.742954
966.591393	2625.619446
966.890439	2624.843108
967.189447	2625.163221
967.488419	2624.487707
967.787353	2627.489714
968.086249	2626.420989
968.385108	2629.488531
968.683930	2629.380147
968.982714	2635.202679
969.281462	2638.413894
969.580172	2643.339102
969.878844	2646.336067
970.177480	2654.386790
970.476078	2659.785866
970.774639	2669.883297
971.073162	2673.613751
971.371649	2682.634896
971.670098	2687.489527
971.968510	2690.811647
972.266885	2696.034283
972.565223	2700.170549
972.863524	2700.984696
973.161788	2704.241281
973.460014	2704.884028
973.758204	2709.962991
974.056356	2712.667570
974.354471	2714.575647
974.652550	2717.728888
974.950591	2713.315358
975.248595	2711.319061
975.546563	2706.721529
975.844493	2707.974256
976.142386	2702.481918
976.440243	2698.859849
976.738062	2693.652337
977.035845	2687.159331
977.333590	2681.793023
977.631299	2678.773372
977.928971	2675.620130
978.226606	2663.365085
978.524204	2664.544715
978.821765	2657.963489
979.119290	2659.367450
979.416777	2660.388284
979.714228	2662.379540
980.011642	2664.905158
980.309020	2670.339522
980.606360	2680.646161
980.903664	2701.692978
981.200931	2732.212123
981.498162	2768.911723
981.795356	2829.261897
982.092513	2905.567322
982.389633	3000.956035
982.686717	3093.277206
982.983764	3166.008453
983.280775	3220.021896
983.577749	3239.261459
983.874686	3229.748802
984.171587	3206.640153
984.468451	3171.399967
984.765279	3134.823875
985.062070	3090.134046
985.358824	3052.441339
985.655543	3000.948473
985.952224	2952.666822
986.248869	2897.327556
986.545478	2841.005264
986.842050	2786.149949
987.138586	2746.014802
987.435086	2706.708926
987.731549	2678.160872
988.027975	2649.917807
988.324366	2634.181846
988.620719	2620.699280
988.917037	2609.886005
989.213318	2599.027359
989.509563	2592.453695
989.805772	2593.837491
990.101944	2586.956316
990.398080	2582.769638
990.694180	2578.940882
990.990244	2582.257961
991.286271	2579.200501
991.582262	2581.418609
991.878217	2585.292736
992.174136	2586.512695
992.470019	2588.940010
992.765865	2590.807758
993.061676	2594.770105
993.357450	2603.687906
993.653188	2608.915582
993.948890	2623.996194
994.244556	2639.974131
994.540186	2657.855104
994.835780	2684.495082
995.131337	2718.666543
995.426859	2756.765063
995.722345	2795.292081
996.017795	2844.929803
996.313208	2882.801471
996.608586	2909.877508
996.903928	2926.868717
997.199234	2930.281578
997.494504	2928.890220
997.789738	2915.652150
998.084936	2898.192114
998.380099	2868.824872
998.675225	2842.245388
998.970316	2815.943168
999.265371	2783.730195
999.560390	2749.415061
999.855373	2720.940103
1000.150320	2694.153932
1000.445232	2670.962104
1000.740108	2650.850421
1001.034948	2631.855353
1001.329752	2616.021089
1001.624521	2605.666559
1001.919254	2595.707759
1002.213951	2587.147880
1002.508613	2580.402816
1002.803239	2573.869481
1003.097829	2568.422514
1003.392384	2562.670558
1003.686903	2560.596123
1003.981386	2556.548076
1004.275834	2551.695966
1004.570246	2552.948692
1004.864623	2546.629606
1005.158964	2543.919986
1005.453270	2544.111550
1005.747540	2544.164482
1006.041775	2541.409491
1006.335974	2541.253216
1006.630138	2537.011085
1006.924266	2538.702392
1007.218359	2537.396733
1007.512416	2534.016639
1007.806438	2530.051772
1008.100425	2532.383305
1008.394376	2527.158149
1008.688292	2533.353727
1008.982172	2531.065044
1009.276017	2535.821372
1009.569827	2531.417924
1009.863602	2530.525640
1010.157341	2529.867770
1010.451045	2531.397760
1010.744714	2529.903058
1011.038347	2528.083201
1011.331945	2529.199817
1011.625508	2526.875845
1011.919036	2523.722603
1012.212528	2525.093797
1012.505986	2526.495238
1012.799408	2523.263858
1013.092795	2523.576410
1013.386147	2525.391225
1013.679464	2525.234949
1013.972745	2522.507685
1014.265992	2523.339475
1014.559204	2520.750843
1014.852380	2522.757222
1015.145521	2523.767973
1015.438628	2520.604649
1015.731699	2522.676564
1016.024736	2521.711183
1016.317737	2525.829805
1016.610703	2522.749660
1016.903635	2528.688140
1017.196531	2527.879034
1017.489393	2528.723428
1017.782219	2528.708304
1018.075011	2530.974303
1018.367768	2534.898841
1018.660490	2532.405991
1018.953177	2532.405991
1019.245829	2532.405991
