Dividing Wavelength (nm)	Counts (n)	Blue Motor Position (mm): 11.500000	Red Motor Position (mm): 0.000000	
326.493990	2065.693447
326.888308	2065.693447
327.282561	2065.693447
327.676750	2041.148069
328.070874	2042.907432
328.464933	2050.907743
328.858929	2055.999308
329.252859	2068.110680
329.646726	2079.778431
330.040528	2100.585793
330.434265	2112.634151
330.827938	2136.781278
331.221547	2156.885399
331.615091	2175.462051
332.008571	2195.074660
332.401986	2216.023175
332.795338	2236.270970
333.188625	2256.894330
333.581847	2274.092226
333.975006	2293.460339
334.368100	2311.991621
334.761129	2326.144660
335.154095	2340.920282
335.546996	2376.783051
335.939833	2448.173351
336.332606	2453.090997
336.725315	2469.575570
337.117960	2478.163175
337.510540	2486.357571
337.903056	2495.635814
338.295508	2502.953049
338.687896	2511.591066
339.080220	2514.351098
339.472480	2519.414937
339.864676	2521.363343
340.256807	2527.044723
340.648875	2528.766278
341.040879	2529.449354
341.432818	2528.539426
341.824694	2531.334745
342.216506	2530.739889
342.608253	2529.351051
342.999937	2532.577390
343.391557	2528.736031
343.783113	2529.764426
344.174605	2524.133457
344.566033	2524.844260
344.957397	2523.606657
345.348697	2519.135153
345.739934	2519.367046
346.131106	2520.007273
346.522215	2512.639626
346.913260	2512.811026
347.304241	2510.033350
347.695159	2508.551251
348.086012	2510.915552
348.476802	2503.777278
348.867528	2505.377844
349.258191	2496.444920
349.648789	2503.351300
350.039324	2494.854436
350.429796	2501.750734
350.820203	2499.802328
351.210548	2499.267966
351.600828	2498.262256
351.991045	2498.050527
352.381198	2496.162615
352.771288	2495.960969
353.161314	2494.584734
353.551276	2495.156905
353.941175	2493.458036
354.331010	2497.611947
354.720782	2500.135044
355.110490	2498.857112
355.500135	2497.001967
355.889717	2499.734272
356.279235	2492.502737
356.668689	2498.526916
357.058080	2498.829385
357.447408	2498.952894
357.836672	2495.580362
358.225873	2499.633449
358.615010	2500.898779
359.004084	2499.451968
359.393095	2500.795435
359.782043	2500.399705
360.170927	2501.894407
360.559748	2501.654952
360.948505	2500.694612
361.337199	2503.862977
361.725830	2501.256701
362.114398	2504.861126
362.502903	2504.634274
362.891344	2508.536127
363.279722	2506.817094
363.668037	2503.719305
364.056289	2505.932371
364.444478	2507.916065
364.832603	2509.171312
365.220665	2508.137876
365.608665	2507.946312
365.996601	2509.635099
366.384474	2508.757938
366.772284	2507.976559
367.160031	2509.501508
367.547715	2509.914883
367.935336	2507.800119
368.322893	2506.224758
368.710388	2506.832217
369.097820	2506.025633
369.485189	2506.176867
369.872495	2511.470079
370.259738	2509.133504
370.646918	2512.180881
371.034035	2511.366735
371.421090	2511.618793
371.808081	2512.269102
372.195010	2512.291787
372.581875	2511.661642
372.968678	2510.792043
373.355418	2511.636437
373.742096	2513.300018
374.128710	2515.107271
374.515262	2511.986797
374.901751	2513.231962
375.288177	2511.759945
375.674540	2513.340347
376.060841	2511.822959
376.447079	2513.428567
376.833254	2513.559637
377.219367	2513.773886
377.605417	2515.369411
377.991404	2515.553413
378.377329	2517.224556
378.763191	2513.829339
379.148991	2516.160872
379.534727	2515.654236
379.920402	2512.470748
380.306013	2515.361849
380.691563	2517.191788
381.077049	2515.407220
381.462474	2516.095337
381.847835	2517.471572
382.233134	2514.290604
382.618371	2513.282373
383.003545	2516.899401
383.388657	2516.672549
383.773706	2520.405524
384.158693	2518.043743
384.543618	2517.842097
384.928480	2518.358815
385.313280	2516.470903
385.698017	2515.641633
386.082692	2520.647499
386.467305	2519.339320
386.851856	2519.334279
387.236344	2518.013496
387.620770	2516.612056
388.005133	2515.991994
388.389435	2517.786644
388.773674	2515.865965
389.157851	2519.412417
389.541965	2520.685308
389.926018	2520.176151
390.310008	2520.771007
390.693936	2519.500637
391.077802	2519.810668
391.461606	2521.532222
391.845348	2520.443333
392.229027	2520.702952
392.612645	2521.479290
392.996200	2523.954496
393.379694	2522.739578
393.763125	2522.053981
394.146494	2523.276461
394.529801	2522.512726
394.913047	2524.211595
395.296230	2526.593540
395.679351	2522.091790
396.062410	2526.560773
396.445408	2523.047088
396.828343	2523.087418
397.211217	2524.398118
397.594028	2523.982222
397.976778	2523.168076
398.359466	2524.705628
398.742092	2522.016173
399.124656	2523.485669
399.507158	2524.718231
399.889598	2525.068591
400.271977	2524.297295
400.654294	2526.349044
401.036549	2525.081194
401.418742	2524.501461
401.800874	2528.138654
402.182944	2524.120854
402.564952	2526.114631
402.946898	2527.195958
403.328783	2525.794517
403.710606	2527.463139
404.092367	2525.897861
404.474067	2526.883407
404.855705	2528.554549
405.237282	2526.134795
405.618797	2526.979188
406.000250	2529.966072
406.381642	2528.340300
406.762972	2526.565814
407.144240	2526.197810
407.525447	2528.925074
407.906593	2522.096831
408.287677	2529.184693
408.668700	2529.918181
409.049661	2529.199817
409.430560	2531.675023
409.811399	2528.171421
410.192176	2529.963552
410.572891	2531.110414
410.953545	2528.839374
411.334138	2530.049251
411.714669	2526.656555
412.095139	2528.262162
412.475547	2530.727286
412.855894	2531.067564
413.236180	2532.300126
413.616405	2532.156453
413.996568	2530.397091
414.376670	2530.543284
414.756711	2529.431710
415.136691	2531.143182
415.516609	2531.463295
415.896466	2532.534540
416.276262	2529.623274
416.655997	2532.446320
417.035670	2531.339787
417.415283	2532.040507
417.794834	2531.430527
418.174324	2530.092101
418.553753	2534.271217
418.933121	2532.801721
419.312428	2534.019160
419.691674	2529.736700
420.070859	2533.358769
420.449983	2532.012781
420.829045	2534.482946
421.208047	2531.072605
421.586988	2533.225178
421.965867	2532.925229
422.344686	2533.729293
422.723444	2535.471012
423.102141	2533.545291
423.480777	2535.508821
423.859352	2535.506300
424.237866	2533.283151
424.616319	2534.271217
424.994712	2535.176105
425.373044	2534.994623
425.751314	2532.874818
426.129524	2527.385001
426.507673	2533.207534
426.885762	2525.308046
427.263789	2535.191228
427.641756	2533.124355
428.019662	2531.821217
428.397508	2533.197452
428.775292	2532.620240
429.153016	2536.312885
429.530679	2537.447144
429.908282	2534.382123
430.285824	2536.038142
430.663305	2535.019829
431.040726	2533.494880
431.418086	2536.285158
431.795385	2536.880015
432.172624	2534.868594
432.549802	2535.024870
432.926920	2535.022349
433.303977	2536.514531
433.680974	2535.526465
434.057910	2532.771474
434.434786	2535.294572
434.811601	2531.639735
435.188355	2536.900179
435.565050	2535.637370
435.941683	2535.077802
436.318257	2536.572504
436.694770	2536.953111
437.071222	2533.567977
437.447614	2536.693492
437.823946	2536.113759
438.200218	2533.373892
438.576429	2536.096115
438.952580	2535.269366
439.328670	2536.804397
439.704700	2535.735673
440.080670	2533.935981
440.456580	2535.833975
440.832429	2538.624254
441.208218	2534.049407
441.583947	2536.438914
441.959616	2533.394057
442.335224	2536.196938
442.710773	2534.828265
443.086261	2535.009747
443.461689	2538.856147
443.837057	2536.753986
444.212365	2534.858512
444.587612	2534.621578
444.962800	2534.369520
445.337927	2534.145189
445.712995	2528.728469
446.088002	2535.491177
446.462949	2537.537885
446.837837	2536.776671
447.212664	2536.852288
447.587431	2537.043852
447.962139	2535.909593
448.336786	2536.872453
448.711374	2537.472350
449.085901	2540.136600
449.460369	2535.455889
449.834776	2536.607792
450.209124	2537.805066
450.583412	2537.253060
450.957640	2536.272556
451.331808	2537.099305
451.705917	2535.687782
452.079965	2534.545960
452.453954	2535.231557
452.827883	2538.412525
453.201752	2536.300282
453.575562	2536.569984
453.949311	2537.293389
454.323001	2538.662063
454.696632	2538.735159
455.070202	2539.135931
455.443713	2538.921682
455.817164	2539.743390
456.190556	2537.610982
456.563888	2538.115097
456.937160	2536.789274
457.310373	2539.559388
457.683526	2537.479912
458.056619	2535.939839
458.429653	2537.991589
458.802628	2537.588297
459.175542	2537.522762
459.548398	2539.108205
459.921194	2540.814635
460.293930	2538.571322
460.666607	2535.350024
461.039224	2540.129038
461.411782	2539.052752
461.784280	2536.464119
462.156719	2539.723225
462.529099	2539.740869
462.901419	2539.448483
463.273680	2536.438914
463.645882	2535.128214
464.018024	2535.402957
464.390106	2537.719367
464.762130	2541.734646
465.134094	2538.215920
465.505999	2536.610313
465.877845	2542.006868
466.249631	2541.258257
466.621358	2540.227341
466.993026	2540.885211
467.364634	2542.616848
467.736184	2539.710623
468.107674	2539.768596
468.479105	2539.067875
468.850477	2539.887063
469.221790	2541.669111
469.593043	2537.421939
469.964238	2539.667773
470.335373	2541.197763
470.706449	2542.942002
471.077467	2544.129194
471.448425	2540.547454
471.819324	2539.768596
472.190164	2541.762372
472.560945	2543.367980
472.931667	2542.009389
473.302330	2542.047197
473.672934	2542.702547
474.043479	2541.780016
474.413965	2541.359080
474.784393	2544.182126
475.154761	2542.286652
475.525070	2540.930582
475.895321	2539.715664
476.265513	2538.843544
476.635645	2541.079296
477.005719	2540.776827
477.375734	2539.960160
477.745691	2541.732125
478.115588	2541.535520
478.485427	2544.388813
478.855207	2543.060469
479.224928	2544.603062
479.594591	2542.909235
479.964194	2543.254554
480.333739	2541.328833
480.703226	2545.200439
481.072653	2544.923176
481.442022	2544.913093
481.811333	2542.536189
482.180584	2541.157434
482.549777	2539.730787
482.918912	2539.806404
483.287988	2543.128525
483.657005	2546.952240
484.025964	2546.407795
484.394864	2546.548948
484.763706	2545.124822
485.132489	2545.528114
485.501213	2545.946530
485.869879	2546.289328
486.238487	2546.369987
486.607036	2543.814122
486.975527	2545.477702
487.343959	2544.030891
487.712333	2546.949719
488.080648	2547.121119
488.448905	2545.039122
488.817104	2546.349822
489.185244	2545.187836
489.553326	2547.708413
489.921350	2547.035419
490.289315	2547.879812
490.657222	2551.025492
491.025070	2547.993238
491.392861	2550.844011
491.760593	2548.038609
492.128267	2548.562889
492.495883	2546.067518
492.863440	2547.625234
493.230939	2545.865871
493.598380	2548.406613
493.965763	2546.125491
494.333088	2548.394010
494.700354	2545.540717
495.067563	2546.291849
495.434713	2545.359235
495.801805	2548.832590
496.168839	2545.908721
496.535815	2548.172199
496.902733	2546.271684
497.269593	2547.862168
497.636395	2548.300749
498.003139	2547.032898
498.369825	2547.118598
498.736453	2549.457693
499.103023	2547.905018
499.469535	2550.763352
499.835989	2545.628937
500.202385	2549.992056
500.568723	2543.451159
500.935003	2548.005841
501.301226	2541.704399
501.667390	2547.305121
502.033497	2548.618341
502.399546	2548.240255
502.765537	2550.665050
503.131470	2547.189174
503.497345	2551.645554
503.863163	2547.940306
504.228923	2549.634134
504.594625	2550.138249
504.960269	2546.715306
505.325856	2550.997766
505.691385	2549.147663
506.056856	2551.806871
506.422270	2551.138918
506.787625	2551.859803
507.152924	2551.539690
507.518164	2552.527756
507.883347	2553.402396
508.248472	2555.260062
508.613540	2552.005997
508.978550	2554.037582
509.343503	2554.125802
509.708398	2556.638817
510.073236	2553.775442
510.438016	2558.035217
510.802738	2556.180072
511.167403	2557.092521
511.532010	2558.040258
511.896561	2562.123592
512.261053	2561.213664
512.625488	2561.269117
512.989866	2559.671071
513.354186	2561.301884
513.718449	2563.908161
514.082655	2561.798438
514.446803	2564.762637
514.810894	2565.286917
515.174927	2565.498645
515.538904	2564.785322
515.902822	2566.658110
516.266684	2569.632391
516.630488	2567.799932
516.994235	2569.012329
517.357925	2568.679613
517.721558	2573.418298
518.085133	2572.359655
518.448651	2569.251784
518.812112	2570.418811
519.175516	2572.329408
519.538863	2572.077351
519.902152	2580.410378
520.265385	2579.283680
520.628560	2581.451376
520.991678	2580.856520
521.354739	2582.172261
521.717743	2583.356932
522.080690	2581.917683
522.443580	2585.116295
522.806413	2584.934814
523.169189	2588.057808
523.531908	2589.975967
523.894569	2591.122830
524.257174	2589.333220
524.619722	2593.426637
524.982213	2596.794128
525.344647	2597.817482
525.707025	2596.337904
526.069345	2599.450816
526.431608	2601.192535
526.793815	2602.047010
527.155964	2603.468616
527.518057	2602.709922
527.880093	2603.075406
528.242072	2604.358379
528.603995	2604.499532
528.965860	2608.940788
529.327669	2609.477671
529.689421	2608.731580
530.051117	2614.995214
530.412755	2611.589915
530.774337	2614.453290
531.135862	2614.700307
531.497331	2617.689711
531.858743	2617.576285
532.220098	2620.376646
532.581396	2621.281533
532.942638	2621.944445
533.303824	2624.333952
533.664953	2623.227418
534.026025	2627.262862
534.387040	2628.939046
534.747999	2628.102214
535.108902	2631.225209
535.469748	2629.218830
535.830537	2634.507000
536.191270	2636.399953
536.551947	2635.676548
536.912567	2634.822072
537.273131	2638.683596
537.633638	2635.916002
537.994089	2643.233237
538.354483	2641.373052
538.714821	2644.024698
539.075103	2648.806233
539.435328	2647.684576
539.795497	2647.944196
540.155609	2651.011738
540.515665	2651.462921
540.875665	2652.692962
541.235609	2652.725730
541.595496	2655.967192
541.955328	2657.540032
542.315102	2659.594302
542.674821	2658.502892
543.034483	2659.420382
543.394090	2658.197902
543.753640	2663.506237
544.113134	2665.436999
544.472571	2660.252173
544.831953	2665.850374
545.191278	2668.131496
545.550548	2666.581341
545.909761	2668.365910
546.268918	2670.145437
546.628019	2671.738442
546.987064	2668.925478
547.346053	2671.564522
547.704986	2675.731036
548.063863	2676.038546
548.422684	2674.652229
548.781449	2672.779440
549.140158	2676.887980
549.498811	2679.078362
549.857408	2676.845131
550.215949	2677.898732
550.574434	2677.881088
550.932864	2678.914524
551.291237	2680.739422
551.649555	2680.636078
552.007817	2680.847807
552.366022	2678.917045
552.724173	2680.870492
553.082267	2682.476099
553.440305	2686.509022
553.798288	2684.091789
554.156215	2684.573219
554.514086	2683.118847
554.871902	2680.608352
555.229661	2684.159845
555.587365	2681.510718
555.945014	2689.768128
556.302606	2685.369722
556.660143	2686.624969
557.017625	2683.857376
557.375050	2688.084383
557.732421	2687.245031
558.089735	2688.974147
558.446994	2690.930114
558.804197	2691.066226
559.161345	2691.424147
559.518437	2690.960361
559.875474	2691.807275
560.232455	2691.076308
560.589381	2693.032276
560.946251	2694.400949
561.303065	2694.617718
561.659825	2693.115455
562.016528	2695.797348
562.373177	2694.030424
562.729770	2696.523275
563.086307	2694.723583
563.442789	2698.660724
563.799216	2699.154757
564.155587	2698.867411
564.511904	2701.203986
564.868164	2701.627443
565.224370	2699.232895
565.580520	2701.246836
565.936615	2704.533668
566.292654	2702.701209
566.648638	2704.896631
567.004567	2702.975952
567.360441	2705.950232
567.716260	2705.536858
568.072023	2712.155893
568.427732	2709.569781
568.783385	2711.140100
569.138982	2713.590101
569.494525	2715.732591
569.850013	2714.948692
570.205445	2714.920966
570.560823	2717.464228
570.916145	2715.150338
571.271412	2721.464383
571.626625	2722.454970
571.981782	2723.170814
572.336884	2722.754919
572.691931	2720.960268
573.046923	2724.726010
573.401860	2725.078891
573.756743	2728.411093
574.111570	2733.459809
574.466342	2735.980386
574.821059	2741.051787
575.175722	2738.039697
575.530330	2743.834503
575.884882	2743.279977
576.239380	2745.891294
576.593823	2748.263157
576.948211	2752.618714
577.302544	2755.250196
577.656823	2758.779004
578.011047	2764.488111
578.365216	2767.096908
578.719330	2767.003647
579.073389	2773.254677
579.427394	2777.559823
579.781344	2780.987807
580.135239	2783.483178
580.489080	2788.940227
580.842866	2792.428706
581.196597	2803.965387
581.550273	2807.368165
581.903895	2809.982004
582.257463	2820.265957
582.610975	2824.097234
582.964434	2830.615446
583.317837	2836.294306
583.671186	2843.246057
584.024481	2851.536235
584.377721	2853.961030
584.730906	2863.241794
585.084037	2874.654966
585.437113	2880.051522
585.790135	2888.986967
586.143103	2892.750188
586.496016	2904.342321
586.848874	2912.118301
587.201679	2924.138933
587.554428	2925.164807
587.907124	2940.237857
588.259765	2947.681121
588.612352	2963.086887
588.964884	2968.987558
589.317362	2982.051708
589.669786	2993.648882
590.022155	3003.602641
590.374470	3016.558406
590.726731	3026.814633
591.078937	3026.474356
591.431090	3046.593601
591.783188	3055.014848
592.135232	3064.237639
592.487222	3079.739187
592.839157	3097.395828
593.191038	3106.119545
593.542866	3116.834518
593.894639	3125.159983
594.246358	3141.916779
594.598022	3160.049809
594.949633	3165.731189
595.301190	3178.777696
595.652692	3195.910057
596.004141	3221.277143
596.355535	3216.399827
596.706876	3233.144019
597.058162	3244.678179
597.409395	3269.457971
597.760573	3294.099131
598.111698	3303.458033
598.462768	3319.372956
598.813785	3340.918847
599.164748	3350.890250
599.515657	3378.147768
599.866511	3389.994480
600.217312	3418.592946
600.568060	3420.291815
600.918753	3461.720017
601.269392	3478.136534
601.619978	3491.117506
601.970510	3522.022299
602.320988	3544.407543
602.671412	3576.809559
603.021783	3594.065429
603.372100	3610.991103
603.722363	3639.776091
604.072572	3665.054957
604.422728	3686.903318
604.772830	3708.061041
605.122878	3738.635639
605.472872	3764.998353
605.822813	3794.940286
606.172701	3818.323678
606.522534	3853.324409
606.872314	3893.247827
607.222041	3914.390427
607.571714	3955.243937
607.921333	3965.497644
608.270899	4003.180269
608.620411	4053.158268
608.969870	4075.709870
609.319276	4108.139613
609.668627	4143.899038
610.017926	4193.740926
610.367171	4236.215168
610.716362	4274.076753
611.065500	4310.131086
611.414585	4354.591542
611.763616	4402.772370
612.112594	4437.478194
612.461518	4482.989731
612.810389	4539.705232
613.159207	4573.110438
613.507971	4610.568732
613.856682	4680.769319
614.205340	4714.401377
614.553945	4791.525990
614.902496	4802.119975
615.250994	4871.632445
615.599439	4921.093726
615.947830	4977.363085
616.296169	5028.157752
616.644454	5084.898459
616.992686	5144.656296
617.340864	5222.595055
617.688990	5248.398201
618.037063	5350.045507
618.385082	5392.718874
618.733048	5478.312625
619.080961	5525.870871
619.428821	5578.661834
619.776628	5635.553776
620.124382	5679.888203
620.472083	5735.189661
620.819731	5789.825686
621.167326	5804.170289
621.514868	5856.537796
621.862357	5854.637281
622.209793	5909.548049
622.557176	5918.556591
622.904506	5940.326814
623.251783	5959.354649
623.599007	5978.261496
623.946179	6022.361510
624.293297	6045.243308
624.640363	6047.234563
624.987376	6081.138843
625.334336	6118.498835
625.681243	6132.334281
626.028097	6169.298542
626.374899	6213.935439
626.721647	6266.023161
627.068343	6295.004754
627.414987	6329.448438
627.761577	6360.837182
628.108115	6449.248938
628.454600	6428.239930
628.801032	6514.171438
629.147412	6563.957874
629.493739	6609.666016
629.840014	6629.008923
630.186236	6730.386527
630.532405	6736.917342
630.878521	6826.523851
631.224585	6863.442741
631.570597	6889.981896
631.916556	6974.116233
632.262462	7034.597476
632.608316	7089.790549
632.954117	7137.752087
633.299866	7190.036414
633.645562	7238.350832
633.991206	7230.307671
634.336797	7228.775161
634.682336	7268.718743
635.027823	7288.848070
635.373257	7332.378434
635.718639	7334.228537
636.063968	7378.283181
636.409245	7343.284970
636.754470	7392.748772
637.099642	7409.336688
637.444762	7382.946248
637.789829	7461.331149
638.134845	7460.557332
638.479808	7501.481419
638.824719	7561.145995
639.169577	7537.981893
639.514383	7621.899461
639.859137	7610.713141
640.203839	7699.180349
640.548489	7715.662402
640.893086	7775.223635
641.237632	7788.156715
641.582125	7864.653704
641.926566	7889.136067
642.270955	7957.058054
642.615292	8005.632092
642.959576	8047.236734
643.303809	8107.914583
643.647990	8195.665948
643.992118	8252.240297
644.336195	8287.281357
644.680219	8362.407152
645.024192	8466.685940
645.368112	8641.281262
645.711981	8715.613076
646.055797	8926.514788
646.399562	8972.331315
646.743274	9227.310356
647.086935	9398.071881
647.430544	9477.724632
647.774101	9558.287312
648.117606	9703.069250
648.461059	9808.005909
648.804460	9789.235172
649.147810	9749.833514
649.491108	9736.376154
649.834354	9764.863714
650.177548	9653.489502
650.520690	9608.903017
650.863781	9658.235748
651.206820	9681.755252
651.549807	9654.394389
651.892742	9581.809336
652.235626	9618.884502
652.578458	9650.991610
652.921238	9553.339419
653.263967	9683.565026
653.606644	9679.297689
653.949269	9719.851251
654.291843	9688.618783
654.634365	9842.517648
654.976836	9791.506212
655.319255	9881.735304
655.661622	9912.751003
656.003938	9945.374830
656.346203	9964.604312
656.688416	10088.092416
657.030577	10091.013765
657.372687	10110.036559
657.714746	10204.900992
658.056753	10328.873047
658.398708	10224.944620
658.740612	10305.136775
659.082465	10430.399365
659.424266	10463.865065
659.766016	10528.406958
660.107715	10552.319671
660.449362	10640.698660
660.790958	10707.403208
661.132503	10752.176215
661.473996	10837.434730
661.815438	10931.628689
662.156829	11029.311127
662.498168	11034.168279
662.839456	11094.697413
663.180693	11194.134173
663.521879	11277.860177
663.863013	11334.064001
664.204097	11393.295038
664.545129	11592.899525
664.886110	11643.946248
665.227040	11753.843402
665.567918	11818.297075
665.908746	11901.574416
666.249522	12006.185920
666.590248	12078.360119
666.930922	12192.433869
667.271545	12261.137234
667.612118	12356.659538
667.952639	12352.132582
668.293109	12430.401537
668.633528	12452.214609
668.973896	12507.344668
669.314213	12554.847460
669.654480	12551.437120
669.994695	12624.775826
670.334859	12659.161536
670.674973	12661.934171
671.015035	12810.779279
671.355047	12849.696987
671.695008	12889.822051
672.034918	12921.266248
672.374777	13022.694264
672.714585	13052.681567
673.054342	13171.801512
673.394049	13187.366075
673.733705	13331.006192
674.073310	13285.981126
674.412864	13377.886402
674.752368	13342.094210
675.091820	13492.313032
675.431223	13398.842478
675.770574	13381.538718
676.109875	13371.368190
676.449125	13349.666023
676.788324	13374.055125
677.127473	13234.372314
677.466571	13253.367381
677.805619	13204.190926
678.144616	13228.643042
678.483562	13269.446142
678.822458	13188.444882
679.161303	13226.336714
679.500098	13250.067946
679.838842	13269.597376
680.177535	13365.424670
680.516179	13516.119882
680.854771	13611.425416
681.193314	13975.628616
681.531805	14451.160659
681.870247	14861.951683
682.208638	15297.928311
682.546978	15525.072621
682.885268	15684.920048
683.223508	15548.942485
683.561697	15484.637526
683.899836	15477.012781
684.237925	15349.832031
684.575963	15330.262272
684.913951	15204.087233
685.251889	15323.618031
685.589776	15384.111877
685.927614	15451.436487
686.265401	15590.743732
686.603137	15691.420616
686.940824	15980.770244
687.278460	16205.963627
687.616046	16343.957652
687.953582	16729.850417
688.291068	16761.203874
688.628504	16997.916294
688.965889	17073.115186
689.303224	17010.428438
689.640510	16938.715503
689.977745	16697.380345
690.314930	16387.762758
690.652065	16233.614356
690.989150	15959.108406
691.326185	15599.452326
691.663170	15331.535163
692.000105	15026.101734
692.336990	14762.099028
692.673825	14594.508389
693.010610	14385.366039
693.347345	14158.816585
693.684030	13888.580492
694.020665	13831.691071
694.357251	13516.298842
694.693786	13561.855750
695.030272	13486.533350
695.366707	13254.967948
695.703093	13138.333292
696.039429	13217.451681
696.375716	13128.467754
696.711952	13157.734172
697.048139	13126.461374
697.384276	13072.127818
697.720363	13174.211184
698.056400	13147.616577
698.392388	13098.324174
698.728326	13135.190132
699.064214	13083.891351
699.400053	13140.135504
699.735842	12946.724075
700.071581	12888.828944
700.407270	12782.425310
700.742910	12727.696023
701.078501	12617.287192
701.414042	12541.543855
701.749533	12399.345508
702.084974	12249.335893
702.420366	12425.204107
702.755709	12223.878066
703.091002	12081.861201
703.426246	12140.378915
703.761440	12134.881536
704.096584	12032.122656
704.431679	12033.534179
704.766725	12033.768593
705.101721	12015.527178
705.436668	12115.407559
705.771565	11978.268010
706.106413	12189.910772
706.441212	12260.791915
706.775961	12339.575068
707.110661	12421.481215
707.445311	12673.163341
707.779913	12629.779171
708.114465	12839.541583
708.448967	13065.723032
708.783421	13463.333960
709.117825	13710.093399
709.452180	13870.696999
709.786485	14158.967820
710.120742	14632.211178
710.454949	14718.982039
710.789107	15053.248348
711.123216	15503.509086
711.457275	15665.433468
711.791286	16033.251176
712.125247	16161.019220
712.459159	16056.019547
712.793023	16565.695325
713.126837	15975.867722
713.460602	16190.804878
713.794318	16036.290992
714.127985	15917.576860
714.461602	15405.151133
714.795171	15437.656493
715.128691	14841.751779
715.462162	14565.993102
715.795584	14324.307584
716.128957	14185.776676
716.462281	13987.533301
716.795556	13837.531248
717.128782	13562.120410
717.461960	13190.249615
717.795088	13203.573384
718.128167	12999.759534
718.461198	12718.851318
718.794180	12664.361487
719.127113	12463.171557
719.459997	12365.499201
719.792833	12131.539251
720.125619	12171.777741
720.458357	11975.291208
720.791046	11896.714743
721.123686	11812.353554
721.456278	11680.741630
721.788821	11702.584950
722.121315	11529.887622
722.453761	11617.402053
722.786158	11556.031046
723.118506	11632.951492
723.450805	11568.298694
723.783056	11712.649614
724.115259	11642.723769
724.447412	11644.576393
724.779518	11807.934983
725.111574	11855.268897
725.443582	12053.146788
725.775542	12028.924044
726.107453	12409.606777
726.439315	12351.318436
726.771129	12651.443530
727.102895	12962.084471
727.434612	13174.369980
727.766281	13308.411740
728.097901	13550.372001
728.429473	13637.873829
728.760996	13681.384028
729.092471	13782.126447
729.423897	13731.649373
729.755276	13647.903205
730.086606	13735.110125
730.417887	14138.442762
730.749120	14547.376121
731.080305	14739.819648
731.411442	15063.771756
731.742530	15174.251163
732.073570	15308.111442
732.404562	15555.664863
732.735506	15502.727707
733.066401	15423.808443
733.397249	15150.524973
733.728048	14754.592750
734.058798	14176.206046
734.389501	13656.508454
734.720156	13295.435810
735.050762	12872.556099
735.381320	12587.640166
735.711831	12374.606046
736.042293	12104.765683
736.372707	12146.365285
736.703073	11986.074237
737.033391	12136.126701
737.363661	12140.885551
737.693883	12229.816546
738.024056	12377.171993
738.354182	12530.153368
738.684260	12815.762460
739.014290	13030.019060
739.344272	13203.364176
739.674207	13472.561792
740.004093	13620.053350
740.333931	13679.334799
740.663722	13771.265281
740.993464	13836.306247
741.323159	13756.792128
741.652806	13564.499835
741.982405	13465.189104
742.311956	13218.215416
742.641460	13160.010253
742.970915	12924.558122
743.300323	12671.149400
743.629683	12530.763348
743.958996	12305.859831
744.288260	12080.182497
744.617477	11857.923065
744.946647	11844.500993
745.275768	11606.140115
745.604842	11467.238683
745.933869	11330.031078
746.262847	11315.724283
746.591778	11260.687486
746.920662	11171.330514
747.249498	11176.976606
747.578286	11293.954060
747.907027	11430.498753
748.235720	11636.669343
748.564365	11707.076618
748.892963	11669.351143
749.221514	11774.086156
749.550017	11696.202849
749.878473	11690.196314
750.206881	11532.922397
750.535242	11482.815848
750.863555	11440.243304
751.191821	11356.865140
751.520039	11377.372554
751.848210	11320.241157
752.176334	11363.388393
752.504411	11310.118520
752.832440	11188.104953
753.160421	11289.447269
753.488356	11215.806093
753.816243	11146.132306
754.144082	11020.920127
754.471875	10984.855712
754.799620	10958.974428
755.127318	10943.919023
755.454969	10941.809300
755.782572	10924.261043
756.110129	10946.827768
756.437638	10880.725638
756.765100	10887.647143
757.092515	10910.297047
757.419882	10942.353744
757.747203	10952.562081
758.074477	11014.359065
758.401703	11011.473005
758.728882	11162.301807
759.056014	11192.271467
759.383099	11333.905205
759.710138	11437.642068
760.037129	11560.920965
760.364073	11623.481684
760.690970	11644.916671
761.017820	11655.535861
761.344623	11825.160606
761.671379	12106.285591
761.998088	12588.981113
762.324751	13784.367239
762.651366	16181.599731
762.977935	19774.354460
763.304456	22511.554805
763.630931	23864.686197
763.957359	23250.179625
764.283740	21561.814023
764.610074	19778.276477
764.936362	17593.843693
765.262602	16020.945719
765.588796	14412.578188
765.914943	13320.006394
766.241044	12342.135974
766.567097	11661.665904
766.893104	11066.202291
767.219064	10678.066213
767.544978	10272.649059
767.870845	9946.597310
768.196665	9758.214432
768.522438	9571.490094
768.848165	9413.515456
769.173846	9237.007015
769.499479	9130.111869
769.825066	8999.845933
770.150607	8811.543713
770.476101	8750.165144
770.801548	8652.787696
771.126949	8526.819344
771.452303	8439.080582
771.777611	8276.510932
772.102872	8272.790560
772.428087	8155.891244
772.753256	8027.674537
773.078378	7960.801111
773.403453	7814.950447
773.728482	7707.717543
774.053465	7649.340982
774.378401	7564.760503
774.703291	7457.663710
775.028135	7365.060234
775.352932	7340.139290
775.677683	7251.775425
776.002388	7160.439800
776.327046	7172.531007
776.651658	7094.183915
776.976224	7007.176120
777.300743	7007.763414
777.625216	6938.019051
777.949643	6898.884573
778.274024	6918.575320
778.598359	6851.074270
778.922647	6863.087340
779.246889	6819.829199
779.571086	6825.487894
779.895236	6835.950809
780.219339	6845.299629
780.543397	6849.675350
780.867409	6917.592295
781.191374	6930.540499
781.515294	6904.054277
781.839167	6985.806669
782.162995	6969.521221
782.486776	6920.453150
782.810511	6891.895014
783.134201	6820.595454
783.457844	6814.561193
783.781441	6776.898733
784.104993	6724.090126
784.428498	6706.062959
784.751958	6695.347987
785.075372	6669.338154
785.398739	6623.526668
785.722061	6660.881618
786.045337	6663.800446
786.368568	6786.255114
786.691752	6794.656197
787.014891	7043.943775
787.337983	7314.217677
787.661030	7803.741442
787.984031	8355.384825
788.306987	8738.865398
788.629897	8974.151172
788.952760	8990.698759
789.275579	8841.425152
789.598351	8514.952468
789.921078	8219.354330
790.243759	7860.590534
790.566395	7602.803570
790.888984	7381.466669
791.211529	7192.680499
791.534027	7000.047928
791.856480	6822.788356
792.178888	6748.809423
792.501249	6669.454100
792.823566	6536.909563
793.145836	6525.584611
793.468062	6500.809860
793.790241	6450.204237
794.112375	6498.879098
794.434464	6633.747607
794.756507	6665.511918
795.078505	6782.070957
795.400457	7028.490118
795.722364	7323.006929
796.044226	7581.958399
796.366042	7850.339348
796.687812	7828.669948
797.009538	7916.806961
797.331218	7842.238213
797.652852	7780.882330
797.974442	7649.963564
798.295986	7578.600991
798.617484	7415.063439
798.938938	7298.882487
799.260346	7204.668363
799.581709	7034.032867
799.903026	6960.946218
800.224299	6871.720316
800.545526	6722.527368
800.866708	6636.172403
801.187845	6575.461787
801.508936	6477.965871
801.829983	6449.682478
802.150984	6315.169370
802.471940	6275.555983
802.792851	6262.411174
803.113717	6235.965281
803.434538	6208.095262
803.755314	6153.449154
804.076045	6154.185163
804.396731	6106.616835
804.717372	6131.164734
805.037967	6126.206759
805.358518	6164.146483
805.679024	6240.683801
805.999485	6244.290747
806.319901	6277.617815
806.640272	6303.872144
806.960598	6384.054216
807.280879	6383.547580
807.601115	6453.107942
807.921306	6402.429222
808.241453	6418.775163
808.561554	6444.313649
808.881611	6412.093114
809.201623	6424.196924
809.521590	6379.113886
809.841513	6363.067893
810.161390	6400.795888
810.481223	6285.789525
810.801011	6277.791734
811.120755	6259.426811
811.440453	6188.066758
811.760107	6159.848899
812.079716	6129.604497
812.399281	6080.271765
812.718801	6068.813222
813.038276	6031.866606
813.357707	5969.441998
813.677093	6015.843298
813.996434	5925.294093
814.315731	5963.261543
814.634983	5956.796263
814.954191	5962.187777
815.273354	6055.353342
815.592473	6107.229335
815.911547	6209.809254
816.230577	6285.918074
816.549562	6417.325832
816.868502	6509.455439
817.187399	6589.871925
817.506250	6721.922429
817.825058	6749.792448
818.143821	6978.121430
818.462539	7199.397837
818.781213	7494.300295
819.099843	7942.542051
819.418429	8776.739587
819.736970	9593.227549
820.055466	10609.960224
820.373919	11859.984897
820.692327	13733.033170
821.010691	16747.864981
821.329011	23471.864365
821.647286	33809.017508
821.965517	46332.768611
822.283704	54166.825032
822.601847	57983.376744
822.919945	55629.213351
823.237999	51412.925864
823.556010	45522.083017
823.873976	39419.095813
824.191897	33523.670556
824.509775	29129.904208
824.827609	24930.698671
825.145398	22402.413824
825.463144	20933.585431
825.780845	20844.288952
826.098502	21973.903144
826.416116	24995.361552
826.733685	28419.608151
827.051210	30115.865680
827.368692	29269.478634
827.686129	26063.859315
828.003522	22380.124362
828.320872	18948.310990
828.638177	16285.540761
828.955439	14274.148103
829.272656	12566.840365
829.589830	11224.073586
829.906960	10032.675012
830.224046	9136.317529
830.541088	8421.318076
830.858086	7971.571536
831.175041	7599.962880
831.491952	7455.503575
831.808819	7449.998635
832.125642	7736.121925
832.442421	8402.043224
832.759157	9772.921998
833.075849	12131.423305
833.392497	15037.028435
833.709101	17305.260320
834.025662	17661.979928
834.342179	16424.321206
834.658653	14533.754923
834.975083	12742.075914
835.291469	11222.500746
835.607811	9992.270164
835.924110	9136.569587
836.240366	8334.897576
836.556578	7578.182575
836.872746	6976.873744
837.188871	6496.199725
837.504952	6096.615186
837.820990	5795.857427
838.136984	5580.827009
838.452935	5477.218695
838.768842	5458.757990
839.084706	5725.306479
839.400526	6625.288551
839.716303	8019.689349
840.032037	9176.014095
840.347727	9387.903873
840.663373	8645.304103
840.978977	7679.035899
841.294537	6898.433390
841.610054	6330.197049
841.925527	5915.456281
842.240957	5587.080561
842.556344	5277.004229
842.871687	5017.226009
843.186987	4759.504581
843.502244	4540.597516
843.817458	4377.712794
844.132629	4251.999020
844.447756	4162.493334
844.762840	4088.295111
845.077881	4018.263402
845.392879	3960.244762
845.707833	3915.048297
846.022745	3874.756875
846.337613	3847.834593
846.652438	3809.242040
846.967221	3793.269144
847.281960	3763.314608
847.596656	3748.120570
847.911309	3726.811612
848.225919	3708.512224
848.540485	3688.105633
848.855009	3680.740507
849.169490	3659.597908
849.483928	3644.633243
849.798323	3641.525372
850.112675	3626.162455
850.426984	3632.191675
850.741251	3614.802215
851.055474	3609.997996
851.369654	3618.078965
851.683792	3612.813480
851.997887	3615.749952
852.311938	3617.721043
852.625947	3625.776807
852.939914	3616.901856
853.253837	3624.718165
853.567718	3620.680201
853.881555	3610.739045
854.195350	3626.061632
854.509103	3624.335037
854.822812	3622.245479
855.136479	3613.856999
855.450103	3621.937968
855.763685	3609.728294
856.077224	3610.555043
856.390720	3626.558186
856.704173	3642.929333
857.017584	3656.548010
857.330953	3665.836336
857.644278	3684.710416
857.957561	3688.866847
858.270802	3691.760470
858.584000	3698.051830
858.897155	3692.791386
859.210268	3677.395702
859.523339	3653.714882
859.836367	3660.565810
860.149352	3650.541475
860.462295	3644.986124
860.775195	3633.348620
861.088054	3624.985346
861.400869	3626.928711
861.713642	3622.585757
862.026373	3631.042292
862.339062	3637.220226
862.651708	3657.256292
862.964312	3684.120601
863.276873	3693.156869
863.589392	3741.393150
863.901869	3780.757000
864.214303	3827.790965
864.526696	3856.013865
864.839045	3900.612953
865.151353	3921.838731
865.463619	3931.729475
865.775842	3939.916309
866.088023	3955.735450
866.400162	3949.738997
866.712258	3955.831232
867.024313	3960.305256
867.336325	3955.523721
867.648296	3964.418837
867.960224	3962.258703
868.272110	3972.605671
868.583954	3974.390240
868.895755	3986.229389
869.207515	3978.536589
869.519233	4015.886497
869.830909	4025.900750
870.142542	4049.256415
870.454134	4061.970205
870.765684	4090.666974
871.077191	4123.840287
871.388657	4139.054489
871.700081	4176.603523
872.011463	4212.307495
872.322803	4243.171960
872.634101	4272.108183
872.945357	4309.914316
873.256571	4357.868292
873.567744	4387.275863
873.878874	4405.058533
874.189963	4437.947021
874.501010	4454.633240
874.812015	4449.960091
875.122979	4488.222448
875.433900	4491.189167
875.744780	4501.402545
876.055618	4517.889639
876.366415	4524.362480
876.677169	4535.357237
876.987882	4577.103032
877.298554	4621.298827
877.609183	4683.209238
877.919771	4773.362713
878.230317	4890.035177
878.540822	5062.573709
878.851285	5330.737888
879.161707	5705.736719
879.472087	6316.535522
879.782425	7281.891278
880.092722	9014.747583
880.402977	11687.736231
880.713191	14925.341672
881.023363	18304.722002
881.333494	20546.203004
881.643583	21923.322727
881.953631	22197.143080
882.263637	21636.715487
882.573602	20446.257088
882.883526	19118.878431
883.193408	17621.602806
883.503248	16131.573841
883.813048	14751.842800
884.122806	13475.987256
884.432522	12109.562341
884.742197	10982.236833
885.051831	9972.362647
885.361424	9038.125934
885.670975	8264.880990
885.980485	7605.898839
886.289954	7072.743887
886.599382	6626.778212
886.908768	6275.336693
887.218113	5935.709117
887.527417	5663.133928
887.836680	5409.062295
888.145901	5211.237336
888.455082	5050.795053
888.764221	4910.139299
889.073319	4779.165081
889.382376	4711.439699
889.691392	4650.287983
890.000366	4621.366883
890.309300	4606.268627
890.618193	4607.317187
890.927044	4588.430504
891.235855	4606.997074
891.544625	4625.719919
891.853353	4675.889482
892.162041	4768.949182
892.470687	4918.999127
892.779293	5122.775168
893.087858	5427.772537
893.396381	5894.560698
893.704864	6540.917280
894.013306	7510.273191
894.321707	8592.457688
894.630068	9445.219272
894.938387	9773.610116
895.246665	9659.112909
895.554903	9164.363988
895.863100	8535.127165
896.171256	8030.805093
896.479371	7555.515027
896.787446	7103.439473
897.095480	6706.229318
897.403473	6411.505820
897.711425	6116.837774
898.019336	5878.229881
898.327207	5622.865191
898.635038	5402.997787
898.942827	5178.116955
899.250576	4994.250951
899.558284	4812.948373
899.865952	4697.765570
900.173579	4560.109302
900.481165	4459.071976
900.788711	4369.294067
901.096216	4300.600784
901.403681	4234.647369
901.711105	4210.835478
902.018489	4185.738094
902.325832	4232.474631
902.633135	4315.779699
902.940397	4568.691867
903.247619	5148.742152
903.554800	6289.177180
903.861941	7958.492262
904.169041	9451.714799
904.476101	10250.659546
904.783121	10108.350293
905.090100	9513.642853
905.397039	8770.188607
905.703938	8079.414419
906.010796	7440.039836
906.317614	6942.140194
906.624391	6454.229598
906.931129	6059.892901
907.237826	5693.718609
907.544483	5347.262790
907.851099	5001.631200
908.157675	4679.423331
908.464211	4367.922873
908.770707	4138.893172
909.077163	3948.882001
909.383578	3804.853715
909.689954	3689.749049
909.996289	3617.443780
910.302584	3559.445305
910.608839	3522.347454
910.915054	3496.907271
911.221229	3483.001248
911.527363	3488.501147
911.833458	3497.252590
912.139513	3516.754293
912.445527	3541.014846
912.751502	3611.916155
913.057436	3689.091179
913.363331	3801.022438
913.669186	3964.111327
913.975000	4173.147812
914.280775	4519.132283
914.586510	4989.484540
914.892205	5649.535416
915.197859	6532.513677
915.503475	7604.237778
915.809050	8615.137839
916.114585	9294.685377
916.420081	9634.050813
916.725536	9685.243730
917.030952	9331.069905
917.336328	8987.298501
917.641665	8628.254921
917.946961	8203.192390
918.252218	7822.237435
918.557435	7354.007504
918.862612	6969.463248
919.167750	6638.130891
919.472848	6250.393063
919.777906	5908.318007
920.082925	5574.986833
920.387904	5226.466662
920.692843	4974.943332
920.997743	4740.138988
921.302603	4520.032129
921.607423	4366.909602
921.912204	4214.328998
922.216946	4105.306484
922.521647	3991.003362
922.826310	3892.852097
923.130932	3808.725321
923.435516	3717.140159
923.740059	3654.919718
924.044564	3580.527410
924.349028	3526.624873
924.653454	3468.757468
924.957840	3405.672468
925.262186	3364.526571
925.566493	3306.061789
925.870761	3254.271495
926.174989	3223.384345
926.479178	3190.185827
926.783328	3146.990700
927.087438	3122.936834
927.391509	3088.780497
927.695541	3063.783935
927.999533	3039.848537
928.303486	3018.995804
928.607400	3004.106756
928.911275	2993.578306
929.215110	2977.560040
929.518906	2969.751293
929.822663	2965.655355
930.126381	2962.784418
930.430060	2968.886735
930.733699	2973.443938
931.037299	2977.265132
931.340861	2976.239258
931.644383	2988.322903
931.947866	2987.337358
932.251309	2981.935761
932.554714	2980.355360
932.858080	2977.063486
933.161407	2969.037969
933.464694	2961.541773
933.767943	2956.971968
934.071153	2951.366204
934.374323	2947.030812
934.677455	2942.556788
934.980548	2931.834254
935.283602	2926.551125
935.586617	2920.111051
935.889593	2928.771753
936.192530	2932.156888
936.495428	2944.114505
936.798287	2962.151753
937.101108	2986.553458
937.403890	3029.597350
937.706632	3079.668611
938.009336	3153.239210
938.312002	3220.231104
938.614628	3280.551030
938.917216	3334.481294
939.219765	3365.834750
939.522275	3395.680902
939.824747	3399.797004
940.127179	3400.974113
940.429573	3398.526633
940.731929	3396.883217
941.034246	3388.388873
941.336524	3374.218189
941.638763	3359.906353
941.940964	3350.786906
942.243126	3313.310968
942.545250	3291.875982
942.847335	3261.298863
943.149381	3227.631517
943.451389	3196.411652
943.753359	3164.511230
944.055290	3141.652118
944.357182	3119.251751
944.659036	3102.522682
944.960851	3094.010694
945.262628	3081.513673
945.564367	3079.280442
945.866067	3076.051583
946.167729	3073.178125
946.469352	3072.454720
946.770937	3068.300809
947.072484	3055.274468
947.373992	3056.814540
947.675462	3049.678787
947.976893	3035.757640
948.278286	3026.940662
948.579641	3019.630989
948.880958	3018.935310
949.182236	3018.592512
949.483476	3011.890298
949.784678	3012.437263
950.085841	3009.775533
950.386967	3020.913963
950.688054	3035.009029
950.989103	3048.073179
951.290114	3069.687126
951.591087	3094.126640
951.892021	3118.533387
952.192917	3145.324599
952.493776	3170.646314
952.794596	3180.405988
953.095378	3186.034437
953.396122	3179.493539
953.696828	3178.233251
953.997496	3169.365861
954.298126	3150.474137
954.598718	3134.808752
954.899272	3115.191102
955.199788	3087.401741
955.500266	3058.654561
955.800706	3027.711959
956.101108	2992.431444
956.401472	2962.938173
956.701798	2934.637135
957.002087	2898.224881
957.302337	2871.882332
957.602550	2848.201512
957.902724	2818.337716
958.202861	2795.324849
958.502960	2779.052004
958.803022	2757.959817
959.103045	2738.052300
959.403031	2720.985474
959.702979	2711.059442
960.002889	2701.272042
960.302762	2685.775535
960.602596	2676.567867
960.902393	2665.784839
961.202153	2661.532626
961.501875	2655.374856
961.801559	2648.060142
962.101205	2642.131745
962.400814	2637.723256
962.700385	2630.403501
962.999918	2623.870165
963.299414	2616.358846
963.598873	2616.794906
963.898293	2610.780809
964.197677	2609.916252
964.497022	2610.178392
964.796331	2605.719491
965.095601	2602.651949
965.394835	2605.091867
965.694030	2599.838985
965.993189	2600.365786
966.292309	2599.700353
966.591393	2596.763881
966.890439	2597.890579
967.189447	2599.153388
967.488419	2599.705394
967.787353	2597.590630
968.086249	2600.887545
968.385108	2603.871908
968.683930	2602.220930
968.982714	2607.584718
969.281462	2610.266612
969.580172	2614.849021
969.878844	2619.580143
970.177480	2628.359313
970.476078	2637.196456
970.774639	2643.606283
971.073162	2649.779176
971.371649	2653.638179
971.670098	2658.906185
971.968510	2664.945487
972.266885	2668.950684
972.565223	2675.095850
972.863524	2675.731036
973.161788	2680.235307
973.460014	2678.400327
973.758204	2683.156655
974.056356	2684.527849
974.354471	2687.557582
974.652550	2688.699404
974.950591	2686.226718
975.248595	2688.449867
975.546563	2686.090607
975.844493	2680.620955
976.142386	2675.365552
976.440243	2671.874553
976.738062	2666.765343
977.035845	2663.397853
977.333590	2656.259579
977.631299	2650.749598
977.928971	2646.134421
978.226606	2638.489512
978.524204	2638.411374
978.821765	2633.274438
979.119290	2635.321146
979.416777	2634.081022
979.714228	2634.731331
980.011642	2637.997999
980.309020	2644.221303
980.606360	2654.119609
980.903664	2673.129800
981.200931	2704.521065
981.498162	2741.339132
981.795356	2802.195942
982.092513	2875.900131
982.389633	2965.584779
982.686717	3059.151115
982.983764	3130.375057
983.280775	3184.569981
983.577749	3198.218905
983.874686	3194.657330
984.171587	3169.766633
984.468451	3131.547125
984.765279	3097.985643
985.062070	3060.658420
985.358824	3021.576875
985.655543	2971.445120
985.952224	2921.394024
986.248869	2864.691126
986.545478	2814.027530
986.842050	2764.268821
987.138586	2718.608570
987.435086	2682.014834
987.731549	2653.665905
988.027975	2631.953656
988.324366	2609.696961
988.620719	2597.348655
988.917037	2586.384145
989.213318	2577.020202
989.509563	2571.248081
989.805772	2565.067626
990.101944	2563.157029
990.398080	2562.431103
990.694180	2557.808365
990.990244	2559.703839
991.286271	2559.129147
991.582262	2561.216185
991.878217	2562.335321
992.174136	2563.832544
992.470019	2567.321022
992.765865	2568.921588
993.061676	2572.069789
993.357450	2581.431212
993.653188	2583.712334
993.948890	2600.625405
994.244556	2618.087962
994.540186	2637.882053
994.835780	2664.343069
995.131337	2697.367668
995.426859	2730.402349
995.722345	2773.647887
996.017795	2819.015751
996.313208	2855.347347
996.608586	2879.870040
996.903928	2897.977865
997.199234	2901.234450
997.494504	2902.126734
997.789738	2888.873541
998.084936	2871.158926
998.380099	2844.098012
998.675225	2818.796461
998.970316	2792.774025
999.265371	2758.768922
999.560390	2728.136350
999.855373	2697.798687
1000.150320	2673.323885
1000.445232	2648.231541
1000.740108	2628.485342
1001.034948	2609.974225
1001.329752	2597.633480
1001.624521	2585.262489
1001.919254	2575.006261
1002.213951	2569.932340
1002.508613	2559.751730
1002.803239	2554.277037
1003.097829	2547.557178
1003.392384	2544.242620
1003.686903	2539.327495
1003.981386	2537.842875
1004.275834	2532.504293
1004.570246	2532.257277
1004.864623	2528.582275
1005.158964	2525.703777
1005.453270	2524.519105
1005.747540	2524.793848
1006.041775	2525.567665
1006.335974	2522.341327
1006.630138	2518.694052
1006.924266	2519.142715
1007.218359	2515.250944
1007.512416	2516.042405
1007.806438	2513.443690
1008.100425	2515.797909
1008.394376	2510.668535
1008.688292	2520.098013
1008.982172	2514.409071
1009.276017	2514.950995
1009.569827	2515.573578
1009.863602	2517.983249
1010.157341	2511.510408
1010.451045	2513.035357
1010.744714	2512.720285
1011.038347	2511.187774
1011.331945	2511.709533
1011.625508	2509.919924
1011.919036	2509.022598
1012.212528	2508.430263
1012.505986	2508.926817
1012.799408	2507.772392
1013.092795	2507.888339
1013.386147	2507.437156
1013.679464	2506.701147
1013.972745	2504.949346
1014.265992	2506.701147
1014.559204	2505.859274
1014.852380	2506.582680
1015.145521	2504.440190
1015.438628	2508.092506
1015.731699	2505.753410
1016.024736	2507.845489
1016.317737	2507.842968
1016.610703	2508.228617
1016.903635	2511.454955
1017.196531	2511.533093
1017.489393	2512.561488
1017.782219	2513.998217
1018.075011	2514.348578
1018.367768	2516.289422
1018.660490	2518.613394
1018.953177	2518.613394
1019.245829	2518.613394
