Dividing Wavelength (nm)	Counts (n)	Blue Motor Position (mm): 19.500000	Red Motor Position (mm): 0.000000	
326.493990	2070.016236
326.888308	2070.016236
327.282561	2070.016236
327.676750	2042.357946
328.070874	2044.951619
328.464933	2049.292053
328.858929	2056.747919
329.252859	2069.176884
329.646726	2082.651888
330.040528	2097.510689
330.434265	2113.347474
330.827938	2139.493419
331.221547	2155.539411
331.615091	2174.479026
332.008571	2197.365865
332.401986	2218.059801
332.795338	2239.139386
333.188625	2259.535895
333.581847	2275.168513
333.975006	2293.752726
334.368100	2310.945582
334.761129	2328.977789
335.154095	2345.200222
335.546996	2391.362068
335.939833	2479.872126
336.332606	2489.616677
336.725315	2502.262411
337.117960	2513.912518
337.510540	2522.863086
337.903056	2530.802904
338.295508	2535.647452
338.687896	2544.799667
339.080220	2548.651109
339.472480	2553.362067
339.864676	2555.496996
340.256807	2562.894889
340.648875	2561.334652
341.040879	2562.705846
341.432818	2562.501679
341.824694	2564.750034
342.216506	2566.166598
342.608253	2567.174829
342.999937	2565.841443
343.391557	2561.652245
343.783113	2563.525033
344.174605	2559.691236
344.566033	2556.830381
344.957397	2557.536142
345.348697	2554.760987
345.739934	2554.390463
346.131106	2554.387942
346.522215	2549.061963
346.913260	2552.792417
347.304241	2547.393341
347.695159	2544.711447
348.086012	2547.295038
348.476802	2541.996786
348.867528	2537.522762
349.258191	2535.138296
349.648789	2537.071578
350.039324	2530.462626
350.429796	2534.659386
350.820203	2536.005374
351.210548	2535.166022
351.600828	2532.753830
351.991045	2533.918337
352.381198	2529.948428
352.771288	2535.231557
353.161314	2532.249715
353.551276	2527.120341
353.941175	2530.049251
354.331010	2531.294416
354.720782	2534.432534
355.110490	2535.455889
355.500135	2532.579910
355.889717	2531.564118
356.279235	2534.525796
356.668689	2535.072761
357.058080	2533.303316
357.447408	2534.450178
357.836672	2533.963707
358.225873	2532.146371
358.615010	2533.797349
359.004084	2536.436393
359.393095	2539.221631
359.782043	2534.188038
360.170927	2538.326826
360.559748	2537.248019
360.948505	2539.602238
361.337199	2539.761034
361.725830	2537.837834
362.114398	2540.681045
362.502903	2539.420756
362.891344	2539.060314
363.279722	2539.907228
363.668037	2541.958977
364.056289	2542.798329
364.444478	2544.275387
364.832603	2543.163813
365.220665	2543.178936
365.608665	2539.803884
365.996601	2542.702547
366.384474	2541.885880
366.772284	2544.116591
367.160031	2541.923689
367.547715	2545.386962
367.935336	2543.899821
368.322893	2540.986034
368.710388	2541.023843
369.097820	2543.456200
369.485189	2539.098122
369.872495	2546.773279
370.259738	2545.283618
370.646918	2547.224462
371.034035	2544.303114
371.421090	2546.223793
371.808081	2547.579864
372.195010	2545.150027
372.581875	2547.292518
372.968678	2548.940975
373.355418	2547.174051
373.742096	2549.147662
374.128710	2550.526418
374.515262	2549.152704
374.901751	2549.203115
375.288177	2551.955585
375.674540	2548.966181
376.060841	2552.217725
376.447079	2547.960471
376.833254	2550.944834
377.219367	2548.593136
377.605417	2548.817467
377.991404	2551.300235
378.377329	2554.440874
378.763191	2550.690256
379.148991	2553.551110
379.534727	2553.389793
379.920402	2553.835936
380.306013	2551.572457
380.691563	2554.040102
381.077049	2551.464073
381.462474	2549.911397
381.847835	2553.397355
382.233134	2554.508930
382.618371	2553.830894
383.003545	2556.245607
383.388657	2551.010369
383.773706	2556.084290
384.158693	2553.127653
384.543618	2556.399362
384.928480	2554.818961
385.313280	2554.884496
385.698017	2554.675288
386.082692	2555.401214
386.467305	2557.324414
386.851856	2558.496482
387.236344	2557.672254
387.620770	2555.035730
388.005133	2555.086142
388.389435	2553.656975
388.773674	2548.502395
389.157851	2557.543704
389.541965	2556.406924
389.926018	2559.245094
390.310008	2557.183262
390.693936	2560.069322
391.077802	2557.309291
391.461606	2558.667882
391.845348	2559.161915
392.229027	2559.419013
392.612645	2559.971020
392.996200	2559.277861
393.379694	2561.909343
393.763125	2562.783984
394.146494	2560.391956
394.529801	2561.811041
394.913047	2560.704508
395.296230	2561.178376
395.679351	2563.383881
396.062410	2560.659137
396.445408	2562.204251
396.828343	2561.463201
397.211217	2562.937739
397.594028	2560.691905
397.976778	2561.846329
398.359466	2562.196689
398.742092	2561.584189
399.124656	2562.869683
399.507158	2562.267265
399.889598	2567.462174
400.271977	2563.744323
400.654294	2564.407235
401.036549	2563.943449
401.418742	2566.068295
401.800874	2564.319015
402.182944	2562.443706
402.564952	2565.196176
402.946898	2564.916392
403.328783	2567.583162
403.710606	2567.202555
404.092367	2567.353790
404.474067	2566.360682
404.855705	2566.237174
405.237282	2567.101732
405.618797	2565.564180
406.000250	2567.938563
406.381642	2567.474777
406.762972	2564.056875
407.144240	2565.231464
407.525447	2567.797411
407.906593	2564.162739
408.287677	2568.951835
408.668700	2569.372772
409.049661	2566.554767
409.430560	2567.525189
409.811399	2569.849161
410.192176	2570.698595
410.572891	2569.443348
410.953545	2570.348235
411.334138	2568.818245
411.714669	2568.944274
412.095139	2570.887638
412.475547	2568.470405
412.855894	2569.166084
413.236180	2567.991496
413.616405	2572.682289
413.996568	2569.808832
414.376670	2569.312278
414.756711	2569.178687
415.136691	2572.576425
415.516609	2574.855027
415.896466	2572.712536
416.276262	2569.854202
416.655997	2572.793195
417.035670	2572.362176
417.415283	2574.141703
417.794834	2570.943091
418.174324	2571.303534
418.553753	2572.909141
418.933121	2572.246229
419.312428	2572.495767
419.691674	2572.445355
420.070859	2570.791857
420.449983	2572.984758
420.829045	2571.855540
421.208047	2570.565005
421.586988	2575.971642
421.965867	2572.311764
422.344686	2574.726477
422.723444	2570.600293
423.102141	2575.520459
423.480777	2573.998030
423.859352	2574.590366
424.237866	2575.717064
424.616319	2572.667166
424.994712	2576.049780
425.373044	2573.370407
425.751314	2572.452917
426.129524	2568.135168
426.507673	2571.855540
426.885762	2567.971331
427.263789	2574.071127
427.641756	2573.824111
428.019662	2572.021898
428.397508	2575.069276
428.775292	2575.288566
429.153016	2577.123546
429.530679	2571.517783
429.908282	2576.006930
430.285824	2573.708164
430.663305	2575.769996
431.040726	2575.160016
431.418086	2577.242013
431.795385	2576.642116
432.172624	2577.045408
432.549802	2572.324367
432.926920	2576.710171
433.303977	2577.796540
433.680974	2577.110943
434.057910	2578.325861
434.434786	2580.546489
434.811601	2576.435428
435.188355	2576.624472
435.565050	2575.850654
435.941683	2576.390058
436.318257	2578.920717
436.694770	2579.255954
437.071222	2577.988104
437.447614	2579.119843
437.823946	2577.821746
438.200218	2579.933989
438.576429	2579.797878
438.952580	2575.109605
439.328670	2579.830645
439.704700	2578.590522
440.080670	2578.272929
440.456580	2575.086920
440.832429	2579.117322
441.208218	2576.531210
441.583947	2578.479616
441.959616	2577.670511
442.335224	2578.714030
442.710773	2580.251582
443.086261	2579.346695
443.461689	2578.739236
443.837057	2581.637899
444.212365	2580.178485
444.587612	2575.210428
444.962800	2580.851479
445.337927	2576.574060
445.712995	2574.106415
446.088002	2583.220821
446.462949	2579.971798
446.837837	2577.186560
447.212664	2581.413568
447.587431	2583.185533
447.962139	2579.031622
448.336786	2582.167220
448.711374	2584.276943
449.085901	2585.953127
449.460369	2581.148907
449.834776	2581.826942
450.209124	2581.610173
450.583412	2584.776017
450.957640	2583.477920
451.331808	2583.256109
451.705917	2581.842066
452.079965	2582.966243
452.453954	2583.248548
452.827883	2581.590008
453.201752	2580.365008
453.575562	2584.352560
453.949311	2583.389700
454.323001	2584.070256
454.696632	2584.922211
455.070202	2586.051429
455.443713	2585.761563
455.817164	2584.924731
456.190556	2582.946078
456.563888	2587.626790
456.937160	2584.304669
457.310373	2586.384145
457.683526	2584.075297
458.056619	2584.619742
458.429653	2586.749629
458.802628	2589.991091
459.175542	2587.848601
459.548398	2586.734506
459.921194	2588.461101
460.293930	2589.355906
460.666607	2591.508478
461.039224	2591.561410
461.411782	2589.418920
461.784280	2592.922522
462.156719	2589.514702
462.529099	2590.744743
462.901419	2595.740527
463.273680	2588.219125
463.645882	2586.845411
464.018024	2592.118458
464.390106	2589.156780
464.762130	2594.313880
465.134094	2593.693818
465.505999	2598.780343
465.877845	2601.505086
466.249631	2603.687906
466.621358	2603.052721
466.993026	2600.728749
467.364634	2604.963318
467.736184	2598.734972
468.107674	2600.456526
468.479105	2599.833944
468.850477	2599.899479
469.221790	2597.746906
469.593043	2598.893769
469.964238	2601.757144
470.335373	2601.885693
470.706449	2603.095570
471.077467	2600.070878
471.448425	2608.398864
471.819324	2610.165789
472.190164	2612.116715
472.560945	2609.023967
472.931667	2606.238730
473.302330	2605.180087
473.672934	2608.464399
474.043479	2607.473813
474.413965	2608.789554
474.784393	2606.914244
475.154761	2611.272322
475.525070	2610.188474
475.895321	2615.942951
476.265513	2613.692076
476.635645	2614.037395
477.005719	2615.511932
477.375734	2619.532252
477.745691	2616.442025
478.115588	2622.879579
478.485427	2624.202882
478.855207	2629.251597
479.224928	2629.024745
479.594591	2634.416259
479.964194	2633.692854
480.333739	2634.126393
480.703226	2635.444655
481.072653	2642.598052
481.442022	2642.013278
481.811333	2641.746097
482.180584	2640.263998
482.549777	2643.591159
482.918912	2642.560243
483.287988	2649.164155
483.657005	2649.834628
484.025964	2648.410502
484.394864	2652.357726
484.763706	2654.906029
485.132489	2651.770431
485.501213	2657.391318
485.869879	2658.240752
486.238487	2659.604384
486.607036	2661.913233
486.975527	2667.445899
487.343959	2664.643018
487.712333	2670.919254
488.080648	2673.091992
488.448905	2678.365038
488.817104	2679.685821
489.185244	2685.188240
489.553326	2695.542770
489.921350	2704.785726
490.289315	2721.512274
490.657222	2728.907647
491.025070	2737.303689
491.392861	2741.679410
491.760593	2745.198136
492.128267	2745.520769
492.495883	2747.985894
492.863440	2751.784403
493.230939	2755.809764
493.598380	2759.978799
493.965763	2767.056579
494.333088	2773.768875
494.700354	2778.169802
495.067563	2789.835032
495.434713	2799.375416
495.801805	2812.709268
496.168839	2823.025989
496.535815	2833.239367
496.902733	2847.798219
497.269593	2861.185003
497.636395	2878.929865
498.003139	2895.134654
498.369825	2907.311561
498.736453	2929.830395
499.103023	2948.855710
499.469535	2969.766416
499.835989	2991.030003
500.202385	3007.391068
500.568723	3027.308667
500.935003	3059.045251
501.301226	3078.879670
501.667390	3117.545320
502.033497	3153.798778
502.399546	3175.596727
502.765537	3195.776466
503.131470	3235.495717
503.497345	3277.549023
503.863163	3290.671146
504.228923	3338.942715
504.594625	3388.661095
504.960269	3411.926020
505.325856	3471.663693
505.691385	3503.070081
506.056856	3557.194430
506.422270	3613.418418
506.787625	3651.106085
507.152924	3710.569015
507.518164	3766.321656
507.883347	3805.637615
508.248472	3867.278323
508.613540	3945.814459
508.978550	4016.811549
509.343503	4071.492945
509.708398	4149.277949
510.073236	4240.658945
510.438016	4309.831137
510.802738	4361.860886
511.167403	4462.268068
511.532010	4548.522210
511.896561	4651.860823
512.261053	4773.123258
512.625488	4839.931149
512.989866	4916.985186
513.354186	5004.371067
513.718449	5078.458385
514.082655	5231.192743
514.446803	5293.456034
514.810894	5437.456594
515.174927	5526.811046
515.538904	5622.464420
515.902822	5775.856649
516.266684	5849.664182
516.630488	5980.177135
516.994235	6083.351910
517.357925	6240.351085
517.721558	6380.056581
518.085133	6526.010588
518.448651	6653.740824
518.812112	6759.494149
519.175516	6891.484160
519.538863	7061.156795
519.902152	7191.238729
520.265385	7379.908953
520.628560	7519.238883
520.991678	7637.766493
521.354739	7798.901934
521.717743	7982.485634
522.080690	8113.744677
522.443580	8344.929472
522.806413	8489.280392
523.169189	8651.053539
523.531908	8827.375457
523.894569	8952.401113
524.257174	9127.556004
524.619722	9341.739507
524.982213	9523.833546
525.344647	9690.098361
525.707025	9868.487152
526.069345	10107.846178
526.431608	10252.895297
526.793815	10487.767696
527.155964	10569.439430
527.518057	10782.483632
527.880093	10928.813205
528.242072	11225.230531
528.603995	11355.680469
528.965860	11506.007676
529.327669	11729.986142
529.689421	11926.034094
530.051117	12096.800660
530.412755	12335.592556
530.774337	12552.783108
531.135862	12728.921023
531.497331	12970.961943
531.858743	13161.610820
532.220098	13459.505203
532.581396	13576.719592
532.942638	13721.650244
533.303824	13972.273728
533.664953	14195.644735
534.026025	14300.256239
534.387040	14667.234595
534.747999	14890.625766
535.108902	15199.361151
535.469748	15196.769998
535.830537	15482.502598
536.191270	15764.779487
536.551947	15892.492078
536.912567	16189.022830
537.273131	16456.231710
537.633638	16536.328083
537.994089	16814.995506
538.354483	16946.410825
538.714821	17391.816932
539.075103	17731.109271
539.435328	17906.559069
539.795497	18047.313125
540.155609	18322.396288
540.515665	18774.207181
540.875665	18717.403459
541.235609	19039.129898
541.595496	19339.617955
541.955328	19792.167377
542.315102	19797.702564
542.674821	19991.429065
543.034483	20166.888945
543.394090	20401.920140
543.753640	20618.052050
544.113134	21326.946665
544.472571	21145.651649
544.831953	21902.434706
545.191278	21791.105864
545.550548	21879.152137
545.909761	22399.164800
546.268918	22704.326007
546.628019	23131.278970
546.987064	23103.028344
547.346053	22984.536023
547.704986	23673.354243
548.063863	23729.684097
548.422684	24068.706734
548.781449	24065.384613
549.140158	24584.620939
549.498811	24678.676267
549.857408	24599.550316
550.215949	25278.810509
550.574434	25408.705920
550.932864	25612.471879
551.291237	26238.515131
551.649555	26325.033934
552.007817	26643.861709
552.366022	26701.348507
552.724173	26967.987737
553.082267	27432.709025
553.440305	27898.988029
553.798288	27657.983067
554.156215	28120.776113
554.514086	28467.920049
554.871902	28441.350648
555.229661	28786.321847
555.587365	28806.715835
555.945014	29117.628998
556.302606	29345.287506
556.660143	29621.058786
557.017625	29995.820683
557.375050	30003.243782
557.732421	30479.693315
558.089735	30736.860216
558.446994	30860.829751
558.804197	31401.536351
559.161345	31534.096012
559.518437	31292.425617
559.875474	31675.908711
560.232455	32020.133819
560.589381	32255.596033
560.946251	32340.547037
561.303065	33021.032230
561.659825	32994.566172
562.016528	33063.052768
562.373177	32964.097438
562.729770	33632.136023
563.086307	33470.844305
563.442789	34063.429419
563.799216	34138.898013
564.155587	34277.257521
564.511904	34429.104637
564.868164	34668.834188
565.224370	35093.367397
565.580520	35055.064710
565.936615	35399.693110
566.292654	35299.812729
566.648638	35782.258714
567.004567	35914.200834
567.360441	36147.676833
567.716260	36104.136387
568.072023	36590.569925
568.427732	36696.159412
568.783385	36485.524881
569.138982	36979.900757
569.494525	37257.133971
569.850013	37103.162009
570.205445	37363.439303
570.560823	37339.614810
570.916145	37384.750781
571.271412	37729.227947
571.626625	37599.566949
571.981782	37804.363824
572.336884	37644.181161
572.691931	38038.585914
573.046923	37920.741381
573.401860	37930.574152
573.756743	38083.036288
574.111570	38338.368210
574.466342	38411.729601
574.821059	38688.625059
575.175722	38391.171776
575.530330	38609.047925
575.884882	38431.823641
576.239380	38487.425047
576.593823	38712.951147
576.948211	38785.168196
577.302544	38513.054273
577.656823	38615.243503
578.011047	38972.774736
578.365216	38950.533166
578.719330	38808.526382
579.073389	38920.497971
579.427394	39078.046632
579.781344	39095.703273
580.135239	38998.262810
580.489080	39164.376391
580.842866	38813.444028
581.196597	39347.304741
581.550273	39441.355027
581.903895	39478.982200
582.257463	39974.043672
582.610975	39566.549563
582.964434	39945.692223
583.317837	39576.891490
583.671186	39643.033949
584.024481	39987.266619
584.377721	39680.651039
584.730906	39970.910595
585.084037	40203.932890
585.437113	40030.542404
585.790135	40206.897089
586.143103	39907.384495
586.496016	40136.094083
586.848874	40318.604017
587.201679	40421.007496
587.554428	40041.897603
587.907124	40346.305157
588.259765	40209.024456
588.612352	40438.286050
588.964884	40012.260659
589.317362	40353.022495
589.669786	40430.154669
590.022155	40373.272810
590.374470	40883.119986
590.726731	40573.565414
591.078937	40022.284994
591.431090	40398.788610
591.783188	40001.081901
592.135232	39904.611860
592.487222	40211.408922
592.839157	40409.629611
593.191038	40127.841714
593.542866	39999.352785
593.894639	39475.377775
594.246358	39808.393877
594.598022	39880.663859
594.949633	39528.322493
595.301190	39550.148169
595.652692	39550.191018
596.004141	40083.895456
596.355535	39097.508006
596.706876	39142.207917
597.058162	38921.717930
597.409395	39424.247872
597.760573	39700.845901
598.111698	39362.034992
598.462768	39327.891257
598.813785	39406.687012
599.164748	39058.363446
599.515657	39350.868837
599.866511	38913.062269
600.217312	39607.166139
600.568060	38637.084302
600.918753	39445.135893
601.269392	39401.401363
601.619978	39192.329589
601.970510	39431.068553
602.320988	39568.485366
602.671412	39857.572854
603.021783	39756.391855
603.372100	39387.276050
603.722363	39514.340853
604.072572	39583.971790
604.422728	39618.521338
604.772830	39402.414635
605.122878	39599.722876
605.472872	39483.801543
605.822813	39748.089074
606.172701	39523.987101
606.522534	39862.765242
606.872314	40088.961815
607.222041	39953.569026
607.571714	40289.541765
607.921333	39832.477990
608.270899	40040.304598
608.620411	40426.525038
608.969870	40219.757072
609.319276	40258.052198
609.668627	40293.441098
610.017926	40697.391276
610.367171	40869.256813
610.716362	40918.897055
611.065500	40845.344100
611.414585	41077.872362
611.763616	41247.635739
612.112594	41160.554847
612.461518	41309.596561
612.810389	41713.161091
613.159207	41497.553461
613.507971	41495.473985
613.856682	42005.421985
614.205340	41851.523120
614.553945	42519.269317
614.902496	41890.778585
615.250994	42312.423213
615.599439	42391.284503
615.947830	42516.605067
616.296169	42518.356868
616.644454	42587.221550
616.992686	42733.967018
617.340864	43183.015359
617.688990	42697.524517
618.037063	43379.017941
618.385082	43198.640415
618.733048	43588.493007
619.080961	43482.434691
619.428821	43529.743400
619.776628	43555.032348
620.124382	43399.099377
620.472083	43518.047923
620.819731	43637.666942
621.167326	43227.919437
621.514868	43211.812950
621.862357	42695.795401
622.209793	42815.883248
622.557176	42395.536716
622.904506	42169.133456
623.251783	41837.574247
623.599007	41531.467824
623.946179	41461.335291
624.293297	41206.777187
624.640363	40673.297081
624.987376	40535.723993
625.334336	40353.304799
625.681243	39960.414913
626.028097	39866.369667
626.374899	39705.181293
626.721647	39670.107466
627.068343	39438.342938
627.414987	39142.787650
627.761577	38923.323538
628.108115	39231.564890
628.454600	38497.401490
628.801032	38726.620235
629.147412	38630.548446
629.493739	38530.398363
629.840014	38100.675286
630.186236	38517.729943
630.532405	37957.945097
630.878521	38226.426868
631.224585	38003.459154
631.570597	37678.067797
631.916556	37828.639501
632.262462	37753.196113
632.608316	37690.408542
632.954117	37561.491114
633.299866	37512.125615
633.645562	37435.341280
633.991206	36941.658564
634.336797	36534.318209
634.682336	36435.425894
635.027823	36209.163786
635.373257	36115.922605
635.718639	35774.906191
636.063968	35674.630079
636.409245	35054.583280
636.754470	35007.193913
637.099642	34776.977020
637.444762	34217.446752
637.789829	34341.451574
638.134845	33960.257165
638.479808	33872.737693
638.824719	33836.010366
639.169577	33345.168340
639.514383	33455.153714
639.859137	33067.942687
640.203839	33222.060842
640.548489	32958.784062
640.893086	32929.439506
641.237632	32654.179903
641.582125	32736.343149
641.926566	32538.601368
642.270955	32558.410583
642.615292	32506.005268
642.959576	32398.779925
643.303809	32390.741806
643.647990	32496.578310
643.992118	32453.426033
644.336195	32287.420837
644.680219	32358.818699
645.024192	32556.681467
645.368112	33079.076075
645.711981	33085.881633
646.055797	33783.267294
646.399562	33577.109308
646.743274	34431.632776
647.086935	34840.180486
647.430544	34821.243392
647.774101	34855.099781
648.117606	35168.377246
648.461059	35308.259183
648.804460	34930.699445
649.147810	34436.404228
649.491108	34132.137826
649.834354	34016.251781
650.177548	33237.771598
650.520690	32722.517784
650.863781	32693.364792
651.206820	32525.559903
651.549807	32110.960288
651.892742	31512.023320
652.235626	31434.568512
652.578458	31282.373556
652.921238	30595.420563
653.263967	30875.184437
653.606644	30566.983414
653.949269	30488.462402
654.291843	30096.767268
654.634365	30445.811720
654.976836	30003.881488
655.319255	30086.997512
655.661622	29950.167994
656.003938	29828.865230
656.346203	29652.472736
656.688416	29898.773431
657.030577	29689.114363
657.372687	29495.002213
657.714746	29643.096190
658.056753	29830.269191
658.398708	29216.579286
658.740612	29273.811506
659.082465	29498.992287
659.424266	29373.616270
659.766016	29374.959737
660.107715	29223.415091
660.449362	29305.230497
660.790958	29297.404106
661.132503	29216.632218
661.473996	29292.738518
661.815438	29378.793535
662.156829	29503.743574
662.498168	29296.872264
662.839456	29280.433062
663.180693	29412.554142
663.521879	29464.790578
663.863013	29415.039431
664.204097	29392.437418
664.545129	29807.546190
664.886110	29740.483720
665.227040	29847.169659
665.567918	29830.269191
665.908746	29895.121115
666.249522	29988.246350
666.590248	30021.117193
666.930922	30120.485897
667.271545	30144.181841
667.612118	30177.246769
667.952639	29999.268833
668.293109	30035.408864
668.633528	29892.356042
668.973896	29856.526041
669.314213	29845.475832
669.654480	29652.099691
669.994695	29620.625247
670.334859	29534.479489
670.674973	29353.136582
671.015035	29567.645240
671.355047	29487.158178
671.695008	29390.892304
672.034918	29302.127667
672.374777	29408.158256
672.714585	29267.043757
673.054342	29417.817107
673.394049	29278.537588
673.733705	29482.658948
674.073310	29196.477685
674.412864	29252.096736
674.752368	28995.812036
675.091820	29230.586132
675.431223	28819.487598
675.770574	28628.778227
676.109875	28467.748650
676.449125	28248.844106
676.788324	28161.934614
677.127473	27685.280915
677.466571	27587.558147
677.805619	27305.608933
678.144616	27241.888749
678.483562	27192.929062
678.822458	26872.031894
679.161303	26809.624930
679.500098	26737.554074
679.838842	26649.243141
680.177535	26709.558026
680.516179	26919.978308
680.854771	26976.935785
681.193314	27659.268561
681.531805	28605.359547
681.870247	29358.016419
682.208638	30172.215697
682.546978	30523.072443
682.885268	30702.918128
683.223508	30305.513887
683.561697	30041.662416
683.899836	29872.365346
684.237925	29458.605082
684.575963	29298.833273
684.913951	28906.276103
685.251889	29043.619818
685.589776	29043.319870
685.927614	29040.068326
686.265401	29213.156343
686.603137	29299.150866
686.940824	29776.167528
687.278460	30098.375397
687.616046	30281.611257
687.953582	30942.536773
688.291068	30885.402856
688.628504	31239.372514
688.965889	31272.013985
689.303224	31031.823169
689.640510	30761.708064
689.977745	30162.067855
690.314930	29446.279461
690.652065	29032.519198
690.989150	28369.269710
691.326185	27540.526702
691.663170	26925.493330
692.000105	26215.734157
692.336990	25618.763239
692.673825	25201.396030
693.010610	24695.627147
693.347345	24192.199880
693.684030	23574.282967
694.020665	23378.812227
694.357251	22708.497562
694.693786	22717.322102
695.030272	22475.666830
695.366707	21976.751396
695.703093	21697.279909
696.039429	21762.073859
696.375716	21525.452180
696.711952	21519.294411
697.048139	21374.673789
697.384276	21209.293696
697.720363	21328.184268
698.056400	21221.490768
698.392388	21064.312632
698.728326	21058.734595
699.064214	20912.415105
699.400053	20923.485479
699.735842	20542.923734
700.071581	20360.668378
700.407270	20118.294743
700.742910	19951.856007
701.078501	19708.617813
701.414042	19503.952008
701.749533	19215.592967
702.084974	18897.460872
702.420366	19124.164081
702.755709	18716.163335
703.091002	18414.039423
703.426246	18468.904821
703.761440	18404.995593
704.096584	18181.427982
704.431679	18108.719420
704.766725	18054.254794
705.101721	17969.429819
705.436668	18082.802848
705.771565	17812.707907
706.106413	18104.270602
706.441212	18176.926232
706.775961	18252.195700
707.110661	18328.954829
707.445311	18687.741310
707.779913	18575.923476
708.114465	18863.213793
708.448967	19163.767385
708.783421	19754.807386
709.117825	20097.999057
709.452180	20316.782613
709.786485	20754.332082
710.120742	21472.585600
710.454949	21582.429822
710.789107	22082.829876
711.123216	22769.659361
711.457275	22994.162106
711.791286	23558.642788
712.125247	23735.831784
712.459159	23508.843749
712.793023	24264.363997
713.126837	23293.437766
713.460602	23566.305342
713.794318	23250.789605
714.127985	22983.316064
714.461602	22105.086570
714.795171	22100.776383
715.128691	21117.368256
715.462162	20609.242633
715.795584	20183.968374
716.128957	19922.261913
716.462281	19550.481858
716.795556	19267.680689
717.128782	18802.974525
717.461960	18198.691413
717.795088	18167.138832
718.128167	17843.388370
718.461198	17380.325622
718.794180	17259.421108
719.127113	16941.523426
719.459997	16749.526041
719.792833	16377.604833
720.125619	16421.926658
720.458357	16076.892445
720.791046	15941.134172
721.123686	15784.830676
721.456278	15574.150775
721.788821	15563.897068
722.121315	15302.180525
722.453761	15394.171500
722.786158	15289.897753
723.118506	15368.199475
723.450805	15248.033491
723.783056	15428.882365
724.115259	15300.010308
724.447412	15289.189471
724.779518	15494.213198
725.111574	15540.458223
725.443582	15794.335772
725.775542	15749.502270
726.107453	16249.113384
726.439315	16144.761499
726.771129	16542.339659
727.102895	16942.206502
727.434612	17218.434007
727.766281	17393.641829
728.097901	17717.036890
728.429473	17812.342424
728.760996	17841.150098
729.092471	17955.422973
729.423897	17840.910643
729.755276	17688.698043
730.086606	17774.763143
730.417887	18316.936718
730.749120	18855.906640
731.080305	19078.755887
731.411442	19479.479727
731.742530	19604.195353
732.073570	19738.816846
732.404562	20057.294260
732.735506	19959.044692
733.066401	19833.693882
733.397249	19416.044368
733.728048	18822.962700
734.058798	17976.759657
734.389501	17231.964464
734.720156	16718.570836
735.050762	16129.738861
735.381320	15734.313273
735.711831	15449.624192
736.042293	15064.409462
736.372707	15088.304532
736.703073	14871.797056
737.033391	15049.021340
737.363661	15033.376119
737.693883	15144.548685
738.024056	15328.112220
738.354182	15529.160997
738.684260	15883.594442
739.014290	16135.034593
739.344272	16361.924324
739.674207	16706.048609
740.004093	16887.530148
740.333931	16960.652084
740.663722	17050.966876
740.993464	17107.808406
741.323159	16976.816544
741.652806	16695.303390
741.982405	16536.852363
742.311956	16196.317379
742.641460	16095.975733
742.970915	15759.440905
743.300323	15418.089254
743.629683	15215.155086
743.958996	14904.115893
744.288260	14596.214819
744.617477	14281.795533
744.946647	14248.130708
745.275768	13941.373976
745.604842	13740.957864
745.933869	13558.810893
746.262847	13528.541285
746.591778	13440.255557
746.920662	13312.038850
747.249498	13312.273264
747.578286	13441.218418
747.907027	13598.368827
748.235720	13858.696532
748.564365	13943.672742
748.892963	13882.284091
749.221514	13987.326614
749.550017	13880.713772
749.878473	13847.903422
750.206881	13640.399447
750.535242	13575.928131
750.863555	13490.445285
751.191821	13379.512174
751.520039	13396.216037
751.848210	13313.268892
752.176334	13356.436292
752.504411	13283.591619
752.832440	13110.682563
753.160421	13233.469947
753.488356	13125.105304
753.816243	13034.898897
754.144082	12863.469419
754.471875	12804.558496
754.799620	12765.310592
755.127318	12750.134199
755.454969	12734.068041
755.782572	12699.541179
756.110129	12710.057026
756.437638	12630.374027
756.765100	12630.762196
757.092515	12644.383394
757.419882	12682.499558
757.747203	12676.800534
758.074477	12763.576435
758.401703	12747.653951
758.728882	12927.862598
759.056014	12968.907673
759.383099	13135.041418
759.710138	13258.985747
760.037129	13389.886869
760.364073	13461.128455
760.690970	13482.119819
761.017820	13480.383142
761.344623	13670.409436
761.671379	13998.956556
761.998088	14531.884655
762.324751	15929.738643
762.651366	18844.322069
762.977935	23116.843626
763.304456	26361.413421
763.630931	27956.643706
763.957359	27180.663935
764.283740	25146.170189
764.610074	23021.674203
764.936362	20429.197824
765.262602	18541.242858
765.588796	16579.399701
765.914943	15256.621097
766.241044	14124.032624
766.567097	13311.680928
766.893104	12571.815984
767.219064	12101.196546
767.544978	11613.976589
767.870845	11228.582898
768.196665	10992.440128
768.522438	10765.315983
768.848165	10561.280322
769.173846	10359.634168
769.499479	10232.463501
769.825066	10056.633096
770.150607	9842.832720
770.476101	9764.488148
770.801548	9644.042380
771.126949	9493.455553
771.452303	9383.560919
771.777611	9181.813943
772.102872	9172.177777
772.428087	9034.995378
772.753256	8889.613542
773.078378	8805.907703
773.403453	8627.259293
773.728482	8507.126076
774.053465	8431.841485
774.378401	8334.859767
774.703291	8210.945685
775.028135	8094.265659
775.352932	8066.012512
775.677683	7962.555432
776.002388	7853.840429
776.327046	7860.519958
776.651658	7762.245184
776.976224	7667.345463
777.300743	7663.816655
777.625216	7578.825322
777.949643	7535.917541
778.274024	7552.944038
778.598359	7463.682848
778.922647	7479.570044
779.246889	7430.680934
779.571086	7433.604803
779.895236	7437.768796
780.219339	7451.465611
780.543397	7455.027186
780.867409	7531.327570
781.191374	7544.623614
781.515294	7509.108685
781.839167	7596.340811
782.162995	7570.552788
782.486776	7527.831530
782.810511	7482.234294
783.134201	7400.562560
783.457844	7386.848101
783.781441	7334.304155
784.104993	7272.255112
784.428498	7254.626197
784.751958	7240.697489
785.075372	7202.946809
785.398739	7148.988819
785.722061	7188.844181
786.045337	7187.150353
786.368568	7329.867939
786.691752	7328.453896
787.014891	7622.209492
787.337983	7928.318436
787.661030	8468.162998
787.984031	9081.658818
788.306987	9515.775261
788.629897	9772.851422
788.952760	9779.558677
789.275579	9597.053785
789.598351	9230.861849
789.921078	8895.831805
790.243759	8494.800455
790.566395	8197.296761
790.888984	7946.181764
791.211529	7747.225066
791.534027	7521.862804
791.856480	7313.017883
792.178888	7237.929896
792.501249	7138.319217
792.823566	6987.508058
793.145836	6976.057077
793.468062	6941.963754
793.790241	6892.391567
794.112375	6945.840401
794.434464	7092.117042
794.756507	7112.614373
795.078505	7251.291474
795.400457	7529.167436
795.722364	7863.597582
796.044226	8152.536356
796.366042	8436.693595
796.687812	8413.897498
797.009538	8506.969801
797.331218	8422.724558
797.652852	8348.859051
797.974442	8200.210548
798.295986	8122.102910
798.617484	7941.561547
798.938938	7801.160371
799.260346	7697.461316
799.581709	7504.122984
799.903026	7425.501148
800.224299	7315.067112
800.545526	7156.026269
800.866708	7059.188225
801.187845	6989.695919
801.508936	6887.589868
801.829983	6849.188879
802.150984	6700.729419
802.471940	6657.385578
802.792851	6641.112733
803.113717	6611.193485
803.434538	6578.158804
803.755314	6521.561770
804.076045	6519.870463
804.396731	6464.548840
804.717372	6494.314333
805.037967	6488.418704
805.358518	6522.605289
805.679024	6607.831036
805.999485	6611.289267
806.319901	6654.444065
806.640272	6673.250089
806.960598	6757.588593
807.280879	6759.922647
807.601115	6835.401323
807.921306	6783.953827
808.241453	6795.581249
808.561554	6818.145453
808.881611	6785.836698
809.201623	6795.926568
809.521590	6744.322797
809.841513	6724.805969
810.161390	6761.699654
810.481223	6641.286653
810.801011	6624.776874
811.120755	6597.930209
811.440453	6523.341297
811.760107	6488.292675
812.079716	6461.438448
812.399281	6403.442494
812.718801	6389.445730
813.038276	6346.069122
813.357707	6281.607888
813.677093	6321.279248
813.996434	6225.840123
814.315731	6266.131546
814.634983	6256.941522
814.954191	6262.927892
815.273354	6360.456575
815.592473	6412.700573
815.911547	6525.856833
816.230577	6606.555624
816.549562	6746.223312
816.868502	6846.968251
817.187399	6930.333812
817.506250	7071.418064
817.825058	7093.556291
818.143821	7338.758014
818.462539	7578.656443
818.781213	7892.632108
819.099843	8374.115232
819.418429	9268.841902
819.736970	10160.309466
820.055466	11246.821793
820.373919	12593.634098
820.692327	14573.446448
821.010691	17860.447634
821.329011	25218.946807
821.647286	36779.504809
821.965517	50617.197374
822.283704	58167.832563
822.601847	61378.641751
822.919945	59159.334264
823.237999	55262.565190
823.556010	49261.862998
823.873976	42658.430369
824.191897	36246.848932
824.509775	31433.272935
824.827609	26845.162544
825.145398	24060.938316
825.463144	22398.277557
825.780845	22289.716309
826.098502	23509.804089
826.416116	26765.892920
826.733685	30452.652565
827.051210	32237.589031
827.368692	31319.937714
827.686129	27841.390326
828.003522	23879.330748
828.320872	20184.260761
828.638177	17314.717525
828.955439	15155.556044
829.272656	13337.300072
829.589830	11867.289528
829.906960	10587.045659
830.224046	9623.471952
830.541088	8855.056433
830.858086	8370.863688
831.175041	7966.631205
831.491952	7810.224366
831.808819	7801.246071
832.125642	8094.953776
832.442421	8785.725444
832.759157	10249.847920
833.075849	12778.105041
833.392497	15871.498193
833.709101	18324.697574
834.025662	18688.323563
834.342179	17359.185543
834.658653	15331.469628
834.975083	13426.326849
835.291469	11802.939200
835.607811	10491.465382
835.924110	9582.323533
836.240366	8723.182368
836.556578	7925.034124
836.872746	7283.217102
837.188871	6767.592763
837.504952	6340.337330
837.820990	6017.766498
838.136984	5794.317354
838.452935	5680.384757
838.768842	5662.332385
839.084706	5941.519047
839.400526	6893.971969
839.716303	8372.209676
840.032037	9590.336447
840.347727	9823.638527
840.663373	9044.147593
840.978977	8013.972681
841.294537	7190.875766
841.610054	6583.331028
841.925527	6152.168701
842.240957	5793.820801
842.556344	5468.701666
842.871687	5198.717630
843.186987	4913.758847
843.502244	4689.921534
843.817458	4519.855689
844.132629	4377.904358
844.447756	4287.072848
844.762840	4208.219120
845.077881	4132.264055
845.392879	4074.905806
845.707833	4019.803474
846.022745	3981.266373
846.337613	3951.326961
846.652438	3907.635280
846.967221	3895.052560
847.281960	3859.300697
847.596656	3843.136238
847.911309	3825.761901
848.225919	3800.636790
848.540485	3788.515336
848.855009	3773.197790
849.169490	3751.122577
849.483928	3737.486256
849.798323	3732.442581
850.112675	3712.731670
850.426984	3714.813666
850.741251	3702.026780
851.055474	3700.499310
851.369654	3706.715053
851.683792	3699.901933
851.997887	3706.906617
852.311938	3706.987275
852.625947	3707.272100
852.939914	3700.494269
853.253837	3711.312585
853.567718	3708.481977
853.881555	3696.809185
854.195350	3712.714026
854.509103	3709.263356
854.822812	3706.180690
855.136479	3698.422355
855.450103	3706.589024
855.763685	3695.589226
856.077224	3698.482848
856.390720	3711.632698
856.704173	3728.308835
857.017584	3742.076226
857.330953	3752.687855
857.644278	3771.672841
857.957561	3780.454531
858.270802	3781.588790
858.584000	3783.862351
858.897155	3776.993778
859.210268	3763.967437
859.523339	3739.684199
859.836367	3738.791915
860.149352	3734.517016
860.462295	3724.671643
860.775195	3714.493553
861.088054	3709.124724
861.400869	3706.286555
861.713642	3705.298488
862.026373	3711.766289
862.339062	3715.947926
862.651708	3736.190679
862.964312	3767.430710
863.276873	3776.582924
863.589392	3826.571006
863.901869	3869.440978
864.214303	3915.670880
864.526696	3946.341260
864.839045	3990.355574
865.151353	4018.767517
865.463619	4029.162376
865.775842	4032.794527
866.088023	4054.254719
866.400162	4040.497411
866.712258	4053.052404
867.024313	4053.788413
867.336325	4052.870923
867.648296	4055.517528
867.960224	4056.157755
868.272110	4065.186462
868.583954	4067.147470
868.895755	4083.440480
869.207515	4077.847319
869.519233	4114.630098
869.830909	4122.953043
870.142542	4146.671672
870.454134	4159.403106
870.765684	4189.786141
871.077191	4222.896439
871.388657	4243.146754
871.700081	4276.730921
872.011463	4316.795491
872.322803	4351.655070
872.634101	4380.417373
872.945357	4417.994134
873.256571	4466.540446
873.567744	4496.741998
873.878874	4517.884597
874.189963	4554.407757
874.501010	4565.062236
874.812015	4559.617790
875.122979	4603.359882
875.433900	4602.391980
875.744780	4611.450933
876.055618	4635.656034
876.366415	4638.582423
876.677169	4648.427797
876.987882	4693.397410
877.298554	4735.571703
877.609183	4804.988391
877.919771	4899.484820
878.230317	5025.097771
878.540822	5203.100913
878.851285	5473.828519
879.161707	5862.713209
879.472087	6499.443707
879.782425	7496.752817
880.092722	9299.625708
880.402977	12105.060591
880.713191	15572.129272
881.023363	19222.973217
881.333494	21656.628044
881.643583	23097.077262
881.953631	23330.805319
882.263637	22681.174508
882.573602	21398.296636
882.883526	19985.450256
883.193408	18428.033667
883.503248	16835.235738
883.813048	15384.381579
884.122806	14036.218244
884.432522	12614.018004
884.742197	11409.053685
885.051831	10348.089926
885.361424	9362.156180
885.670975	8551.425216
885.980485	7863.794187
886.289954	7298.244781
886.599382	6834.534245
886.908768	6459.573222
887.218113	6104.892760
887.527417	5822.268032
887.836680	5560.465789
888.145901	5345.768088
888.455082	5186.754972
888.764221	5036.548752
889.073319	4907.086880
889.382376	4828.631403
889.691392	4765.478348
890.000366	4737.777208
890.309300	4713.846850
890.618193	4717.887335
890.927044	4700.460066
891.235855	4722.056369
891.544625	4738.235953
891.853353	4789.932985
892.162041	4883.637953
892.470687	5040.841295
892.779293	5250.180249
893.087858	5565.698507
893.396381	6049.500562
893.704864	6722.416463
894.013306	7728.280410
894.321707	8845.332047
894.630068	9728.557324
894.938387	10060.517305
895.246665	9955.850348
895.554903	9433.153270
895.863100	8791.757184
896.171256	8267.835106
896.479371	7779.924511
896.787446	7307.149979
897.095480	6892.832668
897.403473	6590.796977
897.711425	6288.252129
898.019336	6028.783940
898.327207	5771.049909
898.635038	5548.553542
898.942827	5306.159742
899.250576	5115.435248
899.558284	4926.719654
899.865952	4809.056602
900.173579	4667.483358
900.481165	4560.260537
900.788711	4469.963389
901.096216	4397.365732
901.403681	4336.521526
901.711105	4301.987102
902.018489	4283.536479
902.325832	4331.422399
902.633135	4415.448351
902.940397	4670.019059
903.247619	5276.931132
903.554800	6452.810514
903.861941	8182.289246
904.169041	9734.216019
904.476101	10559.160517
904.783121	10436.967989
905.090100	9818.620058
905.397039	9040.901090
905.703938	8328.767533
906.010796	7672.724374
906.317614	7144.441698
906.624391	6637.662063
906.931129	6229.747018
907.237826	5848.754254
907.544483	5492.548844
907.851099	5138.032220
908.157675	4793.736536
908.464211	4474.628977
908.770707	4237.966968
909.077163	4034.100186
909.383578	3884.632495
909.689954	3771.244343
909.996289	3694.954041
910.302584	3631.460708
910.608839	3597.556428
910.915054	3565.343455
911.221229	3549.373079
911.527363	3556.763411
911.833458	3564.806572
912.139513	3586.846497
912.445527	3608.725104
912.751502	3679.485260
913.057436	3766.077160
913.363331	3880.544120
913.669186	4051.522414
913.975000	4265.920167
914.280775	4614.465543
914.586510	5111.460298
914.892205	5789.039266
915.197859	6697.848399
915.503475	7809.364849
915.809050	8850.431174
916.114585	9555.406292
916.420081	9897.355319
916.725536	9956.089803
917.030952	9600.736348
917.336328	9238.342921
917.641665	8875.145431
917.946961	8432.935415
918.252218	8040.695837
918.557435	7559.610964
918.862612	7155.093656
919.167750	6811.402910
919.472848	6411.064719
919.777906	6056.333846
920.082925	5714.904058
920.387904	5363.016396
920.692843	5096.175520
920.997743	4854.782388
921.302603	4622.803612
921.607423	4463.861072
921.912204	4303.567503
922.216946	4191.023744
922.521647	4077.754058
922.826310	3973.805466
923.130932	3885.363463
923.435516	3794.126140
923.740059	3724.570820
924.044564	3654.032474
924.349028	3593.515943
924.653454	3532.147457
924.957840	3469.044813
925.262186	3423.170313
925.566493	3365.076057
925.870761	3310.684527
926.174989	3275.126748
926.479178	3243.216245
926.783328	3201.316694
927.087438	3175.591686
927.391509	3141.773106
927.695541	3114.278653
927.999533	3089.183789
928.303486	3067.216961
928.607400	3053.074004
928.911275	3038.873073
929.215110	3024.687267
929.518906	3015.598066
929.822663	3012.593538
930.126381	3011.330729
930.430060	3013.626975
930.733699	3015.242665
931.037299	3031.505427
931.340861	3023.797503
931.644383	3035.039276
931.947866	3034.114224
932.251309	3024.906557
932.554714	3031.510468
932.858080	3022.307842
933.161407	3017.982532
933.464694	3009.508352
933.767943	3003.789163
934.071153	3001.361848
934.374323	2990.878768
934.677455	2983.236379
934.980548	2976.002323
935.283602	2973.302785
935.586617	2965.478915
935.889593	2974.515183
936.192530	2977.174392
936.495428	2989.152173
936.798287	3007.191942
937.101108	3032.369985
937.403890	3072.641243
937.706632	3129.331538
938.009336	3201.225954
938.312002	3270.937550
938.614628	3333.430213
938.917216	3388.043553
939.219765	3417.408275
939.522275	3449.328861
939.824747	3460.699183
940.127179	3460.568113
940.429573	3455.557206
940.731929	3454.203657
941.034246	3444.401133
941.336524	3432.788835
941.638763	3415.500198
941.940964	3403.668610
942.243126	3366.253166
942.545250	3349.589632
942.847335	3312.138900
943.149381	3281.050104
943.451389	3248.181781
943.753359	3217.677759
944.055290	3193.326466
944.357182	3170.394257
944.659036	3153.087976
944.960851	3144.341574
945.262628	3129.071919
945.564367	3129.570993
945.866067	3125.207874
946.167729	3120.809467
946.469352	3121.207719
946.770937	3116.055659
947.072484	3101.441354
947.373992	3103.805656
947.675462	3095.611260
947.976893	3081.367480
948.278286	3074.758527
948.579641	3068.489852
948.880958	3061.802762
949.182236	3064.600602
949.483476	3056.257492
949.784678	3055.032492
950.085841	3055.619787
950.386967	3065.308884
950.688054	3079.345977
950.989103	3095.931373
951.290114	3113.782099
951.591087	3139.071047
951.892021	3163.752537
952.192917	3190.561393
952.493776	3217.962584
952.794596	3225.083214
953.095378	3235.523444
953.396122	3229.158987
953.696828	3228.183524
953.997496	3214.123746
954.298126	3192.736651
954.598718	3178.376924
954.899272	3154.577637
955.199788	3133.021663
955.500266	3103.576283
955.800706	3072.053948
956.101108	3036.803680
956.401472	3006.186232
956.701798	2975.669607
957.002087	2940.925975
957.302337	2911.251223
957.602550	2885.735423
957.902724	2856.436236
958.202861	2831.845488
958.502960	2813.404947
958.803022	2794.672019
959.103045	2771.820469
959.403031	2755.046030
959.702979	2743.562281
960.002889	2733.868142
960.302762	2720.262068
960.602596	2707.765048
960.902393	2700.616692
961.202153	2694.229550
961.501875	2686.652695
961.801559	2677.097188
962.101205	2671.171312
962.400814	2667.501352
962.700385	2661.308294
962.999918	2655.155566
963.299414	2649.078455
963.598873	2645.849596
963.898293	2642.850110
964.197677	2641.176447
964.497022	2636.946918
964.796331	2635.033801
965.095601	2636.145375
965.394835	2632.540950
965.694030	2632.672020
965.993189	2628.747482
966.292309	2628.813017
966.591393	2628.162708
966.890439	2629.465846
967.189447	2628.281175
967.488419	2628.724797
967.787353	2630.005250
968.086249	2627.555249
968.385108	2630.108593
968.683930	2633.791156
968.982714	2636.226033
969.281462	2640.374903
969.580172	2643.722229
969.878844	2649.350677
970.177480	2656.357881
970.476078	2664.390960
970.774639	2670.190807
971.073162	2677.457631
971.371649	2683.171779
971.670098	2689.294260
971.968510	2690.095803
972.266885	2698.270034
972.565223	2702.958307
972.863524	2705.206662
973.161788	2707.414687
973.460014	2709.915100
973.758204	2714.386603
974.056356	2710.202446
974.354471	2717.560010
974.652550	2718.023796
974.950591	2719.029506
975.248595	2715.488095
975.546563	2714.217725
975.844493	2710.817466
976.142386	2705.274718
976.440243	2702.454192
976.738062	2698.219623
977.035845	2691.109075
977.333590	2687.227387
977.631299	2680.847807
977.928971	2675.161385
978.226606	2666.762823
978.524204	2663.236536
978.821765	2661.457008
979.119290	2662.538336
979.416777	2661.681340
979.714228	2661.320897
980.011642	2667.713080
980.309020	2671.700633
980.606360	2684.298477
980.903664	2704.379913
981.200931	2729.691546
981.498162	2770.845006
981.795356	2835.432269
982.092513	2913.670977
982.389633	3003.529544
982.686717	3096.816096
982.983764	3173.116480
983.280775	3227.533215
983.577749	3242.989393
983.874686	3237.507138
984.171587	3210.726008
984.468451	3176.786440
984.765279	3141.503404
985.062070	3096.601847
985.358824	3056.711196
985.655543	3007.174298
985.952224	2958.630507
986.248869	2899.732186
986.545478	2842.169771
986.842050	2791.324693
987.138586	2747.000348
987.435086	2709.300079
987.731549	2681.452745
988.027975	2654.227994
988.324366	2636.238636
988.620719	2621.614249
988.917037	2609.039091
989.213318	2602.853595
989.509563	2596.887389
989.805772	2590.976637
990.101944	2587.160483
990.398080	2585.214598
990.694180	2580.833835
990.990244	2583.140163
991.286271	2579.911304
991.582262	2580.034812
991.878217	2587.533528
992.174136	2587.772983
992.470019	2590.084352
992.765865	2592.294898
993.061676	2597.144488
993.357450	2603.266970
993.653188	2608.474482
993.948890	2627.393932
994.244556	2640.359780
994.540186	2657.318221
994.835780	2687.756708
995.131337	2719.112685
995.426859	2755.151894
995.722345	2801.134779
996.017795	2847.853672
996.313208	2886.892367
996.608586	2913.181985
996.903928	2928.615477
997.199234	2933.276024
997.494504	2934.589244
997.789738	2919.226328
998.084936	2901.065571
998.380099	2872.502394
998.675225	2848.103209
998.970316	2819.948365
999.265371	2783.147942
999.560390	2747.514546
999.855373	2722.712069
1000.150320	2695.406659
1000.445232	2670.876404
1000.740108	2651.742705
1001.034948	2633.408028
1001.329752	2622.514095
1001.624521	2605.616147
1001.919254	2594.903695
1002.213951	2587.127716
1002.508613	2580.859041
1002.803239	2576.286714
1003.097829	2566.025446
1003.392384	2564.765157
1003.686903	2559.166956
1003.981386	2557.117727
1004.275834	2553.452808
1004.570246	2550.569268
1004.864623	2550.047508
1005.158964	2547.085831
1005.453270	2544.214893
1005.747540	2543.620037
1006.041775	2539.836651
1006.335974	2535.511341
1006.630138	2539.088040
1006.924266	2538.455375
1007.218359	2538.125180
1007.512416	2533.005888
1007.806438	2530.833151
1008.100425	2534.717360
1008.394376	2531.717873
1008.688292	2533.681402
1008.982172	2532.191742
1009.276017	2533.154602
1009.569827	2531.748120
1009.863602	2530.878521
1010.157341	2534.006557
1010.451045	2532.297606
1010.744714	2530.719725
1011.038347	2529.638397
1011.331945	2527.561442
1011.625508	2528.627646
1011.919036	2526.205371
1012.212528	2526.026410
1012.505986	2523.606657
1012.799408	2524.753519
1013.092795	2523.031965
1013.386147	2526.313756
1013.679464	2520.886954
1013.972745	2520.816378
1014.265992	2520.803775
1014.559204	2522.361492
1014.852380	2524.259486
1015.145521	2522.250586
1015.438628	2524.917357
1015.731699	2520.193795
1016.024736	2523.770494
1016.317737	2525.958355
1016.610703	2526.475073
1016.903635	2527.054806
1017.196531	2526.598581
1017.489393	2527.470701
1017.782219	2529.361134
1018.075011	2530.876000
1018.367768	2531.299457
1018.660490	2532.874818
1018.953177	2532.874818
1019.245829	2532.874818
