Dividing Wavelength (nm)	Counts (n)	Blue Motor Position (mm): 0.000000	Red Motor Position (mm): 41.000000	
326.493990	2056.072405
326.888308	2056.072405
327.282561	2056.072405
327.676750	2030.382685
328.070874	2028.918230
328.464933	2033.341842
328.858929	2043.131763
329.252859	2056.984854
329.646726	2065.335525
330.040528	2083.183730
330.434265	2099.701071
330.827938	2122.713938
331.221547	2138.933851
331.615091	2162.561739
332.008571	2183.888340
332.401986	2202.996834
332.795338	2223.000132
333.188625	2247.011148
333.581847	2260.884403
333.975006	2280.885181
334.368100	2296.114507
334.761129	2313.156128
335.154095	2327.218426
335.546996	2360.648838
335.939833	2414.374935
336.332606	2429.160639
336.725315	2438.695982
337.117960	2449.670574
337.510540	2459.185752
337.903056	2468.292596
338.295508	2475.728298
338.687896	2486.060143
339.080220	2487.746409
339.472480	2490.445947
339.864676	2496.152533
340.256807	2498.771412
340.648875	2503.058913
341.040879	2501.980107
341.432818	2502.514469
341.824694	2503.313492
342.216506	2503.386588
342.608253	2505.017402
342.999937	2503.167298
343.391557	2503.603358
343.783113	2501.682678
344.174605	2497.969869
344.566033	2499.739314
344.957397	2498.985661
345.348697	2499.489777
345.739934	2495.913078
346.131106	2494.680516
346.522215	2492.507778
346.913260	2491.066008
347.304241	2488.096769
347.695159	2486.433188
348.086012	2487.706079
348.476802	2483.721047
348.867528	2482.647282
349.258191	2477.661580
349.648789	2479.284832
350.039324	2473.822742
350.429796	2481.182826
350.820203	2478.543782
351.210548	2478.752990
351.600828	2475.629995
351.991045	2477.061683
352.381198	2476.857516
352.771288	2477.696868
353.161314	2475.244347
353.551276	2476.885243
353.941175	2475.435911
354.331010	2474.737711
354.720782	2476.527321
355.110490	2477.439770
355.500135	2477.205356
355.889717	2475.030098
356.279235	2476.602938
356.668689	2477.346508
357.058080	2477.530510
357.447408	2478.790799
357.836672	2479.574698
358.225873	2480.771972
358.615010	2481.898670
359.004084	2482.221304
359.393095	2481.850779
359.782043	2482.924545
360.170927	2481.651654
360.559748	2482.833804
360.948505	2484.089052
361.337199	2487.552324
361.725830	2488.910915
362.114398	2488.568117
362.502903	2486.909577
362.891344	2485.850935
363.279722	2483.035450
363.668037	2489.556183
364.056289	2486.738178
364.444478	2488.429485
364.832603	2487.864876
365.220665	2490.657675
365.608665	2490.824033
365.996601	2489.714979
366.384474	2488.449650
366.772284	2491.791935
367.160031	2494.027686
367.547715	2492.401914
367.935336	2493.400063
368.322893	2491.260093
368.710388	2491.444095
369.097820	2491.484424
369.485189	2491.323107
369.872495	2497.072543
370.259738	2498.302585
370.646918	2499.300733
371.034035	2497.052379
371.421090	2500.069509
371.808081	2500.142606
372.195010	2501.274345
372.581875	2502.101094
372.968678	2503.603358
373.355418	2506.368431
373.742096	2506.701147
374.128710	2509.617455
374.515262	2513.826818
374.901751	2516.675070
375.288177	2517.441325
375.674540	2522.409383
376.060841	2527.715197
376.447079	2530.371885
376.833254	2536.653163
377.219367	2542.606765
377.605417	2546.705223
377.991404	2553.296532
378.377329	2557.667212
378.763191	2567.068964
379.148991	2574.227403
379.534727	2583.828280
379.920402	2593.600557
380.306013	2603.196393
380.691563	2615.196860
381.077049	2622.922428
381.462474	2634.857360
381.847835	2647.505615
382.233134	2659.962306
382.618371	2672.078720
383.003545	2687.189578
383.388657	2701.919830
383.773706	2721.693756
384.158693	2734.641959
384.543618	2754.355392
384.928480	2767.961466
385.313280	2791.128088
385.698017	2810.070224
386.082692	2831.727021
386.467305	2847.462982
386.851856	2871.660521
387.236344	2899.588513
387.620770	2918.439908
388.005133	2935.350459
388.389435	2971.472847
388.773674	2988.206957
389.157851	3020.732481
389.541965	3044.360369
389.926018	3058.561300
390.310008	3090.474324
390.693936	3120.063377
391.077802	3145.894249
391.461606	3177.887932
391.845348	3195.053061
392.229027	3224.619428
392.612645	3269.258845
392.996200	3293.337917
393.379694	3330.972651
393.763125	3377.915875
394.146494	3403.550143
394.529801	3435.208589
394.913047	3485.615086
395.296230	3487.598780
395.679351	3514.669776
396.062410	3563.568969
396.445408	3544.808315
396.828343	3584.136876
397.211217	3619.687093
397.594028	3594.186417
397.976778	3642.155516
398.359466	3674.754137
398.742092	3684.995241
399.124656	3700.080894
399.507158	3760.363012
399.889598	3766.971965
400.271977	3832.564938
400.654294	3821.449194
401.036549	3880.594531
401.418742	3879.367010
401.800874	3950.288483
402.182944	3974.702791
402.564952	4063.243097
402.946898	4055.290677
403.328783	4053.889236
403.710606	4099.620063
404.092367	4169.737472
404.474067	4238.211464
404.855705	4223.163620
405.237282	4196.952141
405.618797	4289.724495
406.000250	4370.342627
406.381642	4453.183908
406.762972	4452.223569
407.144240	4420.625616
407.525447	4485.076768
407.906593	4500.384232
408.287677	4585.849434
408.668700	4612.814566
409.049661	4655.321575
409.430560	4691.660732
409.811399	4676.295295
410.192176	4726.043922
410.572891	4808.000481
410.953545	4912.901851
411.334138	4812.114062
411.714669	4917.484260
412.095139	4829.037216
412.475547	4942.415286
412.855894	4948.096667
413.236180	5050.358993
413.616405	4974.285461
413.996568	5087.555147
414.376670	5089.813584
414.756711	5081.472995
415.136691	5151.587883
415.516609	5234.656016
415.896466	5269.858393
416.276262	5349.140620
416.655997	5468.316017
417.035670	5566.174896
417.415283	5708.378284
417.794834	5774.266165
418.174324	5738.080763
418.553753	5740.472790
418.933121	5907.844139
419.312428	5919.872332
419.691674	5839.080280
420.070859	6075.250776
420.449983	5948.737979
420.829045	6151.369678
421.208047	6073.806485
421.586988	6230.493108
421.965867	6304.315765
422.344686	6386.869701
422.723444	6551.470936
423.102141	6169.573285
423.480777	6567.897535
423.859352	6377.851077
424.237866	6745.625935
424.616319	6741.202322
424.994712	6907.245327
425.373044	6820.088818
425.751314	7144.303066
426.129524	6856.743048
426.507673	7124.100642
426.885762	7166.738721
427.263789	7210.667336
427.641756	7300.722508
428.019662	7378.744446
428.397508	7425.912002
428.775292	7397.258084
429.153016	7578.391783
429.530679	7503.381934
429.908282	7557.975110
430.285824	7497.690471
430.663305	7786.170500
431.040726	7668.303282
431.418086	7675.708737
431.795385	7805.425187
432.172624	7999.870053
432.549802	7882.610294
432.926920	8019.482662
433.303977	7957.398332
433.680974	8001.672265
434.057910	8203.288172
434.434786	8251.118640
434.811601	8216.319555
435.188355	8557.517450
435.565050	8441.729708
435.941683	8454.383004
436.318257	8795.850601
436.694770	8746.434691
437.071222	8970.609761
437.447614	8749.600535
437.823946	8720.371925
438.200218	8862.534984
438.576429	8744.604752
438.952580	8910.219258
439.328670	8922.864993
439.704700	8993.912495
440.080670	8895.310046
440.456580	9170.877159
440.832429	9146.530907
441.208218	8874.432107
441.583947	8987.500147
441.959616	9112.298952
442.335224	9144.950505
442.710773	9229.694822
443.086261	9408.320547
443.461689	9127.107341
443.837057	9296.285943
444.212365	9512.163275
444.587612	9498.635338
444.962800	9386.091579
445.337927	9526.270944
445.712995	9061.894975
446.088002	9746.798739
446.462949	9797.883272
446.837837	9788.015213
447.212664	9806.433069
447.587431	10652.066462
447.962139	11665.499702
448.336786	12629.625416
448.711374	12401.699727
449.085901	11172.167345
449.460369	11094.498288
449.834776	10870.164421
450.209124	11795.294290
450.583412	11613.422062
450.957640	11934.984663
451.331808	11525.680779
451.705917	10941.368199
452.079965	10811.724845
452.453954	11021.116732
452.827883	10957.956115
453.201752	10936.856366
453.575562	10939.366861
453.949311	11294.443052
454.323001	11364.421829
454.696632	11272.498910
455.070202	11867.705424
455.443713	11923.032087
455.817164	12095.507604
456.190556	12424.662183
456.563888	12287.701595
456.937160	12550.839743
457.310373	12033.566947
457.683526	12038.109027
458.056619	12063.629868
458.429653	12129.358952
458.802628	12273.987136
459.175542	12331.748676
459.548398	12885.484138
459.921194	13465.690699
460.293930	13739.634561
460.666607	14610.866933
461.039224	15427.128043
461.411782	15786.055677
461.784280	15447.912721
462.156719	15394.025307
462.529099	15309.807790
462.901419	14653.270599
463.273680	14250.421912
463.645882	14464.078615
464.018024	14347.648126
464.390106	14719.594539
464.762130	15792.803261
465.134094	17344.099890
465.505999	19661.389764
465.877845	21947.903393
466.249631	23226.140883
466.621358	22765.618876
466.993026	21953.536883
467.364634	21204.736493
467.736184	20398.073740
468.107674	19765.673593
468.479105	19627.160329
468.850477	19347.492237
469.221790	18920.836702
469.593043	18237.462928
469.964238	17842.480962
470.335373	17895.624806
470.706449	18632.719636
471.077467	19472.162492
471.448425	21979.776088
471.819324	23894.116453
472.190164	23810.214009
472.560945	22049.475081
472.931667	20442.738363
473.302330	20096.539643
473.672934	19541.909376
474.043479	19965.416711
474.413965	19748.092569
474.784393	19561.388395
475.154761	20250.987994
475.525070	20375.297807
475.895321	20201.806497
476.265513	20738.487736
476.635645	21349.823421
477.005719	21407.738717
477.375734	21770.858070
477.745691	22410.295668
478.115588	23059.200553
478.485427	24268.631334
478.855207	26103.815500
479.224928	27940.648124
479.594591	29394.494208
479.964194	29046.442865
480.333739	29498.425157
480.703226	29735.760159
481.072653	30165.243782
481.442022	30695.038804
481.811333	31123.690636
482.180584	30685.931960
482.549777	30464.612703
482.918912	30216.701360
483.287988	30155.809262
483.657005	29999.483082
484.025964	29639.191816
484.394864	29844.341572
484.763706	29768.905746
485.132489	29217.774040
485.501213	29295.932089
485.869879	29479.296498
486.238487	29417.436500
486.607036	29678.197744
486.975527	29366.946823
487.343959	29717.105369
487.712333	30089.913820
488.080648	30037.402641
488.448905	30488.202782
488.817104	30370.471675
489.185244	31187.594823
489.553326	32163.126148
489.921350	34082.636215
490.289315	36635.670607
490.657222	37574.048628
491.025070	38177.605814
491.392861	37897.443689
491.760593	37135.138048
492.128267	36115.410928
492.495883	35114.318432
492.863440	34208.922160
493.230939	33214.224369
493.598380	32643.021309
493.965763	32472.950422
494.333088	31965.157516
494.700354	31769.628802
495.067563	31727.467112
495.434713	31608.894132
495.801805	31908.870512
496.168839	31731.706722
496.535815	31584.046285
496.902733	31728.893758
497.269593	31532.187935
497.636395	31685.335668
498.003139	31959.287092
498.369825	31703.866950
498.736453	32136.886942
499.103023	31961.429582
499.469535	32060.707546
499.835989	32172.243074
500.202385	32045.132901
500.568723	32082.583633
500.935003	32390.318349
501.301226	32261.466456
501.667390	32998.336955
502.033497	33218.975656
502.399546	33007.504293
502.765537	32612.290435
503.131470	33110.265694
503.497345	33533.901578
503.863163	32450.255147
504.228923	33264.819909
504.594625	33649.061697
504.960269	33109.968266
505.325856	33789.740136
505.691385	33459.219404
506.056856	33777.900986
506.422270	34280.977893
506.787625	33796.187772
507.152924	34278.117038
507.518164	34439.441523
507.883347	34011.467726
508.248472	34147.904034
508.613540	34859.208321
508.978550	35082.044965
509.343503	34924.571922
509.708398	35273.278616
510.073236	35868.608638
510.438016	35975.652499
510.802738	35641.688660
511.167403	36200.765224
511.532010	36455.043545
511.896561	36987.694381
512.261053	37735.836899
512.625488	37531.506331
512.989866	37430.968079
513.354186	37488.530495
513.718449	37453.587737
514.082655	38353.859676
514.446803	38035.352014
514.810894	38662.804269
515.174927	38665.445833
515.538904	38678.318420
515.902822	39322.373714
516.266684	39006.517700
516.630488	39367.272751
516.994235	39371.993792
517.357925	39947.542326
517.721558	40208.928674
518.085133	40598.385535
518.448651	40778.301795
518.812112	40676.084839
519.175516	40817.869812
519.538863	41284.693261
519.902152	41345.161901
520.265385	41897.140521
520.628560	41904.046902
520.991678	41868.461397
521.354739	42090.062958
521.717743	42459.211531
522.080690	42349.848739
522.443580	43066.650404
522.806413	43070.675766
523.169189	43199.177298
523.531908	43419.122840
523.894569	43273.723360
524.257174	43469.957836
524.619722	43809.708920
524.982213	43973.294362
525.344647	44016.635682
525.707025	44143.156041
526.069345	44583.596611
526.431608	44491.431716
526.793815	44884.339247
527.155964	44422.337661
527.518057	44671.335373
527.880093	44524.489082
528.242072	45167.210992
528.603995	44878.002516
528.965860	44793.416996
529.327669	45024.004414
529.689421	45075.772023
530.051117	45051.912242
530.412755	45321.072048
530.774337	45379.017591
531.135862	45310.036963
531.497331	45468.757692
531.858743	45466.675695
532.220098	45881.905455
532.581396	45588.079283
532.942638	45348.974835
533.303824	45610.202386
533.664953	45665.720613
534.026025	45329.153018
534.387040	45912.419559
534.747999	45961.134749
535.108902	46300.091852
535.469748	45622.744777
535.830537	45881.177008
536.191270	46144.814231
536.551947	45867.109668
536.912567	46152.194480
537.273131	46273.802234
537.633638	45913.987358
537.994089	46073.066009
538.354483	45829.137177
538.714821	46491.038157
539.075103	46771.303625
539.435328	46641.067936
539.795497	46386.870274
540.155609	46519.248453
540.515665	47119.889331
540.875665	46413.994202
541.235609	46669.328645
541.595496	46820.268353
541.955328	47387.849343
542.315102	46820.901017
542.674821	46719.717498
543.034483	46609.578369
543.394090	46638.890158
543.753640	46604.459077
544.113134	47672.629165
544.472571	46768.064684
544.831953	47923.552598
545.191278	47169.592588
545.550548	46852.251953
545.909761	47502.175151
546.268918	47632.234400
546.628019	48039.952840
546.987064	47468.580902
547.346053	46788.977911
547.704986	47714.523674
548.063863	47343.772015
548.422684	47546.880103
548.781449	47108.198896
549.140158	47648.265269
549.498811	47406.395748
549.857408	46787.069834
550.215949	47631.674832
550.574434	47475.383939
550.932864	47421.713294
551.291237	48138.855238
551.649555	47874.469404
552.007817	48053.435406
552.366022	47764.610058
552.724173	47822.406887
553.082267	48223.324812
553.440305	48605.474520
553.798288	47839.761059
554.156215	48229.061645
554.514086	48440.240620
554.871902	48002.834825
555.229661	48190.574956
555.587365	47870.134011
555.945014	47993.785953
556.302606	48031.055204
556.660143	48115.731465
557.017625	48357.573259
557.375050	48007.419754
557.732421	48420.370913
558.089735	48504.348974
558.446994	48353.139564
558.804197	48826.047686
559.161345	48690.821255
559.518437	48039.410916
559.875474	48277.517215
560.232455	48496.308333
560.589381	48526.764464
560.946251	48375.358450
561.303065	49018.758395
561.659825	48695.925423
562.016528	48477.837546
562.373177	48075.694621
562.729770	48722.179752
563.086307	48225.348835
563.442789	48766.551988
563.799216	48626.395308
564.155587	48532.949960
564.511904	48482.079677
564.868164	48536.100681
565.224370	48861.345845
565.580520	48581.637424
565.936615	48770.433677
566.292654	48412.824305
566.648638	48767.371176
567.004567	48714.665912
567.360441	48787.462694
567.716260	48487.811469
568.072023	48903.356301
568.427732	48794.079209
568.783385	48323.389195
569.138982	48753.588661
569.494525	48891.993540
569.850013	48485.679061
570.205445	48628.613416
570.560823	48379.393893
570.916145	48254.174152
571.271412	48492.595524
571.626625	48117.659706
571.981782	48186.252166
572.336884	47795.774472
572.691931	48119.605592
573.046923	47752.203779
573.401860	47567.924400
573.756743	47597.077393
574.111570	47736.137622
574.466342	47650.737955
574.821059	47804.382242
575.175722	47282.005277
575.530330	47366.462248
575.884882	47000.124119
576.239380	46889.004485
576.593823	46987.808580
576.948211	46935.430992
577.302544	46454.711602
577.656823	46457.564895
578.011047	46701.138325
578.365216	46539.080353
578.719330	46233.455360
579.073389	46202.419496
579.427394	46264.082890
579.781344	46132.962478
580.135239	45896.058494
580.489080	45954.220807
580.842866	45443.027642
581.196597	45917.077585
581.550273	45892.736374
581.903895	45819.037225
582.257463	46251.152330
582.610975	45673.773857
582.964434	45990.950654
583.317837	45456.260671
583.671186	45439.012363
584.024481	45696.010386
584.377721	45215.714454
584.730906	45401.090283
585.084037	45545.506738
585.437113	45246.145379
585.790135	45376.696140
586.143103	44910.137352
586.496016	45063.428758
586.848874	45173.469584
587.201679	45178.162899
587.554428	44647.364687
587.907124	44906.351445
588.259765	44659.992777
588.612352	44807.728832
588.964884	44231.363630
589.317362	44516.597156
589.669786	44510.333522
590.022155	44361.117889
590.374470	44831.253376
590.726731	44379.792843
591.078937	43695.983009
591.431090	44041.284404
591.783188	43508.426881
592.135232	43321.637007
592.487222	43550.439857
592.839157	43682.707131
593.191038	43324.273531
593.542866	43116.146973
593.894639	42468.336019
594.246358	42752.614246
594.598022	42732.134559
594.949633	42251.147988
595.301190	42221.722773
595.652692	42151.791887
596.004141	42633.038077
596.355535	41495.930210
596.706876	41498.508760
597.058162	41175.322907
597.409395	41649.128354
597.760573	41856.448327
598.111698	41432.071393
598.462768	41322.605258
598.813785	41308.757208
599.164748	40907.446074
599.515657	41148.314926
599.866511	40622.424277
600.217312	41267.704572
600.568060	40207.786853
600.918753	40996.165341
601.269392	40853.488084
601.619978	40553.625130
601.970510	40737.531463
602.320988	40826.593528
602.671412	41064.599004
603.021783	40894.044167
603.372100	40443.196134
603.722363	40500.269557
604.072572	40492.748156
604.422728	40458.954781
604.772830	40210.456143
605.122878	40354.212207
605.472872	40177.111431
605.822813	40389.117156
606.172701	40086.980642
606.522534	40373.078725
606.872314	40513.064006
607.222041	40330.997694
607.571714	40595.983425
607.921333	40058.059542
608.270899	40215.335980
608.620411	40551.389378
608.969870	40265.505543
609.319276	40250.245971
609.668627	40213.443027
610.017926	40549.060365
610.367171	40651.433597
610.716362	40643.551753
611.065500	40485.488894
611.414585	40641.769705
611.763616	40734.242110
612.112594	40599.950813
612.461518	40667.570330
612.810389	40968.580147
613.159207	40708.433923
613.507971	40625.113733
613.856682	41052.026367
614.205340	40822.812663
614.553945	41431.499222
614.902496	40747.853226
615.250994	41076.869173
615.599439	41099.927410
615.947830	41135.822946
616.296169	41073.778945
616.644454	41022.311285
616.992686	41097.845414
617.340864	41435.035592
617.688990	40900.857286
618.037063	41488.436534
618.385082	41222.838303
618.733048	41460.190949
619.080961	41284.221913
619.428821	41249.437951
619.776628	41219.102808
620.124382	40975.375622
620.472083	41017.045800
620.819731	41086.217992
621.167326	40614.287855
621.514868	40565.444115
621.862357	39989.991362
622.209793	40037.184124
622.557176	39592.113254
622.904506	39296.744488
623.251783	38920.470245
623.599007	38554.797547
623.946179	38420.266795
624.293297	38109.593087
624.640363	37552.348982
624.987376	37343.277208
625.334336	37097.611699
625.681243	36682.039141
626.028097	36513.929263
626.374899	36293.829965
626.721647	36202.741356
627.068343	35905.701448
627.414987	35573.572589
627.761577	35270.856342
628.108115	35488.361965
628.454600	34756.648567
628.801032	34875.428234
629.147412	34694.702868
629.493739	34523.548134
629.840014	34060.523194
630.186236	34349.706464
630.532405	33752.851493
630.878521	33882.782192
631.224585	33616.710092
631.570597	33228.939497
631.916556	33314.109791
632.262462	33139.305261
632.608316	32992.574916
632.954117	32808.751762
633.299866	32697.110369
633.645562	32558.602146
633.991206	32044.795143
634.336797	31630.886166
634.682336	31468.462709
635.027823	31199.249971
635.373257	31037.902801
635.718639	30690.053103
636.063968	30544.008355
636.409245	29927.218141
636.754470	29816.050617
637.099642	29562.951926
637.444762	29022.893114
637.789829	29054.150789
638.134845	28660.038422
638.479808	28514.863274
638.824719	28407.539629
639.169577	27915.384382
639.514383	27920.440659
639.859137	27510.415891
640.203839	27571.456702
640.548489	27286.079503
640.893086	27197.241770
641.237632	26888.455973
641.582125	26884.967495
641.926566	26638.424825
642.270955	26593.417403
642.615292	26471.897869
642.959576	26295.850694
643.303809	26222.136422
643.647990	26223.268161
643.992118	26126.175538
644.336195	25901.168677
644.680219	25876.623299
645.024192	25936.960870
645.368112	26262.889110
645.711981	26185.056215
646.055797	26623.233308
646.399562	26362.172114
646.743274	26914.145693
647.086935	27124.099668
647.430544	27010.507349
647.774101	26954.490047
648.117606	27106.957225
648.461059	27135.041493
648.804460	26784.451928
649.147810	26338.725708
649.491108	26045.968260
649.834354	25899.719346
650.177548	25227.761264
650.520690	24768.265132
650.863781	24675.187788
651.206820	24480.891637
651.549807	24108.723413
651.892742	23590.858281
652.235626	23443.301188
652.578458	23262.641357
652.921238	22676.836595
653.263967	22814.230723
653.606644	22508.731758
653.949269	22360.070652
654.291843	22008.737517
654.634365	22176.507117
654.976836	21766.384046
655.319255	21761.345413
655.661622	21588.471644
656.003938	21418.599883
656.346203	21226.040409
656.688416	21321.091365
657.030577	21095.401428
657.372687	20894.297198
657.714746	20917.370559
658.056753	20964.971654
658.398708	20483.034826
658.740612	20453.536514
659.082465	20514.161431
659.424266	20374.980214
659.766016	20291.743202
660.107715	20107.136148
660.449362	20091.594271
660.790958	19996.639097
661.132503	19878.676097
661.473996	19858.662717
661.815438	19839.458441
662.156829	19826.916050
662.498168	19625.590010
662.839456	19536.338901
663.180693	19548.772907
663.521879	19511.417957
663.863013	19419.386653
664.204097	19325.240584
664.545129	19489.972889
664.886110	19382.727382
665.227040	19375.815960
665.567918	19279.061094
665.908746	19234.658611
666.249522	19219.739316
666.590248	19168.291821
666.930922	19154.194234
667.271545	19081.122709
667.612118	19041.721051
667.952639	18855.778091
668.293109	18801.341191
668.633528	18644.888982
668.973896	18551.148726
669.314213	18461.040621
669.654480	18275.949617
669.994695	18184.359413
670.334859	18060.967090
670.674973	17875.641672
671.015035	17911.244821
671.355047	17789.881563
671.695008	17672.488213
672.034918	17544.788225
672.374777	17522.975152
672.714585	17374.208181
673.054342	17377.603398
673.394049	17225.456334
673.733705	17269.135412
674.073310	17048.511834
674.412864	17014.799118
674.752368	16796.338195
675.091820	16850.467585
675.431223	16574.799648
675.770574	16402.863535
676.109875	16247.061634
676.449125	16061.532049
676.788324	15939.641990
677.127473	15623.158352
677.466571	15503.292316
677.805619	15302.999712
678.144616	15206.726277
678.483562	15118.415343
678.822458	14898.905861
679.161303	14792.207319
679.500098	14698.673751
679.838842	14590.740126
680.177535	14561.740889
680.516179	14590.813223
680.854771	14560.757864
681.193314	14816.737574
681.531805	15188.134501
681.870247	15486.835469
682.208638	15810.901003
682.546978	15921.347643
682.885268	15952.653208
683.223508	15702.370002
683.561697	15517.483164
683.899836	15368.721235
684.237925	15120.784686
684.575963	14969.857581
684.913951	14737.901489
685.251889	14740.364093
685.589776	14662.480787
685.927614	14597.275982
686.265401	14611.920534
686.603137	14597.724645
686.940824	14743.434156
687.278460	14830.484800
687.616046	14856.461866
687.953582	15101.875318
688.291068	15019.339026
688.628504	15111.130876
688.965889	15075.283231
689.303224	14910.808025
689.640510	14740.235544
689.977745	14414.143466
690.314930	14047.719637
690.652065	13824.668744
690.989150	13475.924241
691.326185	13065.491139
691.663170	12737.526273
692.000105	12372.650078
692.336990	12071.698235
692.673825	11842.355982
693.010610	11600.927562
693.347345	11346.470281
693.684030	11041.482993
694.020665	10914.569425
694.357251	10603.759605
694.693786	10569.212578
695.030272	10429.103789
695.366707	10197.740033
695.703093	10039.752792
696.039429	10016.586170
696.375716	9885.944668
696.711952	9843.820786
697.048139	9746.529037
697.384276	9660.138784
697.720363	9666.888889
698.056400	9595.738044
698.392388	9492.749791
698.728326	9459.755439
699.064214	9367.545174
699.400053	9333.618208
699.735842	9152.718923
700.071581	9048.092296
700.407270	8931.455119
700.742910	8828.066095
701.078501	8697.734624
701.414042	8594.320394
701.749533	8456.291081
702.084974	8317.188002
702.420366	8350.467179
702.755709	8181.938886
703.091002	8046.112557
703.426246	8032.161164
703.761440	7966.091802
704.096584	7859.171449
704.431679	7812.318965
704.766725	7756.427692
705.101721	7697.320164
705.436668	7703.548509
705.771565	7585.462001
706.106413	7647.604304
706.441212	7638.089127
706.775961	7641.121381
707.110661	7631.031511
707.445311	7711.800878
707.779913	7643.846124
708.114465	7701.937861
708.448967	7769.554857
708.783421	7921.444823
709.117825	8006.229468
709.452180	8042.797998
709.786485	8153.176582
710.120742	8350.961213
710.454949	8371.982824
710.789107	8502.347063
711.123216	8699.110859
711.457275	8767.302547
711.791286	8914.138756
712.125247	8945.187222
712.459159	8859.797638
712.793023	9049.191267
713.126837	8738.910768
713.460602	8773.452755
713.794318	8639.756313
714.127985	8523.275413
714.461602	8233.572904
714.795171	8181.036519
715.128691	7864.318467
715.462162	7676.263264
715.795584	7516.105806
716.128957	7402.211018
716.462281	7265.005933
716.795556	7152.356309
717.128782	6996.002402
717.461960	6814.412479
717.795088	6769.183247
718.128167	6660.448079
718.461198	6515.698908
718.794180	6459.918541
719.127113	6359.380289
719.459997	6284.718280
719.792833	6168.194529
720.125619	6154.946377
720.458357	6045.898657
720.791046	5991.592828
721.123686	5934.650474
721.456278	5859.413774
721.788821	5837.996432
722.121315	5754.603144
722.453761	5756.279328
722.786158	5717.711980
723.118506	5718.042176
723.450805	5675.391494
723.783056	5693.267425
724.115259	5664.144680
724.447412	5638.558303
724.779518	5668.918652
725.111574	5665.092417
725.443582	5707.503644
725.775542	5683.023801
726.107453	5784.310664
726.439315	5747.842957
726.771129	5824.851623
727.102895	5906.082256
727.434612	5960.544361
727.766281	5987.393547
728.097901	6051.481735
728.429473	6055.502056
728.760996	6044.769439
729.092471	6046.579213
729.423897	6002.181771
729.755276	5944.495848
730.086606	5934.216935
730.417887	6031.238982
730.749120	6116.520182
731.080305	6146.230222
731.411442	6213.335541
731.742530	6212.715479
732.073570	6219.135389
732.404562	6266.562564
732.735506	6234.014354
733.066401	6190.042890
733.397249	6072.679787
733.728048	5926.350215
734.058798	5726.544082
734.389501	5557.788936
734.720156	5431.318989
735.050762	5287.404129
735.381320	5187.480898
735.711831	5119.228716
736.042293	5026.481568
736.372707	5017.977141
736.703073	4960.969253
737.033391	4982.459692
737.363661	4968.193227
737.693883	4978.885514
738.024056	5008.683774
738.354182	5041.196696
738.684260	5096.077217
739.014290	5148.112007
739.344272	5187.251526
739.674207	5246.023818
740.004093	5278.330052
740.333931	5280.916164
740.663722	5283.673675
740.993464	5274.642448
741.323159	5235.414710
741.652806	5166.050953
741.982405	5117.734014
742.311956	5034.605387
742.641460	4999.715562
742.970915	4921.055917
743.300323	4840.538608
743.629683	4779.618785
743.958996	4715.039083
744.288260	4646.948218
744.617477	4577.455913
744.946647	4556.724167
745.275768	4490.614476
745.604842	4443.063792
745.933869	4402.288419
746.262847	4387.527921
746.591778	4358.679918
746.920662	4325.463755
747.249498	4314.340449
747.578286	4331.591278
747.907027	4351.602138
748.235720	4385.902149
748.564365	4395.518150
748.892963	4375.139285
749.221514	4381.037435
749.550017	4354.049618
749.878473	4338.757278
750.206881	4295.075680
750.535242	4274.890900
750.863555	4254.386007
751.191821	4224.542376
751.520039	4215.932085
751.848210	4195.795196
752.176334	4192.362170
752.504411	4177.188297
752.832440	4142.270745
753.160421	4155.685255
753.488356	4128.780617
753.816243	4111.030715
754.144082	4080.322526
754.471875	4065.972882
754.799620	4051.895459
755.127318	4040.565466
755.454969	4032.769322
755.782572	4024.564844
756.110129	4012.148482
756.437638	4000.649610
756.765100	3995.653827
757.092515	3987.930779
757.419882	3989.513701
757.747203	3986.652846
758.074477	3992.863548
758.401703	3984.858196
758.728882	4007.190507
759.056014	4011.490611
759.383099	4024.239689
759.710138	4034.977347
760.037129	4045.205848
760.364073	4053.241447
760.690970	4044.837844
761.017820	4039.597565
761.344623	4060.858631
761.671379	4089.242848
761.998088	4142.031290
762.324751	4309.977331
762.651366	4678.626829
762.977935	5224.175457
763.304456	5646.692205
763.630931	5842.881310
763.957359	5728.908383
764.283740	5459.196570
764.610074	5174.346172
764.936362	4840.251263
765.262602	4586.277932
765.588796	4333.726206
765.914943	4155.508815
766.241044	4001.945187
766.567097	3890.036612
766.893104	3795.172179
767.219064	3725.352198
767.544978	3654.574398
767.870845	3599.867797
768.196665	3564.279771
768.522438	3532.149977
768.848165	3500.831809
769.173846	3467.671099
769.499479	3449.727112
769.825066	3422.330961
770.150607	3391.254768
770.476101	3377.772203
770.801548	3355.124819
771.126949	3331.691015
771.452303	3316.262564
771.777611	3290.439253
772.102872	3281.455917
772.428087	3261.306425
772.753256	3239.669793
773.078378	3227.192937
773.403453	3205.072354
773.728482	3186.309179
774.053465	3175.674865
774.378401	3163.107269
774.703291	3143.920637
775.028135	3131.620222
775.352932	3124.121506
775.677683	3107.493260
776.002388	3091.520364
776.327046	3085.292018
776.651658	3074.907241
776.976224	3059.743450
777.300743	3061.207906
777.625216	3050.097203
777.949643	3045.449259
778.274024	3045.166954
778.598359	3033.264790
778.922647	3032.770757
779.246889	3026.769263
779.571086	3022.718696
779.895236	3023.679036
780.219339	3023.603418
780.543397	3022.030578
780.867409	3025.110723
781.191374	3023.137112
781.515294	3017.813653
781.839167	3022.380939
782.162995	3020.205681
782.486776	3012.011285
782.810511	3004.129441
783.134201	2991.024962
783.457844	2989.104282
783.781441	2981.106492
784.104993	2971.137610
784.428498	2969.640387
784.751958	2968.526292
785.075372	2955.958696
785.398739	2951.288067
785.722061	2951.872840
786.045337	2950.995680
786.368568	2959.658903
786.691752	2957.372739
787.014891	2985.731750
787.337983	3011.580267
787.661030	3067.363154
787.984031	3125.328862
788.306987	3163.336641
788.629897	3179.075124
788.952760	3168.347548
789.275579	3148.303921
789.598351	3106.500152
789.921078	3070.826427
790.243759	3033.975592
790.566395	3006.932323
790.888984	2981.928200
791.211529	2960.256279
791.534027	2940.373968
791.856480	2921.255393
792.178888	2911.745256
792.501249	2900.591703
792.823566	2885.427912
793.145836	2881.183261
793.468062	2881.349619
793.790241	2871.355531
794.112375	2876.202601
794.434464	2885.861451
794.756507	2888.624004
795.078505	2898.171949
795.400457	2917.010741
795.722364	2948.424691
796.044226	2975.296562
796.366042	2997.404542
796.687812	2990.243583
797.009538	2994.626866
797.331218	2985.033550
797.652852	2973.892600
797.974442	2959.245528
798.295986	2947.545010
798.617484	2933.230653
798.938938	2920.136256
799.260346	2909.184350
799.581709	2896.342010
799.903026	2885.506050
800.224299	2873.994575
800.545526	2863.138450
800.866708	2854.742409
801.187845	2851.085052
801.508936	2836.309430
801.829983	2836.417814
802.150984	2823.237718
802.471940	2818.373004
802.792851	2818.047850
803.113717	2813.720019
803.434538	2811.816984
803.755314	2809.810604
804.076045	2804.552681
804.396731	2801.349028
804.717372	2801.901034
805.037967	2801.588482
805.358518	2803.357927
805.679024	2810.029895
805.999485	2809.092240
806.319901	2811.020481
806.640272	2812.154741
806.960598	2817.604228
807.280879	2817.256389
807.601115	2822.761329
807.921306	2814.640030
808.241453	2813.112560
808.561554	2812.021150
808.881611	2808.144503
809.201623	2805.160140
809.521590	2805.003864
809.841513	2801.102011
810.161390	2800.381126
810.481223	2789.298149
810.801011	2787.374949
811.120755	2787.271606
811.440453	2782.422016
811.760107	2773.778957
812.079716	2774.288114
812.399281	2766.491969
812.718801	2764.334356
813.038276	2760.558531
813.357707	2753.805906
813.677093	2758.295053
813.996434	2750.803899
814.315731	2750.902201
814.634983	2747.580081
814.954191	2748.104361
815.273354	2753.211050
815.592473	2756.641555
815.911547	2763.210178
816.230577	2763.744541
816.549562	2774.630912
816.868502	2779.667025
817.187399	2783.941923
817.506250	2791.092800
817.825058	2790.802934
818.143821	2801.936322
818.462539	2815.675987
818.781213	2830.340703
819.099843	2857.202492
819.418429	2913.837335
819.736970	2967.558391
820.055466	3029.050385
820.373919	3097.751230
820.692327	3203.774257
821.010691	3389.702093
821.329011	3891.856469
821.647286	4848.554043
821.965517	6138.439119
822.283704	7027.640684
822.601847	7388.841878
822.919945	6864.980293
823.237999	6242.478452
823.556010	5643.488552
823.873976	5125.893122
824.191897	4671.049975
824.509775	4335.112524
824.827609	4019.185933
825.145398	3815.072134
825.463144	3689.018082
825.780845	3655.748987
826.098502	3714.034808
826.416116	3896.766553
826.733685	4104.837657
827.051210	4203.092266
827.368692	4136.385198
827.686129	3931.840381
828.003522	3711.027760
828.320872	3507.309692
828.638177	3348.190712
828.955439	3225.720920
829.272656	3125.318780
829.589830	3039.533465
829.906960	2966.668627
830.224046	2908.960018
830.541088	2864.575179
830.858086	2831.424552
831.175041	2808.956129
831.491952	2800.623102
831.808819	2793.436937
832.125642	2802.755510
832.442421	2838.648525
832.759157	2902.721590
833.075849	3034.172197
833.392497	3189.253213
833.709101	3314.052018
834.025662	3330.075325
834.342179	3263.847167
834.658653	3164.296981
834.975083	3069.263669
835.291469	2988.688387
835.607811	2922.382090
835.924110	2873.840820
836.240366	2832.490756
836.556578	2791.354940
836.872746	2755.325814
837.188871	2729.368912
837.504952	2709.751262
837.820990	2692.329035
838.136984	2679.864782
838.452935	2674.947136
838.768842	2671.995541
839.084706	2684.106913
839.400526	2730.304047
839.716303	2803.569656
840.032037	2859.763398
840.347727	2867.239429
840.663373	2833.231805
840.978977	2779.341871
841.294537	2747.519587
841.610054	2716.327447
841.925527	2695.265507
842.240957	2676.003258
842.556344	2658.029024
842.871687	2647.309010
843.186987	2632.664458
843.502244	2620.611059
843.817458	2612.812394
844.132629	2604.149172
844.447756	2598.581217
844.762840	2594.558376
845.077881	2590.754826
845.392879	2587.236100
845.707833	2584.743250
846.022745	2582.842735
846.337613	2581.050605
846.652438	2576.725295
846.967221	2579.001376
847.281960	2574.454255
847.596656	2574.981055
847.911309	2572.329408
848.225919	2571.106929
848.540485	2570.307906
848.855009	2570.096177
849.169490	2569.433266
849.483928	2568.752710
849.798323	2564.813048
850.112675	2565.826320
850.426984	2567.457133
850.741251	2567.666341
851.055474	2564.210630
851.369654	2563.744323
851.683792	2564.157698
851.997887	2564.560990
852.311938	2563.288099
852.625947	2565.140723
852.939914	2565.249108
853.253837	2564.389591
853.567718	2568.046948
853.881555	2565.508727
854.195350	2564.462688
854.509103	2562.645352
854.822812	2564.603840
855.136479	2560.996895
855.450103	2565.236505
855.763685	2559.928170
856.077224	2557.347099
856.390720	2562.496638
856.704173	2560.941442
857.017584	2565.964952
857.330953	2560.270968
857.644278	2566.713563
857.957561	2569.065261
858.270802	2566.983265
858.584000	2567.560477
858.897155	2563.076371
859.210268	2566.953018
859.523339	2565.906978
859.836367	2562.330280
860.149352	2564.266083
860.462295	2561.236349
860.775195	2564.447564
861.088054	2561.463201
861.400869	2562.814231
861.713642	2559.361040
862.026373	2562.254662
862.339062	2563.618295
862.651708	2563.555280
862.964312	2567.903275
863.276873	2565.264231
863.589392	2567.066444
863.901869	2568.611557
864.214303	2569.650035
864.526696	2571.563153
864.839045	2574.048442
865.151353	2573.299831
865.463619	2576.750500
865.775842	2577.289904
866.088023	2574.229923
866.400162	2579.225707
866.712258	2577.395768
867.024313	2578.277970
867.336325	2575.936354
867.648296	2577.199163
867.960224	2578.051118
868.272110	2580.339802
868.583954	2575.848134
868.895755	2580.516242
869.207515	2576.011971
869.519233	2580.148238
869.830909	2577.993145
870.142542	2577.736046
870.454134	2581.380800
870.765684	2583.150245
871.077191	2582.174782
871.388657	2583.712334
871.700081	2583.891295
872.011463	2587.377253
872.322803	2585.154104
872.634101	2590.094435
872.945357	2592.536874
873.256571	2594.394539
873.567744	2594.565938
873.878874	2596.375712
874.189963	2597.446957
874.501010	2598.881166
874.812015	2598.992071
875.122979	2603.864346
875.433900	2602.909048
875.744780	2600.801845
876.055618	2601.439551
876.366415	2601.492483
876.677169	2603.708071
876.987882	2607.481374
877.298554	2609.762496
877.609183	2611.020264
877.919771	2615.050667
878.230317	2623.116513
878.540822	2633.972638
878.851285	2642.401447
879.161707	2657.978612
879.472087	2687.582788
879.782425	2730.694736
880.092722	2802.538740
880.402977	2934.990016
880.713191	3129.686939
881.023363	3350.726412
881.333494	3508.491842
881.643583	3574.808221
881.953631	3554.341137
882.263637	3495.843587
882.573602	3414.640681
882.883526	3338.766275
883.193408	3266.763474
883.503248	3191.410827
883.813048	3123.728296
884.122806	3061.434758
884.432522	2993.298522
884.742197	2934.639656
885.051831	2880.233003
885.361424	2828.828357
885.670975	2789.802265
885.980485	2755.960999
886.289954	2730.069633
886.599382	2706.058617
886.908768	2687.686132
887.218113	2668.431445
887.527417	2658.518016
887.836680	2643.639050
888.145901	2635.671507
888.455082	2628.364354
888.764221	2622.607356
889.073319	2616.318517
889.382376	2614.755759
889.691392	2609.744852
890.000366	2608.051025
890.309300	2608.471961
890.618193	2606.142948
890.927044	2604.212186
891.235855	2605.222937
891.544625	2610.183433
891.853353	2609.656632
892.162041	2614.516304
892.470687	2620.175000
892.779293	2629.332256
893.087858	2642.751807
893.396381	2660.705877
893.704864	2690.899867
894.013306	2731.594582
894.321707	2774.588062
894.630068	2815.063487
894.938387	2828.281392
895.246665	2825.034889
895.554903	2807.005202
895.863100	2781.073507
896.171256	2759.802358
896.479371	2740.288052
896.787446	2718.406923
897.095480	2703.780016
897.403473	2689.962213
897.711425	2677.550892
898.019336	2665.386588
898.327207	2652.193888
898.635038	2643.812970
898.942827	2632.316619
899.250576	2626.436113
899.558284	2619.358333
899.865952	2611.494133
900.173579	2602.031887
900.481165	2599.607092
900.788711	2597.250352
901.096216	2592.269693
901.403681	2591.319435
901.711105	2590.777511
902.018489	2588.007397
902.325832	2589.955803
902.633135	2592.476380
902.940397	2604.411312
903.247619	2628.455095
903.554800	2682.902077
903.861941	2757.808582
904.169041	2825.213850
904.476101	2864.905375
904.783121	2862.301619
905.090100	2836.778257
905.397039	2804.487146
905.703938	2774.933382
906.010796	2743.383320
906.317614	2722.021431
906.624391	2701.970241
906.931129	2680.386541
907.237826	2666.472957
907.544483	2647.228352
907.851099	2635.658904
908.157675	2616.590739
908.464211	2602.924171
908.770707	2586.527818
909.077163	2581.784092
909.383578	2571.578277
909.689954	2569.743297
909.996289	2561.027142
910.302584	2555.887685
910.608839	2560.351627
910.915054	2558.907336
911.221229	2553.820812
911.527363	2553.929197
911.833458	2557.815927
912.139513	2560.986812
912.445527	2556.782490
912.751502	2560.465053
913.057436	2565.143244
913.363331	2572.049624
913.669186	2578.461972
913.975000	2588.088055
914.280775	2606.125304
914.586510	2626.967954
914.892205	2655.473159
915.197859	2697.060157
915.503475	2742.095305
915.809050	2790.079528
916.114585	2819.557675
916.420081	2834.053513
916.725536	2838.378823
917.030952	2823.709066
917.336328	2809.142652
917.641665	2794.545991
917.946961	2771.187804
918.252218	2757.536360
918.557435	2733.467371
918.862612	2720.173848
919.167750	2703.222968
919.472848	2688.409537
919.777906	2670.447906
920.082925	2658.570948
920.387904	2638.212248
920.692843	2628.369395
920.997743	2614.849021
921.302603	2604.663369
921.607423	2597.469643
921.912204	2590.011256
922.216946	2584.279464
922.521647	2579.152610
922.826310	2573.446024
923.130932	2569.534089
923.435516	2564.918912
923.740059	2564.351782
924.044564	2555.388611
924.349028	2554.685370
924.653454	2551.113712
924.957840	2551.136398
925.262186	2546.629606
925.566493	2543.869574
925.870761	2542.949564
926.174989	2540.776827
926.479178	2539.229192
926.783328	2536.469161
927.087438	2536.635519
927.391509	2535.518903
927.695541	2532.791639
927.999533	2528.123530
928.303486	2527.400125
928.607400	2527.997502
928.911275	2526.991791
929.215110	2529.214940
929.518906	2526.969106
929.822663	2528.360465
930.126381	2528.862059
930.430060	2526.162522
930.733699	2524.236801
931.037299	2526.651513
931.340861	2525.567665
931.644383	2525.055988
931.947866	2525.073632
932.251309	2528.461288
932.554714	2525.184538
932.858080	2527.170752
933.161407	2522.116996
933.464694	2524.224198
933.767943	2521.239835
934.071153	2525.451719
934.374323	2525.141688
934.677455	2526.255783
934.980548	2524.758560
935.283602	2523.147912
935.586617	2521.360823
935.889593	2522.653878
936.192530	2527.200999
936.495428	2525.791997
936.798287	2526.802748
937.101108	2524.609846
937.403890	2526.520443
937.706632	2530.016484
938.009336	2531.672503
938.312002	2535.254242
938.614628	2537.197607
938.917216	2541.336395
939.219765	2545.049204
939.522275	2543.241951
939.824747	2546.591797
940.127179	2546.128011
940.429573	2547.715975
940.731929	2545.225645
941.034246	2544.214893
941.336524	2545.066848
941.638763	2543.103319
941.940964	2544.252702
942.243126	2540.040818
942.545250	2536.222144
942.847335	2538.478060
943.149381	2535.513862
943.451389	2534.520755
943.753359	2533.078985
944.055290	2532.834489
944.357182	2533.283151
944.659036	2530.644107
944.960851	2531.906916
945.262628	2529.955990
945.564367	2531.601927
945.866067	2530.649148
946.167729	2531.380116
946.469352	2528.015146
946.770937	2527.074970
947.072484	2527.561442
947.373992	2526.762419
947.675462	2528.776360
947.976893	2528.942718
948.278286	2521.595236
948.579641	2525.197141
948.880958	2518.958713
949.182236	2527.931967
949.483476	2523.659589
949.784678	2526.001205
950.085841	2526.069260
950.386967	2527.518592
950.688054	2525.741585
950.989103	2525.907943
951.290114	2527.352234
951.591087	2527.266534
951.892021	2529.282996
952.192917	2528.753675
952.493776	2530.823068
952.794596	2530.878521
953.095378	2532.083357
953.396122	2532.161495
953.696828	2532.405991
953.997496	2531.004550
954.298126	2530.354241
954.598718	2529.106555
954.899272	2528.728469
955.199788	2526.197810
955.500266	2528.005063
955.800706	2523.667150
956.101108	2521.484331
956.401472	2521.479290
956.701798	2519.863600
957.002087	2515.371932
957.302337	2515.497961
957.602550	2516.503671
957.902724	2513.186592
958.202861	2510.179543
958.502960	2511.838083
958.803022	2508.170643
959.103045	2507.119563
959.403031	2510.179543
959.702979	2507.905983
960.002889	2504.039418
960.302762	2507.530417
960.602596	2506.108812
960.902393	2504.780467
961.202153	2504.508245
961.501875	2500.273676
961.801559	2503.580673
962.101205	2502.940446
962.400814	2502.796773
962.700385	2501.556650
962.999918	2501.453306
963.299414	2495.676144
963.598873	2497.969869
963.898293	2496.250835
964.197677	2499.058758
964.497022	2500.006495
964.796331	2500.608913
965.095601	2500.233347
965.394835	2498.985661
965.694030	2499.116731
965.993189	2500.321567
966.292309	2497.934581
966.591393	2503.492453
966.890439	2499.048676
967.189447	2496.124806
967.488419	2498.279900
967.787353	2496.976761
968.086249	2498.221926
968.385108	2500.200579
968.683930	2497.498521
968.982714	2499.981289
969.281462	2499.698984
969.580172	2501.037411
969.878844	2502.627895
970.177480	2500.450116
970.476078	2499.525065
970.774639	2499.540188
971.073162	2501.596979
971.371649	2501.423059
971.670098	2501.985148
971.968510	2499.008346
972.266885	2501.082781
972.565223	2503.797443
972.863524	2502.713594
973.161788	2502.181753
973.460014	2500.021618
973.758204	2498.950373
974.056356	2502.932885
974.354471	2504.183091
974.652550	2500.603872
974.950591	2501.097905
975.248595	2501.725528
975.546563	2500.503048
975.844493	2501.080261
976.142386	2499.338542
976.440243	2500.613954
976.738062	2500.331649
977.035845	2499.570435
977.333590	2503.192504
977.631299	2499.809890
977.928971	2498.383243
978.226606	2496.838130
978.524204	2495.368633
978.821765	2492.727069
979.119290	2501.312154
979.416777	2497.498521
979.714228	2499.323418
980.011642	2501.511279
980.309020	2496.588592
980.606360	2499.323418
980.903664	2498.907523
981.200931	2504.223420
981.498162	2502.307782
981.795356	2504.740138
982.092513	2511.321365
982.389633	2516.803619
982.686717	2524.456091
982.983764	2526.051616
983.280775	2529.799714
983.577749	2530.331556
983.874686	2530.223171
984.171587	2526.961544
984.468451	2525.570186
984.765279	2521.718744
985.062070	2521.620442
985.358824	2515.833197
985.655543	2512.009482
985.952224	2512.866478
986.248869	2509.720798
986.545478	2503.999089
986.842050	2502.259891
987.138586	2499.963645
987.435086	2498.060609
987.731549	2493.962151
988.027975	2496.026504
988.324366	2494.776298
988.620719	2493.006853
988.917037	2491.950731
989.213318	2492.164980
989.509563	2489.467963
989.805772	2491.020638
990.101944	2490.554331
990.398080	2489.425113
990.694180	2489.498210
990.990244	2488.905874
991.286271	2490.602222
991.582262	2490.357726
991.878217	2488.900833
992.174136	2491.136585
992.470019	2491.305463
992.765865	2489.556183
993.061676	2486.992756
993.357450	2490.143477
993.653188	2487.600215
993.948890	2492.301091
994.244556	2492.951400
994.540186	2492.285968
994.835780	2493.810917
995.131337	2498.065651
995.426859	2500.213182
995.722345	2502.232164
996.017795	2503.618482
996.313208	2505.385406
996.608586	2507.971518
996.903928	2506.252484
997.199234	2508.160561
997.494504	2510.081241
997.789738	2507.245592
998.084936	2507.331291
998.380099	2504.445231
998.675225	2503.815087
998.970316	2499.822493
999.265371	2500.805518
999.560390	2497.569097
999.855373	2496.220588
1000.150320	2495.809734
1000.445232	2493.470639
1000.740108	2491.035762
1001.034948	2492.999291
1001.329752	2489.299084
1001.624521	2488.497541
1001.919254	2486.879330
1002.213951	2488.094248
1002.508613	2488.502582
1002.803239	2487.385966
1003.097829	2483.910091
1003.392384	2487.242293
1003.686903	2486.496202
1003.981386	2485.251038
1004.275834	2483.927735
1004.570246	2483.627786
1004.864623	2484.220122
1005.158964	2479.524287
1005.453270	2484.459576
1005.747540	2481.956643
1006.041775	2482.823722
1006.335974	2483.400934
1006.630138	2483.831953
1006.924266	2486.796151
1007.218359	2480.789616
1007.512416	2482.700214
1007.806438	2477.810294
1008.100425	2480.260295
1008.394376	2477.490181
1008.688292	2482.102837
1008.982172	2481.276088
1009.276017	2483.254741
1009.569827	2481.860862
1009.863602	2483.181644
1010.157341	2480.345995
1010.451045	2479.904894
1010.744714	2481.898670
1011.038347	2479.627630
1011.331945	2482.876654
1011.625508	2481.384472
1011.919036	2481.235758
1012.212528	2480.635861
1012.505986	2481.344143
1012.799408	2481.155100
1013.092795	2482.783393
1013.386147	2479.652836
1013.679464	2477.989255
1013.972745	2481.414719
1014.265992	2479.257106
1014.559204	2479.703248
1014.852380	2479.226859
1015.145521	2480.940851
1015.438628	2480.431694
1015.731699	2479.655357
1016.024736	2478.276601
1016.317737	2480.161993
1016.610703	2479.199132
1016.903635	2483.020327
1017.196531	2481.122333
1017.489393	2480.880357
1017.782219	2479.983032
1018.075011	2478.034626
1018.367768	2479.899853
1018.660490	2479.574698
1018.953177	2479.574698
1019.245829	2479.574698
