Dividing Wavelength (nm)	Counts (n)	Blue Motor Position (mm): 0.000000	Red Motor Position (mm): 20.000000	
326.493990	2053.977805
326.888308	2053.977805
327.282561	2053.977805
327.676750	2025.323887
328.070874	2029.129958
328.464933	2034.342511
328.858929	2043.618234
329.252859	2052.253731
329.646726	2063.896276
330.040528	2081.794892
330.434265	2099.133941
330.827938	2120.362240
331.221547	2139.725312
331.615091	2159.652993
332.008571	2181.518998
332.401986	2201.408870
332.795338	2220.255224
333.188625	2242.055694
333.581847	2258.575555
333.975006	2277.132042
334.368100	2294.776081
334.761129	2311.439615
335.154095	2326.616008
335.546996	2343.425736
335.939833	2358.045082
336.332606	2369.886752
336.725315	2383.328989
337.117960	2391.546070
337.510540	2401.192318
337.903056	2414.541293
338.295508	2420.220153
338.687896	2428.212902
339.080220	2432.812955
339.472480	2437.372679
339.864676	2441.382917
340.256807	2441.965170
340.648875	2448.067487
341.040879	2444.379883
341.432818	2449.393310
341.824694	2447.084462
342.216506	2450.520008
342.608253	2451.429936
342.999937	2447.354163
343.391557	2447.361725
343.783113	2446.623196
344.174605	2444.271498
344.566033	2444.263936
344.957397	2441.821497
345.348697	2439.507607
345.739934	2436.629109
346.131106	2437.155909
346.522215	2435.883018
346.913260	2433.662390
347.304241	2427.718869
347.695159	2431.643407
348.086012	2427.746596
348.476802	2426.708118
348.867528	2422.997829
349.258191	2422.418096
349.648789	2421.994639
350.039324	2416.671181
350.429796	2423.554876
350.820203	2419.975657
351.210548	2417.238310
351.600828	2419.302663
351.991045	2420.699063
352.381198	2416.474576
352.771288	2418.425502
353.161314	2417.639082
353.551276	2417.371901
353.941175	2417.933990
354.331010	2418.279309
354.720782	2418.828794
355.110490	2419.421130
355.500135	2417.593712
355.889717	2418.856521
356.279235	2420.126892
356.668689	2419.897519
357.058080	2415.748649
357.447408	2420.348702
357.836672	2421.029258
358.225873	2419.945410
358.615010	2423.600247
359.004084	2425.523447
359.393095	2420.875503
359.782043	2423.108734
360.170927	2425.276430
360.559748	2422.534042
360.948505	2424.051430
361.337199	2427.199630
361.725830	2427.118972
362.114398	2426.887079
362.502903	2428.749785
362.891344	2429.180804
363.279722	2429.281627
363.668037	2428.515372
364.056289	2428.379260
364.444478	2431.149374
364.832603	2429.780701
365.220665	2429.357244
365.608665	2430.791453
365.996601	2433.289344
366.384474	2431.028387
366.772284	2432.777667
367.160031	2431.776998
367.547715	2433.957297
367.935336	2435.726742
368.322893	2432.127358
368.710388	2431.620722
369.097820	2433.380085
369.485189	2430.763726
369.872495	2436.124993
370.259738	2436.452668
370.646918	2436.689602
371.034035	2437.138265
371.421090	2436.082143
371.808081	2439.429470
372.195010	2441.624892
372.581875	2442.489450
372.968678	2445.546910
373.355418	2446.577826
373.742096	2448.851386
374.128710	2450.666202
374.515262	2451.810543
374.901751	2456.576954
375.288177	2456.483693
375.674540	2461.993674
376.060841	2465.255301
376.447079	2467.670013
376.833254	2470.697226
377.219367	2480.880357
377.605417	2484.716675
377.991404	2490.912253
378.377329	2498.605054
378.763191	2503.898266
379.148991	2511.757424
379.534727	2520.017355
379.920402	2529.920702
380.306013	2537.527803
380.691563	2551.600184
381.077049	2560.281051
381.462474	2572.407546
381.847835	2587.117633
382.233134	2602.107504
382.618371	2611.920110
383.003545	2632.233440
383.388657	2643.276087
383.773706	2663.932215
384.158693	2674.518638
384.543618	2692.255938
384.928480	2708.662373
385.313280	2732.070971
385.698017	2748.772314
386.082692	2775.636622
386.467305	2788.967954
386.851856	2813.825883
387.236344	2841.164061
387.620770	2858.324148
388.005133	2877.094885
388.389435	2912.249371
388.773674	2925.724375
389.157851	2958.582616
389.541965	2984.920124
389.926018	2998.080057
390.310008	3033.799152
390.693936	3055.871844
391.077802	3083.603232
391.461606	3116.947944
391.845348	3135.595172
392.229027	3163.568534
392.612645	3204.096891
392.996200	3233.128896
393.379694	3273.337139
393.763125	3315.372800
394.146494	3342.673169
394.529801	3380.070969
394.913047	3422.673760
395.296230	3430.598454
395.679351	3453.142494
396.062410	3503.123013
396.445408	3482.124087
396.828343	3529.674771
397.211217	3556.528997
397.594028	3532.575955
397.976778	3583.562185
398.359466	3612.642081
398.742092	3625.176910
399.124656	3639.045124
399.507158	3699.778425
399.889598	3701.653734
400.271977	3771.819034
400.654294	3756.136004
401.036549	3818.001044
401.418742	3817.491888
401.800874	3884.982856
402.182944	3915.295314
402.564952	3998.567613
402.946898	3994.910256
403.328783	3991.938496
403.710606	4040.472205
404.092367	4113.213534
404.474067	4175.348276
404.855705	4158.599042
405.237282	4132.543839
405.618797	4226.901636
406.000250	4307.676044
406.381642	4392.863982
406.762972	4388.657139
407.144240	4353.222869
407.525447	4420.149227
407.906593	4438.236887
408.287677	4522.154455
408.668700	4545.215213
409.049661	4584.054783
409.430560	4626.410557
409.811399	4608.506900
410.192176	4656.876771
410.572891	4741.462291
410.953545	4845.045400
411.334138	4745.908589
411.714669	4852.632336
412.095139	4766.826857
412.475547	4883.902614
412.855894	4883.327922
413.236180	4983.374661
413.616405	4911.321449
413.996568	5015.229713
414.376670	5017.712481
414.756711	5007.136140
415.136691	5079.799332
415.516609	5162.559954
415.896466	5195.042629
416.276262	5276.837871
416.655997	5387.473554
417.035670	5472.671574
417.415283	5615.989057
417.794834	5682.393657
418.174324	5636.136029
418.553753	5637.776924
418.933121	5797.586543
419.312428	5803.393952
419.691674	5718.705088
420.070859	5938.446463
420.449983	5805.967461
420.829045	5986.675182
421.208047	5905.126957
421.586988	6051.638011
421.965867	6106.480724
422.344686	6176.124264
422.723444	6317.823537
423.102141	5932.134939
423.480777	6291.826307
423.859352	6093.862716
424.237866	6426.359579
424.616319	6401.206742
424.994712	6529.562081
425.373044	6426.999806
425.751314	6695.022833
426.129524	6405.630355
426.507673	6619.443333
426.885762	6633.230889
427.263789	6637.931765
427.641756	6682.354413
428.019662	6719.134671
428.397508	6717.483693
428.775292	6667.331774
429.153016	6775.207426
429.530679	6683.927253
429.908282	6683.032448
430.285824	6590.610454
430.663305	6787.066740
431.040726	6646.315204
431.418086	6604.186281
431.795385	6663.248440
432.172624	6767.741477
432.549802	6628.497246
432.926920	6682.440113
433.303977	6585.095432
433.680974	6566.969963
434.057910	6665.607700
434.434786	6641.241283
434.811601	6565.747483
435.188355	6741.451859
435.565050	6608.312466
435.941683	6553.144599
436.318257	6728.334777
436.694770	6627.501618
437.071222	6722.630712
437.447614	6510.967785
437.823946	6423.707932
438.200218	6453.657427
438.576429	6310.198792
438.952580	6348.630028
439.328670	6285.681140
439.704700	6265.725733
440.080670	6133.927286
440.456580	6222.981789
440.832429	6139.744777
441.208218	5926.047745
441.583947	5921.379637
441.959616	5913.258338
442.335224	5866.138673
442.710773	5832.980484
443.086261	5854.687692
443.461689	5645.129447
443.837057	5657.712167
444.212365	5688.942115
444.587612	5612.372030
444.962800	5490.136652
445.337927	5477.392615
445.712995	5207.947983
446.088002	5420.909007
446.462949	5373.872521
446.837837	5289.707937
447.212664	5226.940530
447.587431	5457.326302
447.962139	5741.274333
448.336786	5996.558364
448.711374	5847.836764
449.085901	5350.295044
449.460369	5229.614862
449.834776	5075.761367
450.209124	5268.845121
450.583412	5141.518178
450.957640	5154.491588
451.331808	4961.400272
451.705917	4727.427719
452.079965	4611.987816
452.453954	4589.373200
452.827883	4503.313142
453.201752	4427.279939
453.575562	4360.524980
453.949311	4366.579406
454.323001	4307.129079
454.696632	4223.372828
455.070202	4269.401083
455.443713	4212.488977
455.817164	4171.794263
456.190556	4159.289680
456.563888	4074.421855
456.937160	4048.714491
457.310373	3901.805186
457.683526	3835.564424
458.056619	3777.691978
458.429653	3726.224318
458.802628	3684.632278
459.175542	3633.318373
459.548398	3639.476143
459.921194	3648.131804
460.293930	3623.142804
460.666607	3657.846107
461.039224	3679.397040
461.411782	3653.475427
461.784280	3562.316242
462.156719	3498.916171
462.529099	3433.580296
462.901419	3329.674554
463.273680	3250.475506
463.645882	3213.929661
464.018024	3167.283865
464.390106	3143.923158
464.762130	3164.957372
465.134094	3206.919937
465.505999	3280.629168
465.877845	3339.988754
466.249631	3341.301975
466.621358	3267.612909
466.993026	3186.760363
467.364634	3120.811988
467.736184	3052.121226
468.107674	2999.564676
468.479105	2962.880200
468.850477	2925.552976
469.221790	2889.901936
469.593043	2853.303159
469.964238	2820.334013
470.335373	2800.665951
470.706449	2793.726803
471.077467	2791.657409
471.448425	2817.886533
471.819324	2837.012671
472.190164	2820.399548
472.560945	2781.252468
472.931667	2744.310892
473.302330	2726.742471
473.672934	2707.497867
474.043479	2702.953266
474.413965	2690.846935
474.784393	2681.586336
475.154761	2684.669001
475.525070	2676.681293
475.895321	2667.670231
476.265513	2668.759120
476.635645	2667.821465
477.005719	2662.666885
477.375734	2659.841319
477.745691	2662.699653
478.115588	2661.260403
478.485427	2667.362720
478.855207	2678.480985
479.224928	2689.206040
479.594591	2694.043027
479.964194	2690.143694
480.333739	2689.165711
480.703226	2685.503312
481.072653	2684.404341
481.442022	2685.455421
481.811333	2683.887622
482.180584	2676.877898
482.549777	2672.212310
482.918912	2665.671413
483.287988	2664.693429
483.657005	2661.038593
484.025964	2653.555000
484.394864	2652.927376
484.763706	2648.750780
485.132489	2645.302631
485.501213	2640.143010
485.869879	2638.837351
486.238487	2637.572022
486.607036	2634.517082
486.975527	2635.537916
487.343959	2629.574231
487.712333	2629.922071
488.080648	2627.265382
488.448905	2626.879734
488.817104	2626.990640
489.185244	2632.634211
489.553326	2632.929119
489.921350	2641.728453
490.289315	2653.829743
490.657222	2655.755463
491.025070	2654.825371
491.392861	2654.752274
491.760593	2646.628454
492.128267	2644.632158
492.495883	2634.083543
492.863440	2631.898203
493.230939	2626.733541
493.598380	2622.922428
493.965763	2621.619290
494.333088	2616.895729
494.700354	2613.898763
495.067563	2613.150152
495.434713	2612.509925
495.801805	2612.182250
496.168839	2612.683845
496.535815	2612.585542
496.902733	2613.805502
497.269593	2609.548247
497.636395	2609.114708
498.003139	2610.780809
498.369825	2609.001282
498.736453	2611.640326
499.103023	2610.425408
499.469535	2610.329626
499.835989	2608.391302
500.202385	2607.188987
500.568723	2606.261415
500.935003	2609.064297
501.301226	2602.336877
501.667390	2613.066973
502.033497	2613.303907
502.399546	2612.978752
502.765537	2609.240737
503.131470	2610.405243
503.497345	2613.278701
503.863163	2608.819801
504.228923	2609.444904
504.594625	2610.934565
504.960269	2610.017075
505.325856	2614.276850
505.691385	2610.685027
506.056856	2610.647219
506.422270	2610.634616
506.787625	2612.487240
507.152924	2613.477827
507.518164	2610.427929
507.883347	2607.962804
508.248472	2611.705861
508.613540	2612.719133
508.978550	2615.257354
509.343503	2611.814246
509.708398	2611.025305
510.073236	2615.622838
510.438016	2617.800616
510.802738	2612.915738
511.167403	2615.022940
511.532010	2616.699124
511.896561	2618.987808
512.261053	2622.133488
512.625488	2620.250617
512.989866	2618.019906
513.354186	2617.873713
513.718449	2615.544700
514.082655	2623.270268
514.446803	2623.056019
514.810894	2622.214146
515.174927	2625.193468
515.538904	2622.665330
515.902822	2621.715072
516.266684	2626.972996
516.630488	2623.837398
516.994235	2623.119033
517.357925	2625.495938
517.721558	2625.448047
518.085133	2625.430402
518.448651	2623.111472
518.812112	2620.860597
519.175516	2623.955865
519.538863	2622.234311
519.902152	2627.527522
520.265385	2627.139354
520.628560	2628.228243
520.991678	2625.493417
521.354739	2627.802265
521.717743	2627.794704
522.080690	2628.097173
522.443580	2631.946094
522.806413	2629.440640
523.169189	2628.959210
523.531908	2627.043572
523.894569	2625.659775
524.257174	2627.867800
524.619722	2626.398304
524.982213	2628.893675
525.344647	2627.671195
525.707025	2626.579786
526.069345	2624.165073
526.431608	2627.041051
526.793815	2625.760598
527.155964	2625.188427
527.518057	2622.403190
527.880093	2622.325052
528.242072	2623.061060
528.603995	2621.455453
528.965860	2621.483179
529.327669	2621.064763
529.689421	2619.907818
530.051117	2619.915380
530.412755	2618.425719
530.774337	2619.023096
531.135862	2619.544855
531.497331	2616.890688
531.858743	2617.951851
532.220098	2617.551079
532.581396	2616.071500
532.942638	2614.092847
533.303824	2613.802981
533.664953	2613.944133
534.026025	2611.705861
534.387040	2614.554113
534.747999	2610.397682
535.108902	2613.460183
535.469748	2612.915738
535.830537	2611.219390
536.191270	2610.117898
536.551947	2609.064297
536.912567	2605.842999
537.273131	2607.163782
537.633638	2603.498863
537.994089	2609.210490
538.354483	2606.001796
538.714821	2609.606221
539.075103	2611.516818
539.435328	2608.567743
539.795497	2607.332660
540.155609	2609.328957
540.515665	2610.397682
540.875665	2610.286776
541.235609	2605.719491
541.595496	2609.583535
541.955328	2608.703854
542.315102	2607.214193
542.674821	2604.857454
543.034483	2607.501539
543.394090	2605.676641
543.753640	2603.902155
544.113134	2609.265943
544.472571	2606.095057
544.831953	2608.300562
545.191278	2605.172526
545.550548	2603.251846
545.909761	2603.801332
546.268918	2608.033381
546.628019	2605.865684
546.987064	2606.339553
547.346053	2603.534151
547.704986	2605.671600
548.063863	2605.722012
548.422684	2606.084975
548.781449	2603.584562
549.140158	2603.216558
549.498811	2603.430807
549.857408	2599.697833
550.215949	2608.124121
550.574434	2602.215889
550.932864	2604.665890
551.291237	2606.831065
551.649555	2607.161261
552.007817	2603.826538
552.366022	2604.789398
552.724173	2604.439038
553.082267	2605.248143
553.440305	2607.945160
553.798288	2605.860643
554.156215	2601.968872
554.514086	2602.074737
554.871902	2598.641711
555.229661	2602.780498
555.587365	2598.838316
555.945014	2604.796960
556.302606	2605.031373
556.660143	2604.466764
557.017625	2604.451641
557.375050	2602.967021
557.732421	2604.295365
558.089735	2606.818463
558.446994	2604.113883
558.804197	2606.536158
559.161345	2606.037084
559.518437	2605.727053
559.875474	2606.440376
560.232455	2603.176229
560.589381	2604.663369
560.946251	2603.337546
561.303065	2603.821497
561.659825	2603.256887
562.016528	2604.761672
562.373177	2605.089347
562.729770	2603.226640
563.086307	2603.912237
563.442789	2604.925509
563.799216	2606.548761
564.155587	2602.876280
564.511904	2604.812083
564.868164	2603.748400
565.224370	2607.499018
565.580520	2603.982813
565.936615	2605.532968
566.292654	2603.279572
566.648638	2604.161774
567.004567	2606.150510
567.360441	2605.832917
567.716260	2604.824686
568.072023	2605.079264
568.427732	2603.720673
568.783385	2602.316712
569.138982	2602.964500
569.494525	2604.986003
569.850013	2603.309819
570.205445	2601.111876
570.560823	2601.033738
570.916145	2603.970211
571.271412	2601.898296
571.626625	2603.246805
571.981782	2603.561877
572.336884	2598.213213
572.691931	2597.507451
573.046923	2598.306474
573.401860	2596.680702
573.756743	2599.440734
574.111570	2600.746393
574.466342	2600.990889
574.821059	2602.039449
575.175722	2599.690271
575.530330	2597.986361
575.884882	2598.455188
576.239380	2596.713470
576.593823	2597.376381
576.948211	2597.164653
577.302544	2597.580548
577.656823	2596.481577
578.011047	2596.937801
578.365216	2596.713470
578.719330	2598.261104
579.073389	2595.412852
579.427394	2593.401432
579.781344	2592.277254
580.135239	2595.291864
580.489080	2592.768767
580.842866	2592.909919
581.196597	2595.548963
581.550273	2592.980495
581.903895	2592.398242
582.257463	2594.611308
582.610975	2592.909919
582.964434	2592.395721
583.317837	2591.904209
583.671186	2592.544435
584.024481	2591.120309
584.377721	2593.008222
584.730906	2590.633838
585.084037	2590.921184
585.437113	2590.651482
585.790135	2590.805237
586.143103	2587.962027
586.496016	2592.705752
586.848874	2593.156936
587.201679	2589.892788
587.554428	2589.640731
587.907124	2588.687953
588.259765	2585.338106
588.612352	2589.471852
588.964884	2587.861203
589.317362	2588.224167
589.669786	2589.290371
590.022155	2585.401120
590.374470	2584.070256
590.726731	2584.395410
591.078937	2579.906263
591.431090	2586.477407
591.783188	2584.488672
592.135232	2583.687128
592.487222	2585.567478
592.839157	2585.348188
593.191038	2583.543455
593.542866	2582.915832
593.894639	2581.988259
594.246358	2581.915163
594.598022	2584.334916
594.949633	2580.551530
595.301190	2583.283836
595.652692	2581.027919
596.004141	2582.338619
596.355535	2577.892322
596.706876	2578.560275
597.058162	2579.016499
597.409395	2578.817373
597.760573	2578.948443
598.111698	2578.560275
598.462768	2579.553382
598.813785	2579.356777
599.164748	2577.196642
599.515657	2579.046746
599.866511	2574.749162
600.217312	2577.373083
600.568060	2573.108267
600.918753	2578.340984
601.269392	2577.163875
601.619978	2578.950964
601.970510	2578.156982
602.320988	2574.580284
602.671412	2578.323340
603.021783	2574.439131
603.372100	2573.156158
603.722363	2574.303020
604.072572	2574.413926
604.422728	2575.800243
604.772830	2576.967270
605.122878	2572.573904
605.472872	2573.670355
605.822813	2577.312589
606.172701	2575.278483
606.522534	2575.580953
606.872314	2576.879050
607.222041	2575.603638
607.571714	2573.519121
607.921333	2570.242371
608.270899	2573.927454
608.620411	2571.212793
608.969870	2576.309399
609.319276	2574.769327
609.668627	2576.818556
610.017926	2576.470716
610.367171	2577.035326
610.716362	2575.543144
611.065500	2576.339646
611.414585	2574.499625
611.763616	2576.468196
612.112594	2575.533062
612.461518	2574.141703
612.810389	2573.337639
613.159207	2578.724112
613.507971	2576.339646
613.856682	2577.297466
614.205340	2578.827456
614.553945	2577.884760
614.902496	2574.444173
615.250994	2574.688668
615.599439	2576.102712
615.947830	2577.851992
616.296169	2578.250244
616.644454	2577.897363
616.992686	2576.543813
617.340864	2579.245872
617.688990	2574.300500
618.037063	2580.186047
618.385082	2580.289390
618.733048	2577.627661
619.080961	2575.167578
619.428821	2579.727302
619.776628	2576.795871
620.124382	2575.636405
620.472083	2578.524987
620.819731	2579.140007
621.167326	2575.646488
621.514868	2574.630695
621.862357	2576.848803
622.209793	2576.390058
622.557176	2573.287228
622.904506	2574.507187
623.251783	2570.381002
623.599007	2571.689182
623.946179	2571.585838
624.293297	2573.781261
624.640363	2569.952504
624.987376	2568.067113
625.334336	2566.237174
625.681243	2567.240364
626.028097	2563.250290
626.374899	2564.616443
626.721647	2567.547874
627.068343	2567.789849
627.414987	2562.519323
627.761577	2565.458316
628.108115	2565.067626
628.454600	2565.231464
628.801032	2565.730538
629.147412	2565.571742
629.493739	2563.031000
629.840014	2564.896227
630.186236	2563.560321
630.532405	2562.179045
630.878521	2560.956565
631.224585	2564.162739
631.570597	2562.713407
631.916556	2561.881617
632.262462	2561.972358
632.608316	2559.988664
632.954117	2559.789538
633.299866	2561.289282
633.645562	2562.516802
633.991206	2560.328942
634.336797	2555.754095
634.682336	2557.823488
635.027823	2559.378684
635.373257	2553.926676
635.718639	2554.564382
636.063968	2554.836605
636.409245	2552.487427
636.754470	2555.552448
637.099642	2554.652602
637.444762	2551.204453
637.789829	2555.728889
638.134845	2552.527756
638.479808	2551.184289
638.824719	2550.715461
639.169577	2550.163455
639.514383	2553.543549
639.859137	2546.793444
640.203839	2548.300749
640.548489	2551.282591
640.893086	2547.519370
641.237632	2550.896943
641.582125	2548.827549
641.926566	2546.407795
642.270955	2544.839997
642.615292	2543.153731
642.959576	2544.499719
643.303809	2541.611137
643.647990	2548.313352
643.992118	2546.778320
644.336195	2548.031047
644.680219	2548.512477
645.024192	2547.433670
645.368112	2547.451314
645.711981	2552.847869
646.055797	2551.660678
646.399562	2551.174206
646.743274	2550.990204
647.086935	2555.265103
647.430544	2552.704197
647.774101	2551.804351
648.117606	2553.624207
648.461059	2553.929197
648.804460	2555.421378
649.147810	2551.242262
649.491108	2552.429454
649.834354	2548.336037
650.177548	2551.310318
650.520690	2550.206305
650.863781	2546.067518
651.206820	2548.532642
651.549807	2546.170861
651.892742	2548.255378
652.235626	2547.398382
652.578458	2543.322609
652.921238	2542.334543
653.263967	2543.609955
653.606644	2544.585418
653.949269	2539.856816
654.291843	2543.768751
654.634365	2543.872095
654.976836	2540.239944
655.319255	2540.638195
655.661622	2540.129038
656.003938	2540.943185
656.346203	2541.253216
656.688416	2541.338915
657.030577	2539.569470
657.372687	2538.858667
657.714746	2542.090047
658.056753	2542.319420
658.398708	2541.331353
658.740612	2539.960160
659.082465	2539.468647
659.424266	2536.859850
659.766016	2534.717360
660.107715	2538.452855
660.449362	2536.000333
660.790958	2542.689944
661.132503	2538.294058
661.473996	2542.447969
661.815438	2540.744059
662.156829	2540.784388
662.498168	2540.736497
662.839456	2541.185160
663.180693	2541.308668
663.521879	2543.773793
663.863013	2539.072917
664.204097	2541.981662
664.545129	2541.026364
664.886110	2544.003165
665.227040	2541.845551
665.567918	2541.515356
665.908746	2540.870088
666.249522	2541.157434
666.590248	2543.037784
666.930922	2542.349667
667.271545	2541.487629
667.612118	2540.769265
667.952639	2543.012578
668.293109	2540.562577
668.633528	2544.897970
668.973896	2541.795140
669.314213	2541.386806
669.654480	2541.422094
669.994695	2540.360931
670.334859	2540.360931
670.674973	2543.428473
671.015035	2537.205169
671.355047	2541.462423
671.695008	2539.519059
672.034918	2537.157278
672.374777	2540.035777
672.714585	2539.571991
673.054342	2536.017977
673.394049	2538.031918
673.733705	2539.337577
674.073310	2541.311189
674.412864	2538.883873
674.752368	2539.569470
675.091820	2538.956970
675.431223	2539.095602
675.770574	2538.747762
676.109875	2536.980838
676.449125	2536.207021
676.788324	2533.878008
677.127473	2534.069571
677.466571	2529.945907
677.805619	2535.460930
678.144616	2535.075282
678.483562	2534.485467
678.822458	2534.558563
679.161303	2532.915147
679.500098	2532.400949
679.838842	2533.356248
680.177535	2532.617719
680.516179	2535.312216
680.854771	2534.427493
681.193314	2534.064530
681.531805	2538.044521
681.870247	2540.363452
682.208638	2538.856147
682.546978	2542.536189
682.885268	2543.191539
683.223508	2541.084337
683.561697	2540.701209
683.899836	2540.585263
684.237925	2542.384955
684.575963	2539.781199
684.913951	2535.750796
685.251889	2540.156765
685.589776	2539.892104
685.927614	2537.023687
686.265401	2538.291538
686.603137	2536.186856
686.940824	2542.942002
687.278460	2538.072247
687.616046	2541.412012
687.953582	2540.628113
688.291068	2540.300438
688.628504	2542.793288
688.965889	2542.052238
689.303224	2541.061652
689.640510	2539.786240
689.977745	2540.297917
690.314930	2539.698020
690.652065	2538.674665
690.989150	2535.947401
691.326185	2534.364479
691.663170	2533.235260
692.000105	2531.705270
692.336990	2529.177132
692.673825	2529.096473
693.010610	2528.652852
693.347345	2524.057840
693.684030	2523.833508
694.020665	2523.077335
694.357251	2519.598939
694.693786	2526.215454
695.030272	2519.893847
695.366707	2520.460977
695.703093	2520.440812
696.039429	2523.460463
696.375716	2522.651358
696.711952	2522.527850
697.048139	2518.734381
697.384276	2518.126922
697.720363	2519.419978
698.056400	2522.459794
698.392388	2521.721265
698.728326	2521.317973
699.064214	2520.516429
699.400053	2519.263702
699.735842	2520.138343
700.071581	2519.704803
700.407270	2517.559793
700.742910	2517.176665
701.078501	2517.370749
701.414042	2516.155831
701.749533	2515.891171
702.084974	2515.170286
702.420366	2515.810512
702.755709	2516.901922
703.091002	2514.489730
703.426246	2512.533762
703.761440	2511.555778
704.096584	2515.389576
704.431679	2512.765655
704.766725	2514.938393
705.101721	2509.055366
705.436668	2512.511077
705.771565	2512.511077
706.106413	2512.342198
706.441212	2512.765655
706.775961	2512.342198
707.110661	2514.245234
707.445311	2517.965605
707.779913	2512.758093
708.114465	2514.923269
708.448967	2513.262209
708.783421	2518.915863
709.117825	2516.085255
709.452180	2517.590039
709.786485	2518.134484
710.120742	2518.885616
710.454949	2517.910153
710.789107	2518.807478
711.123216	2515.820594
711.457275	2525.040865
711.791286	2525.179497
712.125247	2526.727131
712.459159	2527.334590
712.793023	2523.291584
713.126837	2523.578930
713.460602	2524.887110
713.794318	2524.990453
714.127985	2526.255783
714.461602	2522.933663
714.795171	2522.283354
715.128691	2520.710514
715.462162	2520.271933
715.795584	2518.016017
716.128957	2517.741274
716.462281	2517.791686
716.795556	2518.023579
717.128782	2513.665501
717.461960	2513.743639
717.795088	2512.075017
718.128167	2513.557116
718.461198	2510.676097
718.794180	2510.134173
719.127113	2509.970335
719.459997	2510.905469
719.792833	2505.443379
720.125619	2511.570902
720.458357	2507.447238
720.791046	2507.900942
721.123686	2510.489574
721.456278	2508.705006
721.788821	2506.020591
722.121315	2504.909017
722.453761	2506.426404
722.786158	2507.323730
723.118506	2504.266270
723.450805	2508.926817
723.783056	2507.399347
724.115259	2510.396313
724.447412	2506.781806
724.779518	2508.775582
725.111574	2510.403875
725.443582	2506.983452
725.775542	2506.444048
726.107453	2510.408916
726.439315	2507.684172
726.771129	2510.603000
727.102895	2504.699809
727.434612	2509.690551
727.766281	2505.161075
728.097901	2511.268432
728.429473	2510.608041
728.760996	2513.804133
729.092471	2510.887825
729.423897	2513.453773
729.755276	2511.376817
730.086606	2512.700120
730.417887	2512.140552
730.749120	2516.700276
731.080305	2515.102230
731.411442	2517.627848
731.742530	2517.484175
732.073570	2517.269926
732.404562	2518.376459
732.735506	2520.360153
733.066401	2517.937879
733.397249	2517.889988
733.728048	2516.206243
734.058798	2516.145749
734.389501	2511.838083
734.720156	2511.603669
735.050762	2512.009482
735.381320	2509.667866
735.711831	2508.382372
736.042293	2508.878926
736.372707	2509.524193
736.703073	2506.922958
737.033391	2505.219048
737.363661	2506.902793
737.693883	2508.349604
738.024056	2509.289780
738.354182	2508.808349
738.684260	2508.500839
739.014290	2509.630057
739.344272	2512.087620
739.674207	2511.560819
740.004093	2513.118536
740.333931	2511.994359
740.663722	2512.342198
740.993464	2511.497805
741.323159	2513.224400
741.652806	2509.927486
741.982405	2510.913031
742.311956	2512.024606
742.641460	2509.151148
742.970915	2507.817763
743.300323	2504.556136
743.629683	2503.091681
743.958996	2505.133348
744.288260	2502.610251
744.617477	2505.766013
744.946647	2505.347597
745.275768	2505.082937
745.604842	2505.332474
745.933869	2503.946157
746.262847	2503.661331
746.591778	2503.615961
746.920662	2500.664365
747.249498	2505.322392
747.578286	2500.243429
747.907027	2503.058913
748.235720	2505.657628
748.564365	2508.442866
748.892963	2503.608399
749.221514	2506.633092
749.550017	2504.349449
749.878473	2502.842144
750.206881	2502.907679
750.535242	2503.822648
750.863555	2502.096053
751.191821	2504.432628
751.520039	2502.630415
751.848210	2503.116887
752.176334	2501.912051
752.504411	2501.171001
752.832440	2502.968173
753.160421	2501.092863
753.488356	2501.884325
753.816243	2504.291476
754.144082	2499.746875
754.471875	2501.932216
754.799620	2502.988337
755.127318	2499.323418
755.454969	2502.743841
755.782572	2501.478512
756.110129	2499.630929
756.437638	2502.380878
756.765100	2499.046155
757.092515	2501.158398
757.419882	2500.714777
757.747203	2500.888697
758.074477	2502.832062
758.401703	2501.806187
758.728882	2502.446413
759.056014	2499.114211
759.383099	2501.102946
759.710138	2503.600838
760.037129	2500.545898
760.364073	2501.266783
760.690970	2500.243429
761.017820	2500.293841
761.344623	2504.087309
761.671379	2503.903307
761.998088	2506.484378
762.324751	2511.255830
762.651366	2518.147087
762.977935	2532.411032
763.304456	2538.069727
763.630931	2546.211190
763.957359	2541.787578
764.283740	2537.973945
764.610074	2531.513706
764.936362	2525.953314
765.262602	2519.588857
765.588796	2516.380163
765.914943	2512.521159
766.241044	2506.444048
766.567097	2506.136538
766.893104	2505.534120
767.219064	2499.328460
767.544978	2498.776453
767.870845	2494.756133
768.196665	2497.271669
768.522438	2496.240753
768.848165	2496.278562
769.173846	2497.075064
769.499479	2494.478870
769.825066	2494.385608
770.150607	2495.366113
770.476101	2492.411997
770.801548	2489.911584
771.126949	2492.608602
771.452303	2491.494507
771.777611	2491.653303
772.102872	2493.243787
772.428087	2490.350165
772.753256	2490.244300
773.078378	2490.256903
773.403453	2491.214723
773.728482	2492.487614
774.053465	2490.400576
774.378401	2490.337562
774.703291	2487.290184
775.028135	2488.106851
775.352932	2489.417551
775.677683	2489.518374
776.002388	2486.060143
776.327046	2485.828250
776.651658	2485.992087
776.976224	2483.279946
777.300743	2487.426295
777.625216	2486.332365
777.949643	2487.277581
778.274024	2487.658188
778.598359	2485.949237
778.922647	2486.350009
779.246889	2486.665081
779.571086	2488.237921
779.895236	2486.193733
780.219339	2489.283961
780.543397	2487.454022
780.867409	2486.508805
781.191374	2490.035092
781.515294	2484.804895
781.839167	2487.093579
782.162995	2488.605925
782.486776	2488.815133
782.810511	2487.007880
783.134201	2485.813126
783.457844	2485.268682
783.781441	2489.631800
784.104993	2484.615852
784.428498	2486.891933
784.751958	2484.993939
785.075372	2486.024855
785.398739	2486.251707
785.722061	2485.354381
786.045337	2485.193064
786.368568	2486.846563
786.691752	2487.905205
787.014891	2487.375884
787.337983	2485.281284
787.661030	2491.643221
787.984031	2489.848570
788.306987	2494.604898
788.629897	2493.800834
788.952760	2496.802842
789.275579	2498.171515
789.598351	2497.284272
789.921078	2492.709425
790.243759	2489.805720
790.566395	2492.757316
790.888984	2488.704228
791.211529	2483.426140
791.534027	2488.479897
791.856480	2488.227839
792.178888	2486.148363
792.501249	2481.059318
792.823566	2486.748260
793.145836	2483.201808
793.468062	2487.295225
793.790241	2486.821357
794.112375	2485.067035
794.434464	2487.706079
794.756507	2485.261120
795.078505	2486.395379
795.400457	2488.437047
795.722364	2490.330000
796.044226	2488.991574
796.366042	2491.502068
796.687812	2491.640700
797.009538	2492.442243
797.331218	2491.421410
797.652852	2487.229690
797.974442	2492.001143
798.295986	2490.624907
798.617484	2489.576347
798.938938	2490.070381
799.260346	2490.118272
799.581709	2487.224649
799.903026	2488.547952
800.224299	2486.949906
800.545526	2485.712303
800.866708	2488.537870
801.187845	2485.167858
801.508936	2487.625421
801.829983	2486.476038
802.150984	2484.928404
802.471940	2487.239773
802.792851	2485.578712
803.113717	2484.225163
803.434538	2482.874133
803.755314	2486.135760
804.076045	2484.363794
804.396731	2485.132570
804.717372	2486.160966
805.037967	2485.568630
805.358518	2481.976808
805.679024	2487.418734
805.999485	2483.862200
806.319901	2484.383959
806.640272	2485.039309
806.960598	2485.102323
807.280879	2486.183651
807.601115	2488.852942
807.921306	2484.008393
808.241453	2484.469659
808.561554	2480.098978
808.881611	2483.307673
809.201623	2482.231386
809.521590	2488.679022
809.841513	2487.411172
810.161390	2488.366471
810.481223	2488.116933
810.801011	2484.323465
811.120755	2486.375215
811.440453	2483.862200
811.760107	2483.670636
812.079716	2485.470328
812.399281	2483.232055
812.718801	2484.096613
813.038276	2483.894967
813.357707	2486.047540
813.677093	2481.991932
813.996434	2487.552324
814.315731	2484.961171
814.634983	2486.828919
814.954191	2482.491006
815.273354	2485.092241
815.592473	2488.421923
815.911547	2484.951089
816.230577	2486.483600
816.549562	2488.701707
816.868502	2488.232880
817.187399	2488.837818
817.506250	2488.487458
817.825058	2486.511326
818.143821	2490.476193
818.462539	2490.531646
818.781213	2492.263282
819.099843	2496.825527
819.418429	2496.681854
819.736970	2503.721825
820.055466	2504.906496
820.373919	2510.945799
820.692327	2518.447036
821.010691	2533.313398
821.329011	2563.711556
821.647286	2614.642333
821.965517	2676.716581
822.283704	2725.429251
822.601847	2752.177613
822.919945	2733.812690
823.237999	2709.675645
823.556010	2677.596262
823.873976	2648.118115
824.191897	2620.467387
824.509775	2597.204982
824.827609	2579.102199
825.145398	2560.704508
825.463144	2563.157029
825.780845	2557.609239
826.098502	2558.065464
826.416116	2571.769840
826.733685	2587.301635
827.051210	2595.654827
827.368692	2594.150043
827.686129	2579.467682
828.003522	2566.300188
828.320872	2546.478372
828.638177	2535.700385
828.955439	2528.317615
829.272656	2520.040040
829.589830	2511.293638
829.906960	2507.837927
830.224046	2499.978768
830.541088	2500.354334
830.858086	2494.735968
831.175041	2495.124137
831.491952	2494.851915
831.808819	2495.091370
832.125642	2497.291833
832.442421	2498.310147
832.759157	2504.941784
833.075849	2514.041067
833.392497	2525.509692
833.709101	2537.857998
834.025662	2541.369162
834.342179	2535.435724
834.658653	2528.536905
834.975083	2520.748322
835.291469	2515.180368
835.607811	2503.356342
835.924110	2503.121928
836.240366	2498.978099
836.556578	2493.760505
836.872746	2491.769249
837.188871	2488.048878
837.504952	2489.099958
837.820990	2490.244300
838.136984	2484.320945
838.452935	2482.322127
838.768842	2483.249699
839.084706	2483.836994
839.400526	2491.872593
839.716303	2498.879797
840.032037	2498.141268
840.347727	2499.351145
840.663373	2496.896103
840.978977	2491.847387
841.294537	2490.637510
841.610054	2485.712303
841.925527	2484.605770
842.240957	2484.325986
842.556344	2481.790285
842.871687	2481.691983
843.186987	2482.884216
843.502244	2479.736015
843.817458	2479.123515
844.132629	2476.376086
844.447756	2477.603607
844.762840	2476.812146
845.077881	2477.386838
845.392879	2477.618731
845.707833	2476.706282
846.022745	2474.193267
846.337613	2475.249388
846.652438	2475.667804
846.967221	2476.479430
847.281960	2476.686117
847.596656	2474.286528
847.911309	2474.709985
848.225919	2475.955150
848.540485	2473.021198
848.855009	2476.872640
849.169490	2474.415077
849.483928	2472.610344
849.798323	2473.492546
850.112675	2477.323823
850.426984	2471.327371
850.741251	2472.098667
851.055474	2473.628657
851.369654	2471.526496
851.683792	2469.789819
851.997887	2473.379120
852.311938	2472.070941
852.625947	2474.818370
852.939914	2472.708647
853.253837	2475.982876
853.567718	2476.078658
853.881555	2474.357104
854.195350	2473.512711
854.509103	2473.744604
854.822812	2471.879377
855.136479	2475.539255
855.450103	2472.852320
855.763685	2470.669500
856.077224	2467.102884
856.390720	2470.944243
856.704173	2468.605147
857.017584	2473.306023
857.330953	2473.898359
857.644278	2473.187556
857.957561	2476.582773
858.270802	2475.259471
858.584000	2475.020016
858.897155	2475.834162
859.210268	2472.131435
859.523339	2474.921713
859.836367	2473.553040
860.149352	2474.450365
860.462295	2473.749645
860.775195	2472.539768
861.088054	2474.364666
861.400869	2473.618575
861.713642	2476.711323
862.026373	2473.013637
862.339062	2473.225365
862.651708	2471.753348
862.964312	2473.873153
863.276873	2473.363997
863.589392	2472.572536
863.901869	2476.318113
864.214303	2473.714357
864.526696	2474.359625
864.839045	2475.241827
865.151353	2477.515387
865.463619	2473.530355
865.775842	2478.500933
866.088023	2476.348360
866.400162	2474.634367
866.712258	2476.368524
867.024313	2474.919193
867.336325	2473.721919
867.648296	2474.848617
867.960224	2474.631847
868.272110	2476.466827
868.583954	2476.040849
868.895755	2477.938844
869.207515	2473.023719
869.519233	2477.407002
869.830909	2477.401961
870.142542	2475.551857
870.454134	2477.089409
870.765684	2479.073103
871.077191	2476.686117
871.388657	2473.207721
871.700081	2472.718729
872.011463	2474.389872
872.322803	2471.690334
872.634101	2477.981694
872.945357	2478.188381
873.256571	2478.508494
873.567744	2479.068062
873.878874	2479.766262
874.189963	2478.478247
874.501010	2479.972949
874.812015	2480.560244
875.122979	2478.027064
875.433900	2480.794657
875.744780	2480.282980
876.055618	2482.183495
876.366415	2479.728453
876.677169	2479.932620
876.987882	2479.867085
877.298554	2481.669298
877.609183	2484.968733
877.919771	2480.832466
878.230317	2483.151397
878.540822	2488.366471
878.851285	2485.855976
879.161707	2489.588950
879.472087	2491.353354
879.782425	2499.557832
880.092722	2510.371107
880.402977	2531.175949
880.713191	2555.769218
881.023363	2584.387848
881.333494	2605.674121
881.643583	2614.728033
881.953631	2614.415481
882.263637	2608.933227
882.573602	2599.748244
882.883526	2588.388004
883.193408	2583.533373
883.503248	2567.336146
883.813048	2560.414641
884.122806	2549.145142
884.432522	2540.575180
884.742197	2531.659900
885.051831	2523.435257
885.361424	2517.128774
885.670975	2511.187774
885.980485	2504.268790
886.289954	2501.649911
886.599382	2499.358707
886.908768	2493.221102
887.218113	2487.499392
887.527417	2489.445277
887.836680	2481.923876
888.145901	2485.167858
888.455082	2485.135091
888.764221	2483.123671
889.073319	2481.329020
889.382376	2481.828094
889.691392	2480.529997
890.000366	2482.911942
890.309300	2482.004534
890.618193	2483.947899
890.927044	2483.582416
891.235855	2481.944041
891.544625	2480.827425
891.853353	2482.455718
892.162041	2481.397075
892.470687	2482.455718
892.779293	2485.903867
893.087858	2486.556696
893.396381	2491.330669
893.704864	2494.839312
894.013306	2506.113853
894.321707	2510.708864
894.630068	2514.593073
894.938387	2518.608353
895.246665	2515.722292
895.554903	2515.792868
895.863100	2512.135511
896.171256	2507.817763
896.479371	2504.553616
896.787446	2501.934736
897.095480	2495.774446
897.403473	2495.900475
897.711425	2493.233705
898.019336	2492.018787
898.327207	2489.578868
898.635038	2489.561224
898.942827	2486.289515
899.250576	2485.374546
899.558284	2485.334217
899.865952	2484.509988
900.173579	2483.340440
900.481165	2478.284163
900.788711	2481.323979
901.096216	2479.189050
901.403681	2481.313896
901.711105	2480.144349
902.018489	2480.315748
902.325832	2481.790285
902.633135	2475.070427
902.940397	2481.417240
903.247619	2482.538897
903.554800	2497.727893
903.861941	2508.946981
904.169041	2518.794875
904.476101	2525.915505
904.783121	2526.575896
905.090100	2522.996677
905.397039	2519.954341
905.703938	2513.985614
906.010796	2508.730212
906.317614	2503.177381
906.624391	2498.466422
906.931129	2499.023470
907.237826	2493.594147
907.544483	2492.598519
907.851099	2487.464104
908.157675	2484.835142
908.464211	2480.555203
908.770707	2480.204842
909.077163	2475.279635
909.383578	2473.263174
909.689954	2474.841055
909.996289	2471.876856
910.302584	2475.521611
910.608839	2472.585138
910.915054	2472.943060
911.221229	2469.320991
911.527363	2471.965077
911.833458	2472.869964
912.139513	2474.624285
912.445527	2474.271404
912.751502	2471.854171
913.057436	2475.246868
913.363331	2477.487661
913.669186	2478.440439
913.975000	2480.706437
914.280775	2484.280615
914.586510	2486.559217
914.892205	2493.543736
915.197859	2498.925167
915.503475	2508.326919
915.809050	2515.709689
916.114585	2527.848787
916.420081	2525.567665
916.725536	2527.180835
917.030952	2524.972809
917.336328	2520.609691
917.641665	2518.149608
917.946961	2511.694410
918.252218	2507.232989
918.557435	2504.745179
918.862612	2506.189470
919.167750	2503.822648
919.472848	2501.100425
919.777906	2494.007522
920.082925	2492.396873
920.387904	2488.764722
920.692843	2487.330513
920.997743	2487.282623
921.302603	2483.723568
921.607423	2483.017806
921.912204	2480.277939
922.216946	2479.310038
922.521647	2475.776189
922.826310	2480.749287
923.130932	2478.826087
923.435516	2477.714513
923.740059	2473.666466
924.044564	2475.410705
924.349028	2475.572022
924.653454	2472.312916
924.957840	2473.510190
925.262186	2472.600262
925.566493	2473.094295
925.870761	2472.572536
926.174989	2471.597072
926.479178	2466.785291
926.783328	2469.356279
927.087438	2470.573718
927.391509	2470.218317
927.695541	2467.344859
927.999533	2469.212607
928.303486	2467.707822
928.607400	2469.119345
928.911275	2469.280662
929.215110	2467.359983
929.518906	2466.845785
929.822663	2467.458285
930.126381	2467.712863
930.430060	2469.167236
930.733699	2470.409881
931.037299	2470.457772
931.340861	2468.015332
931.644383	2470.145220
931.947866	2465.983747
932.251309	2468.108594
932.554714	2467.659931
932.858080	2466.157667
933.161407	2466.145064
933.464694	2467.317133
933.767943	2463.939560
934.071153	2469.016002
934.374323	2467.685137
934.677455	2470.508183
934.980548	2470.210755
935.283602	2469.878039
935.586617	2468.831999
935.889593	2469.172277
936.192530	2468.975672
936.495428	2471.201342
936.798287	2466.162708
937.101108	2470.329222
937.403890	2472.249902
937.706632	2473.001034
938.009336	2469.880559
938.312002	2469.673872
938.614628	2474.468009
938.917216	2471.387864
939.219765	2475.216621
939.522275	2472.622947
939.824747	2472.073461
940.127179	2474.631847
940.429573	2470.598924
940.731929	2470.702268
941.034246	2472.978348
941.336524	2472.932978
941.638763	2469.978862
941.940964	2473.427011
942.243126	2472.869964
942.545250	2471.163533
942.847335	2471.828965
943.149381	2472.207052
943.451389	2471.753348
943.753359	2470.072123
944.055290	2472.116311
944.357182	2469.270580
944.659036	2467.896865
944.960851	2470.089767
945.262628	2470.684623
945.564367	2472.726291
945.866067	2470.102370
946.167729	2470.442648
946.469352	2468.501804
946.770937	2470.790488
947.072484	2469.905765
947.373992	2472.680920
947.675462	2470.835858
947.976893	2466.424848
948.278286	2467.571711
948.579641	2465.134313
948.880958	2465.726649
949.182236	2472.423822
949.483476	2470.064562
949.784678	2469.789819
950.085841	2467.987606
950.386967	2465.943418
950.688054	2468.819397
950.989103	2467.561629
951.290114	2469.951136
951.591087	2469.590693
951.892021	2471.357618
952.192917	2470.735035
952.493776	2471.770992
952.794596	2471.632360
953.095378	2469.615899
953.396122	2474.523462
953.696828	2471.317288
953.997496	2470.861064
954.298126	2471.450879
954.598718	2470.092288
954.899272	2467.949797
955.199788	2467.891824
955.500266	2467.294448
955.800706	2469.557926
956.101108	2469.434417
956.401472	2468.486680
956.701798	2468.032977
957.002087	2468.055662
957.302337	2466.739921
957.602550	2467.470888
957.902724	2467.755713
958.202861	2466.918882
958.502960	2465.845116
958.803022	2466.069447
959.103045	2464.718418
959.403031	2464.567183
959.702979	2464.065588
960.002889	2465.779581
960.302762	2466.412246
960.602596	2467.730507
960.902393	2464.098356
961.202153	2465.829992
961.501875	2462.696915
961.801559	2463.904272
962.101205	2465.179683
962.400814	2466.994499
962.700385	2464.862091
962.999918	2462.459981
963.299414	2463.357306
963.598873	2459.601647
963.898293	2459.173149
964.197677	2462.948973
964.497022	2463.195989
964.796331	2464.743624
965.095601	2463.286730
965.394835	2461.824796
965.694030	2463.574076
965.993189	2463.805969
966.292309	2463.795887
966.591393	2462.223047
966.890439	2463.304374
967.189447	2463.843778
967.488419	2464.899899
967.787353	2463.584158
968.086249	2464.486525
968.385108	2467.818728
968.683930	2466.939046
968.982714	2461.633232
969.281462	2464.549539
969.580172	2464.627677
969.878844	2464.158850
970.177480	2465.363686
970.476078	2466.066927
970.774639	2463.516103
971.073162	2464.186576
971.371649	2462.321349
971.670098	2466.994499
971.968510	2463.591720
972.266885	2463.198510
972.565223	2465.295630
972.863524	2464.589868
973.161788	2462.885958
973.460014	2466.719756
973.758204	2463.851339
974.056356	2465.552729
974.354471	2464.229426
974.652550	2464.864611
974.950591	2466.591207
975.248595	2463.095166
975.546563	2463.828654
975.844493	2466.276134
976.142386	2463.377471
976.440243	2463.581638
976.738062	2463.553911
977.035845	2462.989302
977.333590	2466.734879
977.631299	2465.005764
977.928971	2463.526185
978.226606	2459.215998
978.524204	2459.639455
978.821765	2460.577110
979.119290	2465.220013
979.416777	2465.976186
979.714228	2464.766309
980.011642	2465.005764
980.309020	2464.330249
980.606360	2463.944601
980.903664	2466.293778
981.200931	2463.964765
981.498162	2466.616412
981.795356	2465.598099
982.092513	2469.159674
982.389633	2470.661938
982.686717	2470.402319
982.983764	2470.407360
983.280775	2471.526496
983.577749	2471.213945
983.874686	2471.700416
984.171587	2469.822586
984.468451	2470.036835
984.765279	2469.557926
985.062070	2471.670169
985.358824	2468.582462
985.655543	2467.533902
985.952224	2469.111783
986.248869	2468.002730
986.545478	2466.593727
986.842050	2467.707822
987.138586	2463.460650
987.435086	2463.236319
987.731549	2464.214303
988.027975	2465.497276
988.324366	2464.801597
988.620719	2461.557614
988.917037	2463.664817
989.213318	2463.909313
989.509563	2460.483849
989.805772	2460.473766
990.101944	2459.387398
990.398080	2461.512244
990.694180	2462.583489
990.990244	2464.773871
991.286271	2461.045937
991.582262	2463.669858
991.878217	2460.307408
992.174136	2462.424693
992.470019	2462.344034
992.765865	2462.124744
993.061676	2457.136522
993.357450	2463.059878
993.653188	2457.436471
993.948890	2465.033490
994.244556	2462.139868
994.540186	2463.717749
994.835780	2463.493418
995.131337	2465.361165
995.426859	2464.678089
995.722345	2465.769498
996.017795	2465.179683
996.313208	2466.586165
996.608586	2468.461475
996.903928	2465.174642
997.199234	2468.726135
997.494504	2469.517596
997.789738	2467.284365
998.084936	2466.371916
998.380099	2464.514251
998.675225	2462.318829
998.970316	2466.934005
999.265371	2467.843933
999.560390	2467.644808
999.855373	2464.342852
1000.150320	2463.072481
1000.445232	2462.812862
1000.740108	2466.230764
1001.034948	2464.307564
1001.329752	2464.002574
1001.624521	2464.524333
1001.919254	2462.525516
1002.213951	2466.820579
1002.508613	2462.044086
1002.803239	2463.135496
1003.097829	2459.473097
1003.392384	2461.056020
1003.686903	2458.472428
1003.981386	2463.790846
1004.275834	2463.745475
1004.570246	2462.588530
1004.864623	2462.520475
1005.158964	2463.107769
1005.453270	2463.629529
1005.747540	2462.152471
1006.041775	2463.523664
1006.335974	2460.400670
1006.630138	2460.256997
1006.924266	2462.112141
1007.218359	2460.181379
1007.512416	2459.130299
1007.806438	2459.594085
1008.100425	2458.175000
1008.394376	2458.381688
1008.688292	2460.793880
1008.982172	2460.294805
1009.276017	2462.643983
1009.569827	2462.218006
1009.863602	2461.403859
1010.157341	2461.550053
1010.451045	2459.031996
1010.744714	2464.012656
1011.038347	2461.638273
1011.331945	2463.233798
1011.625508	2461.214816
1011.919036	2458.094342
1012.212528	2458.197685
1012.505986	2461.073664
1012.799408	2460.982923
1013.092795	2460.163735
1013.386147	2463.364868
1013.679464	2463.659776
1013.972745	2463.639611
1014.265992	2459.677264
1014.559204	2462.124744
1014.852380	2461.678602
1015.145521	2459.896554
1015.438628	2459.616770
1015.731699	2463.316977
1016.024736	2459.213478
1016.317737	2461.232460
1016.610703	2460.758592
1016.903635	2461.973510
1017.196531	2458.946297
1017.489393	2462.011318
1017.782219	2462.142388
1018.075011	2461.121555
1018.367768	2461.177007
1018.660490	2460.294805
1018.953177	2460.294805
1019.245829	2460.294805
