Dividing Wavelength (nm)	Counts (n)	Blue Motor Position (mm): 0.000000	Red Motor Position (mm): 25.500000	
326.493990	2051.847918
326.888308	2051.847918
327.282561	2051.847918
327.676750	2026.659793
328.070874	2029.261028
328.464933	2032.852850
328.858929	2039.537420
329.252859	2052.379760
329.646726	2064.072716
330.040528	2081.338668
330.434265	2097.583786
330.827938	2119.386777
331.221547	2136.083078
331.615091	2159.043013
332.008571	2180.944306
332.401986	2200.231761
332.795338	2220.013248
333.188625	2239.454458
333.581847	2258.033631
333.975006	2277.018616
334.368100	2294.813889
334.761129	2310.587660
335.154095	2325.640545
335.546996	2341.036229
335.939833	2363.749148
336.332606	2373.907073
336.725315	2384.170862
337.117960	2394.752244
337.510540	2405.429407
337.903056	2415.433577
338.295508	2422.032448
338.687896	2429.054775
339.080220	2434.892431
339.472480	2438.212031
339.864676	2443.495160
340.256807	2448.062446
340.648875	2449.083279
341.040879	2448.070007
341.432818	2448.884154
341.824694	2450.885492
342.216506	2454.003445
342.608253	2450.494802
342.999937	2450.961109
343.391557	2450.308280
343.783113	2446.542538
344.174605	2448.548917
344.566033	2446.237548
344.957397	2447.366766
345.348697	2442.819646
345.739934	2438.698502
346.131106	2438.617844
346.522215	2438.050714
346.913260	2437.163471
347.304241	2434.214396
347.695159	2431.419076
348.086012	2432.334046
348.476802	2429.077460
348.867528	2426.017480
349.258191	2423.360792
349.648789	2424.953796
350.039324	2421.987077
350.429796	2426.632501
350.820203	2423.907757
351.210548	2425.442788
351.600828	2420.424320
351.991045	2421.114958
352.381198	2421.009093
352.771288	2420.250400
353.161314	2420.930956
353.551276	2422.367684
353.941175	2419.348033
354.331010	2421.293919
354.720782	2419.282498
355.110490	2422.440781
355.500135	2423.512026
355.889717	2421.919022
356.279235	2423.779208
356.668689	2423.615370
357.058080	2423.741399
357.447408	2423.864907
357.836672	2423.514547
358.225873	2425.173087
358.615010	2426.874476
359.004084	2426.201482
359.393095	2426.330031
359.782043	2427.408838
360.170927	2428.255752
360.559748	2429.447985
360.948505	2430.967893
361.337199	2430.715835
361.725830	2427.287851
362.114398	2429.243818
362.502903	2432.850764
362.891344	2433.864036
363.279722	2431.756833
363.668037	2433.085177
364.056289	2434.080805
364.444478	2434.610127
364.832603	2435.141968
365.220665	2434.375713
365.608665	2433.473346
365.996601	2434.655497
366.384474	2434.363110
366.772284	2434.489139
367.160031	2437.367638
367.547715	2437.261773
367.935336	2435.182298
368.322893	2434.917637
368.710388	2434.794129
369.097820	2437.012236
369.485189	2434.968048
369.872495	2439.379058
370.259738	2441.725715
370.646918	2441.571960
371.034035	2441.372834
371.421090	2443.757300
371.808081	2446.257713
372.195010	2443.152362
372.581875	2446.139245
372.968678	2447.550768
373.355418	2449.300049
373.742096	2450.512446
374.128710	2451.737447
374.515262	2456.249279
374.901751	2458.230453
375.288177	2459.384877
375.674540	2465.174642
376.060841	2469.303347
376.447079	2471.508852
376.833254	2480.424133
377.219367	2481.107209
377.605417	2490.899650
377.991404	2493.042141
378.377329	2497.864004
378.763191	2506.633092
379.148991	2511.175171
379.534727	2521.693539
379.920402	2532.927750
380.306013	2543.627599
380.691563	2558.788869
381.077049	2566.045610
381.462474	2574.958370
381.847835	2591.206009
382.233134	2604.549943
382.618371	2612.278032
383.003545	2634.262504
383.388657	2648.430667
383.773706	2664.688388
384.158693	2678.120542
384.543618	2696.823223
384.928480	2708.692620
385.313280	2731.029973
385.698017	2751.403796
386.082692	2772.480860
386.467305	2789.008283
386.851856	2813.528455
387.236344	2843.190605
387.620770	2857.210053
388.005133	2877.092364
388.389435	2909.990934
388.773674	2922.843356
389.157851	2958.232256
389.541965	2984.002634
389.926018	2998.417814
390.310008	3031.328987
390.693936	3053.603325
391.077802	3083.406627
391.461606	3112.836883
391.845348	3134.370171
392.229027	3161.688184
392.612645	3202.186293
392.996200	3231.271231
393.379694	3269.944442
393.763125	3311.773416
394.146494	3337.425328
394.529801	3371.304402
394.913047	3417.751073
395.296230	3424.780962
395.679351	3446.558747
396.062410	3498.984226
396.445408	3477.050166
396.828343	3522.042464
397.211217	3552.392731
397.594028	3523.995911
397.976778	3575.052717
398.359466	3606.575052
398.742092	3615.818008
399.124656	3628.730923
399.507158	3690.210315
399.889598	3698.157694
400.271977	3760.758743
400.654294	3747.525714
401.036549	3810.129283
401.418742	3809.166422
401.800874	3876.881721
402.182944	3906.080084
402.564952	3990.378259
402.946898	3985.352229
403.328783	3981.641939
403.710606	4029.694218
404.092367	4098.836163
404.474067	4161.931245
404.855705	4146.033966
405.237282	4118.015233
405.618797	4212.315057
406.000250	4296.255310
406.381642	4377.569121
406.762972	4374.143657
407.144240	4344.892362
407.525447	4405.786980
407.906593	4431.731278
408.287677	4512.596427
408.668700	4540.073236
409.049661	4575.711673
409.430560	4612.890183
409.811399	4596.511474
410.192176	4644.772960
410.572891	4723.281370
410.953545	4831.167103
411.334138	4729.383687
411.714669	4837.531560
412.095139	4753.455196
412.475547	4865.023492
412.855894	4873.517837
413.236180	4971.409483
413.616405	4895.275457
413.996568	5005.681767
414.376670	5001.858052
414.756711	4999.120705
415.136691	5065.888268
415.516609	5153.470754
415.896466	5194.059604
416.276262	5262.800778
416.655997	5379.773191
417.035670	5475.424044
417.415283	5615.023677
417.794834	5688.024625
418.174324	5648.580117
418.553753	5648.136496
418.933121	5814.461805
419.312428	5830.679197
419.691674	5752.274131
420.070859	5981.165201
420.449983	5857.954360
420.829045	6054.579524
421.208047	5974.677236
421.586988	6133.818901
421.965867	6211.009049
422.344686	6294.908972
422.723444	6457.677748
423.102141	6070.559982
423.480777	6470.683925
423.859352	6280.445902
424.237866	6646.713455
424.616319	6638.393031
424.994712	6808.910060
425.373044	6717.637449
425.751314	7038.743825
426.129524	6751.314877
426.507673	7015.383118
426.885762	7058.868111
427.263789	7100.833197
427.641756	7190.563214
428.019662	7272.164372
428.397508	7310.986298
428.775292	7293.009543
429.153016	7463.405584
429.530679	7390.361785
429.908282	7444.980167
430.285824	7378.164714
430.663305	7666.795977
431.040726	7548.386835
431.418086	7552.926394
431.795385	7679.063625
432.172624	7879.913277
432.549802	7755.008608
432.926920	7893.690750
433.303977	7832.934764
433.680974	7874.241978
434.057910	8075.371414
434.434786	8128.114486
434.811601	8084.387518
435.188355	8420.294722
435.565050	8302.659397
435.941683	8318.171027
436.318257	8650.146132
436.694770	8602.741641
437.071222	8833.185387
437.447614	8605.219368
437.823946	8571.284841
438.200218	8724.629180
438.576429	8598.484387
438.952580	8760.161752
439.328670	8764.920602
439.704700	8843.282818
440.080670	8730.207216
440.456580	8996.261672
440.832429	8962.271693
441.208218	8702.715284
441.583947	8819.730547
441.959616	8929.854553
442.335224	8957.759860
442.710773	9038.214155
443.086261	9207.546512
443.461689	8920.903984
443.837057	9078.170340
444.212365	9285.845714
444.587612	9257.383359
444.962800	9142.830700
445.337927	9265.635728
445.712995	8800.594327
446.088002	9449.143810
446.462949	9497.952262
446.837837	9464.746182
447.212664	9468.900092
447.587431	10249.575698
447.962139	11210.386853
448.336786	12093.289497
448.711374	11871.153573
449.085901	10678.845071
449.460369	10576.005532
449.834776	10328.144601
450.209124	11161.671663
450.583412	10957.852772
450.957640	11230.072559
451.331808	10814.182408
451.705917	10234.721938
452.079965	10081.193597
452.453954	10224.009486
452.827883	10137.243666
453.201752	10062.498478
453.575562	10028.886585
453.949311	10285.945102
454.323001	10294.578078
454.696632	10164.508747
455.070202	10636.209512
455.443713	10630.946548
455.817164	10718.251771
456.190556	10929.544172
456.563888	10748.309650
456.937160	10910.181100
457.310373	10404.273586
457.683526	10344.903917
458.056619	10286.839907
458.429653	10267.055898
458.802628	10304.400766
459.175542	10269.783163
459.548398	10608.168094
459.921194	10963.962650
460.293930	11094.652043
460.666607	11661.393682
461.039224	12164.417657
461.411782	12337.172958
461.784280	11987.742858
462.156719	11848.624656
462.529099	11666.974239
462.901419	11094.278998
463.273680	10690.427122
463.645882	10726.836856
464.018024	10531.890395
464.390106	10663.678760
464.762130	11252.077195
465.134094	12120.100873
465.505999	13471.714878
465.877845	14786.306649
466.249631	15450.428256
466.621358	15006.781512
466.993026	14332.199510
467.364634	13690.742930
467.736184	13029.479657
468.107674	12471.640696
468.479105	12222.030483
468.850477	11912.889286
469.221790	11524.995182
469.593043	11022.979438
469.964238	10664.591208
470.335373	10548.407736
470.706449	10759.775755
471.077467	11039.889989
471.448425	12104.150662
471.819324	12905.689083
472.190164	12717.452398
472.560945	11725.653270
472.931667	10823.737915
473.302330	10506.571200
473.672934	10110.228123
474.043479	10149.690275
474.413965	9917.542620
474.784393	9712.503770
475.154761	9847.410088
475.525070	9765.335062
475.895321	9565.508765
476.265513	9633.493765
476.635645	9730.362057
477.005719	9618.692938
477.375734	9610.387637
477.745691	9700.150422
478.115588	9788.536973
478.485427	10058.871368
478.855207	10529.543738
479.224928	10986.453758
479.594591	11309.347224
479.964194	11034.284226
480.333739	11000.178299
480.703226	10885.245033
481.072653	10839.509165
481.442022	10822.719602
481.811333	10781.175453
482.180584	10485.655453
482.549777	10254.447973
482.918912	10026.091265
483.287988	9838.953552
483.657005	9648.839038
484.025964	9388.937310
484.394864	9281.212893
484.763706	9109.231409
485.132489	8828.577772
485.501213	8698.135396
485.869879	8588.795289
486.238487	8427.692615
486.607036	8352.488682
486.975527	8141.279459
487.343959	8069.110301
487.712333	7997.863674
488.080648	7857.606171
488.448905	7801.667007
488.817104	7641.058366
489.185244	7644.965260
489.553326	7679.366094
489.921350	7874.695682
490.289315	8149.141139
490.657222	8165.023294
491.025070	8104.204293
491.392861	7909.885457
491.760593	7641.557440
492.128267	7337.568302
492.495883	7051.387039
492.863440	6783.132119
493.230939	6520.117479
493.598380	6320.268497
493.965763	6175.219377
494.333088	5994.050390
494.700354	5857.397312
495.067563	5740.112348
495.434713	5620.745386
495.801805	5544.518099
496.168839	5418.779119
496.535815	5303.238393
496.902733	5212.540474
497.269593	5099.167445
497.636395	5011.776522
498.003139	4937.028813
498.369825	4828.835570
498.736453	4766.726034
499.103023	4665.996218
499.469535	4593.199436
499.835989	4515.379144
500.202385	4423.120988
500.568723	4342.984285
500.935003	4287.211480
501.301226	4203.397256
501.667390	4173.556146
502.033497	4120.346767
502.399546	4036.998850
502.765537	3951.672280
503.131470	3907.887338
503.497345	3869.214126
503.863163	3761.532560
504.228923	3734.149012
504.594625	3695.720296
504.960269	3623.004173
505.325856	3597.238835
505.691385	3540.031821
506.056856	3501.935822
506.422270	3468.107159
506.787625	3417.559509
507.152924	3386.974829
507.518164	3354.769418
507.883347	3305.847540
508.248472	3273.546347
508.613540	3254.818460
508.978550	3232.176118
509.343503	3193.641538
509.708398	3174.308713
510.073236	3159.974192
510.438016	3135.179277
510.802738	3104.138372
511.167403	3087.419385
511.532010	3070.576890
511.896561	3060.169428
512.261053	3051.390258
512.625488	3029.746064
512.989866	3010.745956
513.354186	2993.580827
513.718449	2977.383599
514.082655	2974.003506
514.446803	2955.999025
514.810894	2952.349229
515.174927	2941.964453
515.538904	2930.964655
515.902822	2924.358223
516.266684	2908.944895
516.630488	2903.573545
516.994235	2895.840415
517.357925	2892.450239
517.721558	2886.617624
518.085133	2880.714433
518.448651	2874.198742
518.812112	2865.807741
519.175516	2859.637369
519.538863	2855.188551
519.902152	2851.231245
520.265385	2855.254086
520.628560	2846.918538
520.991678	2839.571056
521.354739	2837.536951
521.717743	2832.684840
522.080690	2828.084787
522.443580	2826.988336
522.806413	2822.174034
523.169189	2818.985504
523.531908	2815.912921
523.894569	2807.723567
524.257174	2805.220634
524.619722	2806.433031
524.982213	2804.706436
525.344647	2798.147895
525.707025	2794.848460
526.069345	2793.472225
526.431608	2787.861421
526.793815	2787.702624
527.155964	2778.825152
527.518057	2780.952519
527.880093	2777.723660
528.242072	2773.453803
528.603995	2771.074378
528.965860	2764.977103
529.327669	2766.093718
529.689421	2762.892586
530.051117	2760.019128
530.412755	2754.887233
530.774337	2754.325145
531.135862	2750.609814
531.497331	2750.191398
531.858743	2747.189391
532.220098	2747.688466
532.581396	2740.303175
532.942638	2736.865108
533.303824	2736.882752
533.664953	2735.783781
534.026025	2730.941752
534.387040	2731.249263
534.747999	2727.120558
535.108902	2728.784139
535.469748	2721.565206
535.830537	2721.600494
536.191270	2723.823643
536.551947	2714.900801
536.912567	2715.137735
537.273131	2713.330482
537.633638	2708.909390
537.994089	2710.338557
538.354483	2708.062476
538.714821	2710.051211
539.075103	2711.412322
539.435328	2706.502239
539.795497	2703.049048
540.155609	2703.951415
540.515665	2705.801518
540.875665	2702.179449
541.235609	2699.701722
541.595496	2699.580734
541.955328	2701.176260
542.315102	2697.438244
542.674821	2695.784746
543.034483	2692.208047
543.394090	2691.053623
543.753640	2690.337779
544.113134	2695.978830
544.472571	2689.788293
544.831953	2690.584795
545.191278	2686.559434
545.550548	2686.408199
545.909761	2688.049095
546.268918	2687.751667
546.628019	2688.041533
546.987064	2683.784279
547.346053	2681.180523
547.704986	2683.219670
548.063863	2681.999710
548.422684	2680.885615
548.781449	2678.407888
549.140158	2680.210101
549.498811	2681.233455
549.857408	2675.849503
550.215949	2677.835717
550.574434	2676.348577
550.932864	2674.437980
551.291237	2675.811694
551.649555	2676.139369
552.007817	2674.306910
552.366022	2672.900428
552.724173	2673.606189
553.082267	2675.478978
553.440305	2674.344718
553.798288	2670.823472
554.156215	2670.382371
554.514086	2671.151147
554.871902	2666.488080
555.229661	2668.315498
555.587365	2663.632266
555.945014	2666.896413
556.302606	2670.498318
556.660143	2669.792556
557.017625	2668.509583
557.375050	2665.459685
557.732421	2667.771054
558.089735	2669.346414
558.446994	2668.060920
558.804197	2669.527896
559.161345	2667.967659
559.518437	2664.171670
559.875474	2663.649910
560.232455	2664.973213
560.589381	2666.964469
560.946251	2665.316012
561.303065	2669.641322
561.659825	2665.615960
562.016528	2662.132523
562.373177	2664.741320
562.729770	2665.484890
563.086307	2664.365754
563.442789	2661.893068
563.799216	2662.424910
564.155587	2664.688388
564.511904	2665.076557
564.868164	2664.043120
565.224370	2663.239056
565.580520	2662.974396
565.936615	2661.744354
566.292654	2660.327790
566.648638	2663.944818
567.004567	2661.444406
567.360441	2664.035559
567.716260	2660.489107
568.072023	2661.164622
568.427732	2660.766370
568.783385	2660.083294
569.138982	2662.152688
569.494525	2664.459016
569.850013	2662.245949
570.205445	2662.283758
570.560823	2660.020280
570.916145	2657.918118
571.271412	2658.059271
571.626625	2662.112358
571.981782	2659.264107
572.336884	2656.937614
572.691931	2655.473159
573.046923	2655.768066
573.401860	2651.934269
573.756743	2657.867707
574.111570	2659.211174
574.466342	2657.552635
574.821059	2656.100782
575.175722	2653.292860
575.530330	2653.897798
575.884882	2655.435350
576.239380	2650.031233
576.593823	2655.016934
576.948211	2653.739002
577.302544	2650.585760
577.656823	2651.036943
578.011047	2652.786224
578.365216	2653.998621
578.719330	2650.278250
579.073389	2648.334885
579.427394	2650.633651
579.781344	2649.106182
580.135239	2650.076604
580.489080	2651.435195
580.842866	2646.930924
581.196597	2650.827736
581.550273	2648.324803
581.903895	2648.733136
582.257463	2650.111892
582.610975	2648.332364
582.964434	2648.536531
583.317837	2646.509987
583.671186	2646.832621
584.024481	2648.123157
584.377721	2647.276243
584.730906	2647.697179
585.084037	2647.074597
585.437113	2646.220121
585.790135	2644.196098
586.143103	2642.572846
586.496016	2644.622075
586.848874	2645.355563
587.201679	2646.820018
587.554428	2641.945222
587.907124	2642.373721
588.259765	2642.013278
588.612352	2642.711478
588.964884	2641.403298
589.317362	2643.601242
589.669786	2640.528658
590.022155	2639.366672
590.374470	2637.791312
590.726731	2639.391878
591.078937	2633.425672
591.431090	2638.602938
591.783188	2637.335087
592.135232	2638.534882
592.487222	2639.167547
592.839157	2639.200314
593.191038	2639.248205
593.542866	2637.282155
593.894639	2636.372227
594.246358	2635.852988
594.598022	2635.288379
594.949633	2632.674541
595.301190	2631.452061
595.652692	2632.442647
596.004141	2636.284007
596.355535	2631.406690
596.706876	2630.244704
597.058162	2626.597430
597.409395	2629.470887
597.760573	2632.409880
598.111698	2630.063223
598.462768	2628.087091
598.813785	2628.762605
599.164748	2629.017183
599.515657	2628.472739
599.866511	2624.507871
600.217312	2628.296298
600.568060	2624.243211
600.918753	2629.801083
601.269392	2630.373254
601.619978	2630.453912
601.970510	2627.794704
602.320988	2625.758077
602.671412	2627.270424
603.021783	2628.951648
603.372100	2627.008284
603.722363	2628.644138
604.072572	2629.697739
604.422728	2626.370578
604.772830	2626.115999
605.122878	2628.598768
605.472872	2623.545011
605.822813	2626.599950
606.172701	2624.946452
606.522534	2627.572893
606.872314	2628.273613
607.222041	2625.672378
607.571714	2624.434775
607.921333	2622.191461
608.270899	2624.026441
608.620411	2622.872017
608.969870	2627.656072
609.319276	2626.390742
609.668627	2625.780763
610.017926	2628.626494
610.367171	2628.334107
610.716362	2626.030300
611.065500	2628.225722
611.414585	2627.991309
611.763616	2630.282513
612.112594	2628.248407
612.461518	2628.066926
612.810389	2629.491052
613.159207	2627.270424
613.507971	2630.181690
613.856682	2631.615898
614.205340	2631.956176
614.553945	2630.958028
614.902496	2631.134468
615.250994	2629.004581
615.599439	2631.252935
615.947830	2632.457771
616.296169	2629.894344
616.644454	2631.573048
616.992686	2631.452061
617.340864	2634.310395
617.688990	2630.521968
618.037063	2632.488018
618.385082	2633.919706
618.733048	2633.466002
619.080961	2629.793521
619.428821	2634.413739
619.776628	2635.361476
620.124382	2634.048255
620.472083	2631.401649
620.819731	2634.209572
621.167326	2631.318470
621.514868	2633.163532
621.862357	2632.014149
622.209793	2631.290744
622.557176	2624.835546
622.904506	2624.371760
623.251783	2625.793366
623.599007	2623.671040
623.946179	2623.030813
624.293297	2627.083901
624.640363	2621.952006
624.987376	2619.277674
625.334336	2616.124432
625.681243	2615.595111
626.028097	2614.097889
626.374899	2617.014196
626.721647	2617.021758
627.068343	2615.769031
627.414987	2615.547220
627.761577	2613.954216
628.108115	2614.475975
628.454600	2613.986983
628.801032	2611.930192
629.147412	2614.022271
629.493739	2611.985645
629.840014	2609.868361
630.186236	2610.627054
630.532405	2609.936416
630.878521	2610.201077
631.224585	2610.047322
631.570597	2610.707713
631.916556	2608.595469
632.262462	2607.743514
632.608316	2608.280397
632.954117	2608.318206
633.299866	2608.802157
633.645562	2608.870212
633.991206	2607.141096
634.336797	2604.718822
634.682336	2606.662187
635.027823	2602.520879
635.373257	2604.358379
635.718639	2603.703029
636.063968	2599.896958
636.409245	2600.441403
636.754470	2598.039293
637.099642	2598.654314
637.444762	2597.449478
637.789829	2596.146340
638.134845	2593.419076
638.479808	2593.411514
638.824719	2594.586103
639.169577	2592.040320
639.514383	2596.055599
639.859137	2590.154928
640.203839	2591.790783
640.548489	2590.427151
640.893086	2589.958323
641.237632	2590.210381
641.582125	2591.674836
641.926566	2589.434043
642.270955	2587.982191
642.615292	2585.524629
642.959576	2587.949424
643.303809	2584.942375
643.647990	2590.132243
643.992118	2589.015628
644.336195	2587.803230
644.680219	2588.720720
645.024192	2588.085535
645.368112	2589.915474
645.711981	2590.490165
646.055797	2589.812130
646.399562	2594.603747
646.743274	2593.333376
647.086935	2597.835126
647.430544	2596.330342
647.774101	2597.522575
648.117606	2598.016608
648.461059	2597.167173
648.804460	2599.382761
649.147810	2596.690784
649.491108	2592.393201
649.834354	2590.689291
650.177548	2589.973447
650.520690	2589.779362
650.863781	2589.454208
651.206820	2587.725092
651.549807	2586.926069
651.892742	2586.265678
652.235626	2584.040009
652.578458	2583.714854
652.921238	2582.073959
653.263967	2581.907601
653.606644	2584.203846
653.949269	2581.262333
654.291843	2580.974987
654.634365	2582.857858
654.976836	2584.733167
655.319255	2580.027250
655.661622	2580.803588
656.003938	2578.469534
656.346203	2575.671693
656.688416	2577.557085
657.030577	2576.508525
657.372687	2581.658064
657.714746	2578.814853
658.056753	2580.735532
658.398708	2575.520459
658.740612	2577.552044
659.082465	2578.076324
659.424266	2575.991807
659.766016	2572.465520
660.107715	2575.041549
660.449362	2573.985427
660.790958	2577.652867
661.132503	2581.524473
661.473996	2579.165213
661.815438	2577.204204
662.156829	2579.175295
662.498168	2579.565985
662.839456	2576.201015
663.180693	2576.944585
663.521879	2577.242013
663.863013	2579.245872
664.204097	2578.444328
664.545129	2578.333423
664.886110	2578.567836
665.227040	2581.088413
665.567918	2579.520614
665.908746	2581.007755
666.249522	2578.678742
666.590248	2579.434915
666.930922	2578.209914
667.271545	2578.973649
667.612118	2581.307703
667.952639	2579.634040
668.293109	2579.997003
668.633528	2577.965418
668.973896	2579.621437
669.314213	2578.761921
669.654480	2575.359142
669.994695	2578.497260
670.334859	2577.683114
670.674973	2575.729667
671.015035	2577.163875
671.355047	2575.112125
671.695008	2575.442321
672.034918	2580.543969
672.374777	2575.588514
672.714585	2575.734708
673.054342	2578.784606
673.394049	2577.728484
673.733705	2576.392578
674.073310	2574.764286
674.412864	2577.123546
674.752368	2577.731005
675.091820	2576.531210
675.431223	2573.481312
675.770574	2574.013154
676.109875	2572.863771
676.449125	2569.019891
676.788324	2569.581980
677.127473	2569.743297
677.466571	2564.727348
677.805619	2567.293296
678.144616	2568.808162
678.483562	2568.787998
678.822458	2568.145251
679.161303	2569.037535
679.500098	2569.166084
679.838842	2567.618450
680.177535	2566.033007
680.516179	2569.471074
680.854771	2568.102401
681.193314	2569.876887
681.531805	2573.345201
681.870247	2576.785788
682.208638	2579.192939
682.546978	2578.154462
682.885268	2580.861561
683.223508	2578.950964
683.561697	2576.889132
683.899836	2576.090109
684.237925	2577.461303
684.575963	2575.333936
684.913951	2573.299831
685.251889	2575.298648
685.589776	2575.437280
685.927614	2573.168761
686.265401	2573.584656
686.603137	2576.132959
686.940824	2577.325192
687.278460	2578.779565
687.616046	2577.829307
687.953582	2579.797878
688.291068	2582.371387
688.628504	2581.007755
688.965889	2580.070100
689.303224	2582.061356
689.640510	2579.613876
689.977745	2575.787640
690.314930	2574.101374
690.652065	2576.301838
690.989150	2572.949470
691.326185	2568.389747
691.663170	2565.334807
692.000105	2565.339849
692.336990	2562.728531
692.673825	2561.173335
693.010610	2558.408262
693.347345	2555.980947
693.684030	2553.117571
694.020665	2553.777962
694.357251	2547.912580
694.693786	2554.360216
695.030272	2550.080276
695.366707	2550.286963
695.703093	2548.779658
696.039429	2550.372663
696.375716	2549.109854
696.711952	2547.741181
697.048139	2545.150027
697.384276	2547.025337
697.720363	2550.743188
698.056400	2547.174051
698.392388	2545.964174
698.728326	2545.107178
699.064214	2543.869574
699.400053	2547.423588
699.735842	2545.243289
700.071581	2545.139945
700.407270	2544.749256
700.742910	2542.694986
701.078501	2539.723225
701.414042	2542.241282
701.749533	2538.954449
702.084974	2540.234903
702.420366	2540.204656
702.755709	2540.560057
703.091002	2537.600900
703.426246	2539.405633
703.761440	2535.168543
704.096584	2537.847916
704.431679	2533.764582
704.766725	2533.091587
705.101721	2535.168543
705.436668	2535.385313
705.771565	2537.038811
706.106413	2535.609644
706.441212	2532.547143
706.775961	2534.261135
707.110661	2535.942360
707.445311	2536.365817
707.779913	2535.188707
708.114465	2538.112577
708.448967	2538.989737
708.783421	2539.821528
709.117825	2541.134748
709.452180	2540.718853
709.786485	2542.989893
710.120742	2545.155069
710.454949	2543.506611
710.789107	2544.419060
711.123216	2545.316386
711.457275	2549.059442
711.791286	2551.847200
712.125247	2554.997922
712.459159	2553.039433
712.793023	2556.376677
713.126837	2554.861810
713.460602	2556.205278
713.794318	2552.179917
714.127985	2552.890719
714.461602	2548.646068
714.795171	2549.858465
715.128691	2545.964174
715.462162	2546.995090
715.795584	2540.275232
716.128957	2542.435366
716.462281	2538.127700
716.795556	2540.459234
717.128782	2539.277083
717.461960	2536.857329
717.795088	2535.871784
718.128167	2535.546629
718.461198	2534.974458
718.794180	2531.745599
719.127113	2531.780887
719.459997	2530.767616
719.792833	2528.282327
720.125619	2531.473377
720.458357	2530.306350
720.791046	2531.218799
721.123686	2529.088911
721.456278	2524.438447
721.788821	2528.373068
722.121315	2526.729651
722.453761	2526.863242
722.786158	2525.297964
723.118506	2526.394415
723.450805	2526.142357
723.783056	2524.892151
724.115259	2526.608664
724.447412	2524.123375
724.779518	2526.177645
725.111574	2524.453570
725.443582	2525.703777
725.775542	2526.744775
726.107453	2529.240146
726.439315	2527.458098
726.771129	2531.463295
727.102895	2528.657893
727.434612	2528.662934
727.766281	2527.289219
728.097901	2533.096629
728.429473	2533.310878
728.760996	2535.876825
729.092471	2536.469161
729.423897	2531.294416
729.755276	2535.730632
730.086606	2534.490508
730.417887	2535.385313
730.749120	2540.902855
731.080305	2539.226672
731.411442	2539.352701
731.742530	2542.846220
732.073570	2542.258926
732.404562	2543.486447
732.735506	2543.622558
733.066401	2542.468134
733.397249	2541.903524
733.728048	2538.478060
734.058798	2537.212731
734.389501	2534.180477
734.720156	2533.134437
735.050762	2531.042358
735.381320	2526.316277
735.711831	2525.799558
736.042293	2526.825433
736.372707	2525.366019
736.703073	2523.631862
737.033391	2526.369209
737.363661	2524.193951
737.693883	2527.601771
738.024056	2526.127233
738.354182	2526.870804
738.684260	2526.989271
739.014290	2529.895496
739.344272	2529.028418
739.674207	2530.840712
740.004093	2534.021680
740.333931	2532.713501
740.663722	2529.872811
740.993464	2531.831299
741.323159	2533.817514
741.652806	2529.837523
741.982405	2531.919519
742.311956	2529.862728
742.641460	2529.469518
742.970915	2528.355423
743.300323	2522.550535
743.629683	2519.777900
743.958996	2523.273940
744.288260	2522.666481
744.617477	2523.210926
744.946647	2523.558766
745.275768	2522.114475
745.604842	2517.920235
745.933869	2522.147242
746.262847	2519.082221
746.591778	2519.936697
746.920662	2518.237828
747.249498	2520.034999
747.578286	2519.331758
747.907027	2518.116840
748.235720	2519.757736
748.564365	2520.531553
748.892963	2520.728158
749.221514	2521.532222
749.550017	2522.323683
749.878473	2523.067253
750.206881	2519.477952
750.535242	2521.340658
750.863555	2520.155987
751.191821	2517.491737
751.520039	2519.558610
751.848210	2518.005935
752.176334	2517.579957
752.504411	2518.941069
752.832440	2517.469052
753.160421	2519.225894
753.488356	2517.524504
753.816243	2518.852848
754.144082	2516.123064
754.471875	2516.276819
754.799620	2516.019720
755.127318	2517.784124
755.454969	2515.641633
755.782572	2519.467869
756.110129	2515.419823
756.437638	2515.414782
756.765100	2517.126253
757.092515	2518.595750
757.419882	2517.811850
757.747203	2517.159021
758.074477	2518.114319
758.401703	2517.748836
758.728882	2518.144566
759.056014	2518.527694
759.383099	2521.028106
759.710138	2519.556089
760.037129	2514.983763
760.364073	2519.445184
760.690970	2516.584329
761.017820	2518.729340
761.344623	2520.786131
761.671379	2521.748991
761.998088	2525.355937
762.324751	2530.394570
762.651366	2539.254398
762.977935	2558.259548
763.304456	2569.183728
763.630931	2579.810481
763.957359	2578.532548
764.283740	2569.173646
764.610074	2561.170814
764.936362	2550.700338
765.262602	2544.177085
765.588796	2535.435724
765.914943	2528.655372
766.241044	2522.719413
766.567097	2518.038702
766.893104	2516.589370
767.219064	2514.013341
767.544978	2513.741118
767.870845	2513.582322
768.196665	2510.968484
768.522438	2508.105108
768.848165	2509.125942
769.173846	2506.605365
769.499479	2510.998731
769.825066	2503.550426
770.150607	2508.100067
770.476101	2503.973883
770.801548	2505.095540
771.126949	2505.098060
771.452303	2502.096053
771.777611	2501.423059
772.102872	2501.017246
772.428087	2502.617812
772.753256	2501.536485
773.078378	2500.734942
773.403453	2498.196721
773.728482	2499.247801
774.053465	2499.174704
774.378401	2497.054899
774.703291	2496.432317
775.028135	2496.064313
775.352932	2499.605723
775.677683	2496.964158
776.002388	2494.821668
776.327046	2494.037769
776.651658	2494.393170
776.976224	2490.612305
777.300743	2495.368633
777.625216	2498.605054
777.949643	2497.924498
778.274024	2494.405773
778.598359	2495.222440
778.922647	2493.251349
779.246889	2496.996926
779.571086	2493.316884
779.895236	2498.398367
780.219339	2495.063643
780.543397	2498.289982
780.867409	2496.253356
781.191374	2494.980464
781.515294	2494.481390
781.839167	2494.385608
782.162995	2496.283603
782.486776	2495.678664
782.810511	2494.516678
783.134201	2496.150012
783.457844	2496.054230
783.781441	2494.791421
784.104993	2493.919302
784.428498	2493.773108
784.751958	2493.190855
785.075372	2495.061123
785.398739	2496.681854
785.722061	2497.140599
786.045337	2495.482059
786.368568	2496.742348
786.691752	2493.994919
787.014891	2493.717655
787.337983	2497.964828
787.661030	2500.162771
787.984031	2500.616474
788.306987	2506.055879
788.629897	2506.086126
788.952760	2506.902793
789.275579	2505.975221
789.598351	2502.194356
789.921078	2504.460354
790.243759	2500.278717
790.566395	2500.929026
790.888984	2499.028511
791.211529	2499.940960
791.534027	2498.080774
791.856480	2496.225629
792.178888	2491.970896
792.501249	2493.561380
792.823566	2494.612460
793.145836	2489.092397
793.468062	2493.122799
793.790241	2494.418376
794.112375	2495.870228
794.434464	2495.882831
794.756507	2494.098262
795.078505	2493.936946
795.400457	2493.611791
795.722364	2497.574138
796.044226	2499.061278
796.366042	2499.615805
796.687812	2500.215703
797.009538	2499.890548
797.331218	2499.867863
797.652852	2501.067658
797.974442	2502.275014
798.295986	2497.695126
798.617484	2497.871566
798.938938	2499.701505
799.260346	2498.738645
799.581709	2496.588592
799.903026	2497.191010
800.224299	2491.509630
800.545526	2493.274034
800.866708	2494.521719
801.187845	2495.887872
801.508936	2491.789414
801.829983	2494.027686
802.150984	2494.032728
802.471940	2495.393839
802.792851	2491.194558
803.113717	2490.907212
803.434538	2491.181955
803.755314	2493.042141
804.076045	2491.683550
804.396731	2492.593478
804.717372	2493.470639
805.037967	2492.674137
805.358518	2492.845536
805.679024	2491.066008
805.999485	2493.115237
806.319901	2494.403252
806.640272	2493.059785
806.960598	2491.857470
807.280879	2494.317553
807.601115	2495.111534
807.921306	2494.446102
808.241453	2490.619866
808.561554	2488.603405
808.881611	2491.872593
809.201623	2487.285143
809.521590	2493.092552
809.841513	2495.340907
810.161390	2492.376708
810.481223	2491.043323
810.801011	2492.999291
811.120755	2494.499034
811.440453	2492.376708
811.760107	2491.786893
812.079716	2491.723879
812.399281	2493.153046
812.718801	2493.309322
813.038276	2492.182624
813.357707	2490.471152
813.677093	2494.062974
813.996434	2491.537356
814.315731	2489.614156
814.634983	2491.998622
814.954191	2491.244969
815.273354	2490.544249
815.592473	2490.617346
815.911547	2493.972234
816.230577	2491.179434
816.549562	2493.558859
816.868502	2493.510968
817.187399	2498.370640
817.506250	2495.091370
817.825058	2499.043634
818.143821	2499.222595
818.462539	2500.223264
818.781213	2503.842813
819.099843	2505.178719
819.418429	2511.175171
819.736970	2515.687004
820.055466	2523.838550
820.373919	2528.783922
820.692327	2540.713812
821.010691	2560.296174
821.329011	2605.313678
821.647286	2677.460151
821.965517	2768.647063
822.283704	2829.869356
822.601847	2867.947711
822.919945	2846.477437
823.237999	2808.310861
823.556010	2769.032711
823.873976	2723.984960
824.191897	2683.837211
824.509775	2653.507109
824.827609	2625.984929
825.145398	2603.876949
825.463144	2597.257914
825.780845	2596.617688
826.098502	2600.103646
826.416116	2620.308590
826.733685	2637.977834
827.051210	2647.263640
827.368692	2645.325316
827.686129	2628.928963
828.003522	2605.293513
828.320872	2585.023034
828.638177	2564.772719
828.955439	2550.420554
829.272656	2540.063503
829.589830	2534.130065
829.906960	2526.389373
830.224046	2517.479134
830.541088	2512.513597
830.858086	2512.322034
831.175041	2503.555467
831.491952	2505.612258
831.808819	2506.774244
832.125642	2509.342712
832.442421	2510.766838
832.759157	2519.702283
833.075849	2535.380271
833.392497	2553.341902
833.709101	2566.176680
834.025662	2570.081054
834.342179	2563.046124
834.658653	2549.588763
834.975083	2543.173895
835.291469	2534.011598
835.607811	2523.004239
835.924110	2517.320338
836.240366	2510.088802
836.556578	2506.449089
836.872746	2502.832062
837.188871	2496.747389
837.504952	2494.015083
837.820990	2494.214209
838.136984	2487.890082
838.452935	2490.798827
838.768842	2491.149187
839.084706	2491.519712
839.400526	2498.237050
839.716303	2505.793739
840.032037	2512.284225
840.347727	2513.249606
840.663373	2509.793895
840.978977	2502.154026
841.294537	2502.811897
841.610054	2498.806700
841.925527	2494.325114
842.240957	2492.207830
842.556344	2490.927377
842.871687	2488.779845
843.186987	2485.099803
843.502244	2483.040492
843.817458	2484.557879
844.132629	2483.194247
844.447756	2482.024699
844.762840	2479.413381
845.077881	2480.187198
845.392879	2481.553351
845.707833	2480.202322
846.022745	2478.145531
846.337613	2480.477065
846.652438	2480.968577
846.967221	2475.297279
847.281960	2479.294914
847.596656	2479.438587
847.911309	2477.008751
848.225919	2477.588484
848.540485	2478.016982
848.855009	2478.427836
849.169490	2476.872640
849.483928	2478.029585
849.798323	2477.575881
850.112675	2474.369707
850.426984	2477.059163
850.741251	2475.178812
851.055474	2476.562609
851.369654	2476.368524
851.683792	2472.940540
851.997887	2476.408854
852.311938	2475.929944
852.625947	2475.773668
852.939914	2475.695530
853.253837	2476.363483
853.567718	2475.766107
853.881555	2475.372897
854.195350	2477.084368
854.509103	2475.299800
854.822812	2476.534883
855.136479	2474.493215
855.450103	2477.202835
855.763685	2471.029942
856.077224	2471.294603
856.390720	2473.737042
856.704173	2471.067751
857.017584	2473.454737
857.330953	2475.819039
857.644278	2476.479430
857.957561	2478.553865
858.270802	2475.171250
858.584000	2475.912300
858.897155	2477.180150
859.210268	2476.955819
859.523339	2477.520428
859.836367	2476.207208
860.149352	2476.774337
860.462295	2475.889615
860.775195	2475.957670
861.088054	2475.720736
861.400869	2478.758031
861.713642	2477.084368
862.026373	2475.120839
862.339062	2475.088071
862.651708	2475.811477
862.964312	2475.597228
863.276873	2476.373566
863.589392	2479.433546
863.901869	2476.837352
864.214303	2474.611682
864.526696	2479.287353
864.839045	2478.944554
865.151353	2479.035295
865.463619	2477.119656
865.775842	2477.996817
866.088023	2478.180819
866.400162	2479.602425
866.712258	2478.367342
867.024313	2479.068062
867.336325	2480.023361
867.648296	2479.337764
867.960224	2480.882878
868.272110	2478.200984
868.583954	2480.098978
868.895755	2479.940182
869.207515	2481.271047
869.519233	2478.591673
869.830909	2480.270378
870.142542	2478.276601
870.454134	2479.529328
870.765684	2482.067549
871.077191	2480.799699
871.388657	2476.930613
871.700081	2477.152424
872.011463	2479.851962
872.322803	2477.883391
872.634101	2483.942858
872.945357	2483.456387
873.256571	2482.392703
873.567744	2483.592498
873.878874	2484.204998
874.189963	2483.279946
874.501010	2483.204329
874.812015	2482.264154
875.122979	2485.084679
875.433900	2484.593167
875.744780	2485.122488
876.055618	2483.479072
876.366415	2486.166007
876.677169	2488.552993
876.987882	2487.249855
877.298554	2487.189361
877.609183	2487.837149
877.919771	2489.228508
878.230317	2492.031389
878.540822	2491.484424
878.851285	2495.522388
879.161707	2499.514982
879.472087	2505.271980
879.782425	2512.959740
880.092722	2530.893644
880.402977	2557.248797
880.713191	2591.458067
881.023363	2631.023563
881.333494	2658.397028
881.643583	2672.144255
881.953631	2674.538803
882.263637	2664.731238
882.573602	2652.009886
882.883526	2640.397588
883.193408	2625.498458
883.503248	2612.656119
883.813048	2596.219437
884.122806	2584.176120
884.432522	2570.474264
884.742197	2556.507747
885.051831	2546.001982
885.361424	2535.193749
885.670975	2528.857018
885.980485	2520.811337
886.289954	2514.774555
886.599382	2510.988648
886.908768	2502.552278
887.218113	2497.788387
887.527417	2495.519868
887.836680	2490.266986
888.145901	2493.014414
888.455082	2491.739003
888.764221	2489.311687
889.073319	2489.551142
889.382376	2490.072901
889.691392	2487.701038
890.000366	2487.701038
890.309300	2488.628611
890.618193	2490.241780
890.927044	2491.121461
891.235855	2488.008549
891.544625	2488.371512
891.853353	2489.767911
892.162041	2488.840339
892.470687	2492.643890
892.779293	2490.561893
893.087858	2497.692605
893.396381	2499.628408
893.704864	2509.531755
894.013306	2515.235821
894.321707	2529.512368
894.630068	2536.325488
894.938387	2539.864378
895.246665	2539.002340
895.554903	2533.318439
895.863100	2530.089580
896.171256	2524.637573
896.479371	2520.171110
896.787446	2515.404699
897.095480	2511.117198
897.403473	2508.578977
897.711425	2505.365241
898.019336	2505.085457
898.327207	2499.777122
898.635038	2495.751761
898.942827	2496.752430
899.250576	2495.126658
899.558284	2488.598364
899.865952	2489.563745
900.173579	2489.006697
900.481165	2483.161479
900.788711	2486.453353
901.096216	2484.789772
901.403681	2485.404793
901.711105	2487.343116
902.018489	2485.301449
902.325832	2484.434371
902.633135	2481.583598
902.940397	2486.748260
903.247619	2490.965185
903.554800	2506.870026
903.861941	2525.910464
904.169041	2546.279246
904.476101	2555.922973
904.783121	2552.731923
905.090100	2546.493495
905.397039	2538.462937
905.703938	2530.447502
906.010796	2525.676050
906.317614	2518.464680
906.624391	2510.182064
906.931129	2509.214162
907.237826	2501.670076
907.544483	2498.184118
907.851099	2496.512975
908.157675	2494.005001
908.464211	2487.569968
908.770707	2487.882520
909.077163	2480.860192
909.383578	2482.483444
909.689954	2478.442959
909.996289	2480.900522
910.302584	2480.167034
910.608839	2478.521097
910.915054	2474.926754
911.221229	2478.107722
911.527363	2476.580253
911.833458	2475.138483
912.139513	2478.062352
912.445527	2478.112764
912.751502	2481.510501
913.057436	2480.161993
913.363331	2481.497898
913.669186	2483.582416
913.975000	2483.824391
914.280775	2489.604074
914.586510	2493.805876
914.892205	2505.899604
915.197859	2511.681807
915.503475	2527.130423
915.809050	2536.050745
916.114585	2549.124977
916.420081	2551.658157
916.725536	2553.667057
917.030952	2550.387786
917.336328	2544.323278
917.641665	2539.375386
917.946961	2530.545805
918.252218	2529.842564
918.557435	2521.685977
918.862612	2521.948117
919.167750	2516.659947
919.472848	2512.420336
919.777906	2506.227279
920.082925	2500.394664
920.387904	2501.440703
920.692843	2496.165136
920.997743	2494.786380
921.302603	2490.708087
921.607423	2490.642552
921.912204	2486.405462
922.216946	2482.785913
922.521647	2482.939668
922.826310	2482.634679
923.130932	2482.826243
923.435516	2482.584267
923.740059	2477.855665
924.044564	2479.022692
924.349028	2476.209728
924.653454	2475.161168
924.957840	2475.864409
925.262186	2475.559419
925.566493	2474.619244
925.870761	2476.587815
926.174989	2473.195118
926.479178	2474.689820
926.783328	2472.960704
927.087438	2471.052628
927.391509	2470.377113
927.695541	2471.972638
927.999533	2470.493060
928.303486	2469.673872
928.607400	2470.530868
928.911275	2470.157823
929.215110	2470.876187
929.518906	2472.847278
929.822663	2468.915178
930.126381	2471.750828
930.430060	2471.203862
930.733699	2469.905765
931.037299	2468.640436
931.340861	2471.307206
931.644383	2471.438276
931.947866	2470.568677
932.251309	2472.365848
932.554714	2469.890642
932.858080	2468.995837
933.161407	2464.242029
933.464694	2468.660600
933.767943	2464.257152
934.071153	2467.294448
934.374323	2469.449541
934.677455	2470.125055
934.980548	2468.090950
935.283602	2468.683285
935.586617	2467.551546
935.889593	2470.586321
936.192530	2471.145889
936.495428	2468.942905
936.798287	2468.600106
937.101108	2468.819397
937.403890	2470.556074
937.706632	2471.037504
938.009336	2468.978193
938.312002	2474.092443
938.614628	2478.223669
938.917216	2476.295428
939.219765	2475.670325
939.522275	2474.460448
939.824747	2475.733339
940.127179	2475.771148
940.429573	2475.715695
940.731929	2477.654019
941.034246	2475.163689
941.336524	2475.932465
941.638763	2475.090592
941.940964	2474.551188
942.243126	2473.122021
942.545250	2474.929275
942.847335	2473.263174
943.149381	2472.121352
943.451389	2474.732670
943.753359	2475.062866
944.055290	2471.834007
944.357182	2469.941053
944.659036	2472.391054
944.960851	2471.644963
945.262628	2474.301651
945.564367	2472.759058
945.866067	2469.983903
946.167729	2471.282000
946.469352	2470.430045
946.770937	2471.960035
947.072484	2471.284521
947.373992	2472.917855
947.675462	2471.453399
947.976893	2468.400981
948.278286	2465.751854
948.579641	2468.055662
948.880958	2465.338480
949.182236	2472.776702
949.483476	2468.474077
949.784678	2471.518934
950.085841	2469.716722
950.386967	2471.813842
950.688054	2471.939871
950.989103	2472.290231
951.290114	2470.583800
951.591087	2470.520786
951.892021	2471.874336
952.192917	2470.805611
952.493776	2471.433235
952.794596	2472.786785
953.095378	2470.321660
953.396122	2470.498101
953.696828	2472.522124
953.997496	2472.043214
954.298126	2472.416260
954.598718	2471.617237
954.899272	2470.888790
955.199788	2471.208903
955.500266	2469.623461
955.800706	2472.265025
956.101108	2467.710343
956.401472	2468.925261
956.701798	2470.583800
957.002087	2467.843933
957.302337	2471.171095
957.602550	2468.121197
957.902724	2468.355610
958.202861	2466.190435
958.502960	2466.492904
958.803022	2467.160857
959.103045	2467.080198
959.403031	2464.388222
959.702979	2469.263018
960.002889	2465.782101
960.302762	2465.867801
960.602596	2463.972327
960.902393	2467.879221
961.202153	2463.261524
961.501875	2464.468881
961.801559	2464.138685
962.101205	2462.671709
962.400814	2464.292440
962.700385	2465.376288
962.999918	2463.301854
963.299414	2462.283541
963.598873	2461.265228
963.898293	2457.267592
964.197677	2465.106587
964.497022	2463.972327
964.796331	2462.089456
965.095601	2465.809828
965.394835	2463.500979
965.694030	2465.096504
965.993189	2464.839406
966.292309	2466.661783
966.591393	2464.173973
966.890439	2462.414611
967.189447	2464.915023
967.488419	2465.305712
967.787353	2465.749334
968.086249	2463.710187
968.385108	2463.984930
968.683930	2466.077009
968.982714	2464.110959
969.281462	2462.712039
969.580172	2464.171453
969.878844	2463.362347
970.177480	2462.253294
970.476078	2463.848819
970.774639	2466.505507
971.073162	2463.778243
971.371649	2463.100207
971.670098	2464.582307
971.968510	2466.024077
972.266885	2464.733541
972.565223	2467.470888
972.863524	2467.846454
973.161788	2465.300671
973.460014	2466.021556
973.758204	2465.046093
974.056356	2465.615743
974.354471	2464.859570
974.652550	2465.835033
974.950591	2464.816720
975.248595	2461.665999
975.546563	2467.662452
975.844493	2464.204220
976.142386	2463.687502
976.440243	2463.750516
976.738062	2462.447378
977.035845	2464.993161
977.333590	2467.627164
977.631299	2463.609364
977.928971	2463.090125
978.226606	2460.655248
978.524204	2463.135496
978.821765	2456.171142
979.119290	2464.665486
979.416777	2463.145578
979.714228	2465.822431
980.011642	2461.965948
980.309020	2464.920064
980.606360	2464.415949
980.903664	2466.387040
981.200931	2466.714715
981.498162	2465.766978
981.795356	2467.375106
982.092513	2468.383337
982.389633	2468.227061
982.686717	2471.813842
982.983764	2473.114460
983.280775	2475.214100
983.577749	2474.233596
983.874686	2473.784933
984.171587	2474.442804
984.468451	2473.646301
984.765279	2474.601600
985.062070	2472.207052
985.358824	2468.907617
985.655543	2473.122021
985.952224	2468.642956
986.248869	2467.309571
986.545478	2465.464509
986.842050	2465.169601
987.138586	2464.846967
987.435086	2466.530713
987.731549	2463.798407
988.027975	2463.153140
988.324366	2461.010649
988.620719	2463.460650
988.917037	2463.415280
989.213318	2464.007615
989.509563	2460.836729
989.805772	2463.253963
990.101944	2462.452419
990.398080	2463.506020
990.694180	2463.011987
990.990244	2462.338993
991.286271	2462.175156
991.582262	2465.661114
991.878217	2461.403859
992.174136	2463.448047
992.470019	2461.635752
992.765865	2463.390074
993.061676	2457.401183
993.357450	2461.413942
993.653188	2457.786831
993.948890	2463.458129
994.244556	2462.901082
994.540186	2464.972996
994.835780	2460.693057
995.131337	2464.478963
995.426859	2462.165073
995.722345	2466.755044
996.017795	2466.422328
996.313208	2471.460961
996.608586	2469.189921
996.903928	2470.268728
997.199234	2468.688327
997.494504	2468.932823
997.789738	2469.389047
998.084936	2465.817389
998.380099	2468.000209
998.675225	2466.291258
998.970316	2468.418625
999.265371	2465.925774
999.560390	2465.540126
999.855373	2464.131123
1000.150320	2463.231278
1000.445232	2465.600620
1000.740108	2464.045424
1001.034948	2461.512244
1001.329752	2464.627677
1001.624521	2463.183387
1001.919254	2461.101390
1002.213951	2461.819754
1002.508613	2459.334466
1002.803239	2462.301185
1003.097829	2461.630711
1003.392384	2462.432255
1003.686903	2460.597275
1003.981386	2463.667337
1004.275834	2460.498972
1004.570246	2462.762450
1004.864623	2460.264558
1005.158964	2462.560804
1005.453270	2461.650876
1005.747540	2464.481484
1006.041775	2460.753550
1006.335974	2461.814713
1006.630138	2460.367902
1006.924266	2462.875876
1007.218359	2458.449743
1007.512416	2457.880093
1007.806438	2458.278344
1008.100425	2457.537294
1008.394376	2456.531584
1008.688292	2460.612398
1008.982172	2462.011318
1009.276017	2460.289764
1009.569827	2460.267079
1009.863602	2460.680454
1010.157341	2459.089970
1010.451045	2460.239353
1010.744714	2462.177676
1011.038347	2458.719445
1011.331945	2462.961576
1011.625508	2461.539970
1011.919036	2461.113993
1012.212528	2461.824796
1012.505986	2461.325721
1012.799408	2461.910495
1013.092795	2458.873200
1013.386147	2461.560135
1013.679464	2458.396811
1013.972745	2463.659776
1014.265992	2460.798921
1014.559204	2460.612398
1014.852380	2459.455453
1015.145521	2461.272789
1015.438628	2459.757922
1015.731699	2461.149281
1016.024736	2461.744137
1016.317737	2460.390587
1016.610703	2460.889662
1016.903635	2460.524178
1017.196531	2460.128447
1017.489393	2460.554425
1017.782219	2459.281533
1018.075011	2462.555763
1018.367768	2458.797583
1018.660490	2459.984774
1018.953177	2459.984774
1019.245829	2459.984774
