Dividing Wavelength (nm)	Counts (n)	Blue Motor Position (mm): 0.000000	Red Motor Position (mm): 34.000000	
326.493990	2053.677857
326.888308	2053.677857
327.282561	2053.677857
327.676750	2028.245236
328.070874	2027.952849
328.464933	2033.394774
328.858929	2041.740404
329.252859	2052.848587
329.646726	2065.322922
330.040528	2081.883113
330.434265	2098.040011
330.827938	2120.216046
331.221547	2142.790333
331.615091	2161.614002
332.008571	2179.961281
332.401986	2201.688654
332.795338	2221.555842
333.188625	2239.414129
333.581847	2262.805083
333.975006	2277.870571
334.368100	2292.920936
334.761129	2311.752166
335.154095	2326.951245
335.546996	2349.931345
335.939833	2385.610111
336.332606	2395.158057
336.725315	2410.715057
337.117960	2416.996335
337.510540	2429.831113
337.903056	2436.724891
338.295508	2444.296704
338.687896	2450.998918
339.080220	2456.692901
339.472480	2460.567028
339.864676	2466.233285
340.256807	2467.211268
340.648875	2471.458441
341.040879	2469.119345
341.432818	2474.024388
341.824694	2474.911631
342.216506	2475.077989
342.608253	2473.563122
342.999937	2473.174953
343.391557	2472.854840
343.783113	2472.474233
344.174605	2470.452730
344.566033	2469.595734
344.957397	2466.732359
345.348697	2465.439303
345.739934	2465.754375
346.131106	2459.468056
346.522215	2460.352779
346.913260	2457.438992
347.304241	2456.725668
347.695159	2456.801286
348.086012	2456.032510
348.476802	2450.827518
348.867528	2448.374997
349.258191	2444.311827
349.648789	2448.097734
350.039324	2443.293514
350.429796	2446.653443
350.820203	2445.418360
351.210548	2445.471292
351.600828	2446.096396
351.991045	2443.946343
352.381198	2444.243772
352.771288	2443.149841
353.161314	2444.251333
353.551276	2440.977104
353.941175	2445.355346
354.331010	2447.051694
354.720782	2445.156220
355.110490	2446.250151
355.500135	2442.406271
355.889717	2443.724533
356.279235	2445.819132
356.668689	2447.848197
357.058080	2445.821653
357.447408	2445.183947
357.836672	2446.179575
358.225873	2447.891046
358.615010	2451.215687
359.004084	2448.319544
359.393095	2448.077569
359.782043	2449.582353
360.170927	2452.846501
360.559748	2452.496140
360.948505	2450.265430
361.337199	2454.091666
361.725830	2454.217694
362.114398	2454.346244
362.502903	2453.632921
362.891344	2453.118723
363.279722	2454.260544
363.668037	2456.022428
364.056289	2455.054526
364.444478	2458.353961
364.832603	2458.245576
365.220665	2458.941256
365.608665	2458.706842
365.996601	2456.327417
366.384474	2459.140381
366.772284	2462.223047
367.160031	2459.762964
367.547715	2461.053499
367.935336	2460.088118
368.322893	2461.731534
368.710388	2458.968982
369.097820	2461.608026
369.485189	2458.674074
369.872495	2465.603140
370.259738	2463.811010
370.646918	2464.577266
371.034035	2461.237501
371.421090	2466.258490
371.808081	2465.482153
372.195010	2467.972483
372.581875	2472.136476
372.968678	2471.954994
373.355418	2474.581435
373.742096	2474.808287
374.128710	2476.401292
374.515262	2478.047229
374.901751	2485.699700
375.288177	2486.839001
375.674540	2489.485607
376.060841	2495.005670
376.447079	2497.450630
376.833254	2501.181084
377.219367	2506.000427
377.605417	2511.349091
377.991404	2517.448887
378.377329	2525.865093
378.763191	2531.551515
379.148991	2542.158103
379.534727	2548.343598
379.920402	2558.020093
380.306013	2569.463512
380.691563	2580.480954
381.077049	2590.099476
381.462474	2601.094232
381.847835	2615.083434
382.233134	2626.476442
382.618371	2639.961528
383.003545	2657.386277
383.388657	2669.238029
383.773706	2692.245856
384.158693	2702.759182
384.543618	2719.747870
384.928480	2736.368555
385.313280	2757.591812
385.698017	2774.146962
386.082692	2801.278452
386.467305	2813.291521
386.851856	2838.232630
387.236344	2864.209696
387.620770	2883.597973
388.005133	2902.353586
388.389435	2936.812393
388.773674	2946.622479
389.157851	2986.495485
389.541965	3009.964577
389.926018	3022.501926
390.310008	3056.764128
390.693936	3082.272367
391.077802	3110.220524
391.461606	3137.954432
391.845348	3156.410096
392.229027	3186.591484
392.612645	3229.219481
392.996200	3258.735437
393.379694	3293.786579
393.763125	3336.664113
394.146494	3362.978937
394.529801	3396.547980
394.913047	3444.539765
395.296230	3449.583439
395.679351	3474.305258
396.062410	3521.445087
396.445408	3502.439937
396.828343	3543.805125
397.211217	3574.535999
397.594028	3549.693193
397.976778	3600.553394
398.359466	3633.966162
398.742092	3645.001247
399.124656	3655.943072
399.507158	3718.297104
399.889598	3724.538052
400.271977	3793.495996
400.654294	3778.004530
401.036549	3836.988550
401.418742	3829.830112
401.800874	3904.489600
402.182944	3929.778549
402.564952	4016.919934
402.946898	4011.722504
403.328783	4003.104652
403.710606	4055.933424
404.092367	4127.911018
404.474067	4192.261347
404.855705	4172.421886
405.237282	4148.942712
405.618797	4240.933688
406.000250	4321.783713
406.381642	4401.784304
406.762972	4402.968975
407.144240	4370.952607
407.525447	4437.936939
407.906593	4449.813897
408.287677	4537.161970
408.668700	4564.971495
409.049661	4602.956589
409.430560	4639.119306
409.811399	4620.134321
410.192176	4671.796066
410.572891	4754.470989
410.953545	4859.200960
411.334138	4759.411319
411.714669	4863.375035
412.095139	4780.208600
412.475547	4891.678593
412.855894	4895.759408
413.236180	4999.642465
413.616405	4920.418212
413.996568	5026.993245
414.376670	5028.009038
414.756711	5025.372514
415.136691	5095.963791
415.516609	5178.512686
415.896466	5218.030291
416.276262	5293.960150
416.655997	5407.451646
417.035670	5504.191389
417.415283	5639.097707
417.794834	5716.159305
418.174324	5674.718500
418.553753	5679.890724
418.933121	5845.212843
419.312428	5858.607189
419.691674	5780.817144
420.070859	6003.747050
420.449983	5883.150047
420.829045	6080.163380
421.208047	6006.156721
421.586988	6169.371639
421.965867	6235.998048
422.344686	6322.032901
422.723444	6486.598847
423.102141	6101.154745
423.480777	6491.597151
423.859352	6309.992105
424.237866	6675.228742
424.616319	6669.572567
424.994712	6834.322516
425.373044	6747.050061
425.751314	7064.244502
426.129524	6787.064219
426.507673	7052.422996
426.885762	7088.739468
427.263789	7139.529093
427.641756	7225.427834
428.019662	7297.838968
428.397508	7343.317738
428.775292	7318.295971
429.153016	7495.169894
429.530679	7424.263545
429.908282	7472.119218
430.285824	7418.720796
430.663305	7699.487860
431.040726	7591.047599
431.418086	7589.273113
431.795385	7724.807055
432.172624	7917.298473
432.549802	7791.070502
432.926920	7929.828261
433.303977	7868.278293
433.680974	7920.000532
434.057910	8115.617466
434.434786	8166.843151
434.811601	8122.584340
435.188355	8467.268193
435.565050	8348.823763
435.941683	8361.845064
436.318257	8695.332514
436.694770	8646.622365
437.071222	8880.249599
437.447614	8654.678129
437.823946	8623.100341
438.200218	8773.223382
438.576429	8650.897263
438.952580	8817.464548
439.328670	8822.339344
439.704700	8896.618225
440.080670	8793.987895
440.456580	9059.576044
440.832429	9041.803456
441.208218	8779.388713
441.583947	8891.889623
441.959616	9014.361935
442.335224	9043.162047
442.710773	9125.882341
443.086261	9313.153644
443.461689	9024.391311
443.837057	9189.791568
444.212365	9411.347759
444.587612	9393.986026
444.962800	9289.588771
445.337927	9421.712372
445.712995	8961.480231
446.088002	9635.686667
446.462949	9696.268734
446.837837	9673.908696
447.212664	9699.852994
447.587431	10526.156083
447.962139	11531.694876
448.336786	12478.736120
448.711374	12267.078234
449.085901	11050.133613
449.460369	10969.061777
449.834776	10746.431821
450.209124	11661.552478
450.583412	11478.319139
450.957640	11803.440794
451.331808	11389.168854
451.705917	10817.698613
452.079965	10707.453619
452.453954	10903.151211
452.827883	10848.278252
453.201752	10814.406739
453.575562	10822.107102
453.949311	11166.493527
454.323001	11233.084648
454.696632	11149.923254
455.070202	11741.953841
455.443713	11788.665173
455.817164	11967.963891
456.190556	12278.037703
456.563888	12146.879483
456.937160	12415.222622
457.310373	11900.873695
457.683526	11909.282340
458.056619	11932.040629
458.429653	11993.638488
458.802628	12135.836835
459.175542	12190.709795
459.548398	12739.504926
459.921194	13315.423985
460.293930	13590.199637
460.666607	14448.516573
461.039224	15255.922897
461.411782	15613.093688
461.784280	15287.936744
462.156719	15233.663682
462.529099	15143.066586
462.901419	14499.386857
463.273680	14097.982461
463.645882	14309.562209
464.018024	14196.264797
464.390106	14552.971802
464.762130	15619.006962
465.134094	17136.386708
465.505999	19423.187683
465.877845	21712.453782
466.249631	22971.295433
466.621358	22532.503319
466.993026	21726.884085
467.364634	20990.984008
467.736184	20178.869247
468.107674	19554.411438
468.479105	19418.751467
468.850477	19146.120826
469.221790	18709.009938
469.593043	18038.725520
469.964238	17649.641704
470.335373	17704.428964
470.706449	18419.383047
471.077467	19272.686555
471.448425	21744.124831
471.819324	23631.643737
472.190164	23548.482342
472.560945	21814.363228
472.931667	20226.792976
473.302330	19881.967971
473.672934	19328.184618
474.043479	19754.308311
474.413965	19530.554177
474.784393	19353.879379
475.154761	20016.428147
475.525070	20149.900257
475.895321	19976.630758
476.265513	20517.811226
476.635645	21115.389603
477.005719	21168.719969
477.375734	21527.561903
477.745691	22164.552021
478.115588	22800.012148
478.485427	23995.534386
478.855207	25805.676621
479.224928	27616.600235
479.594591	29052.121724
479.964194	28697.559730
480.333739	29184.837661
480.703226	29403.684232
481.072653	29823.380454
481.442022	30361.914317
481.811333	30771.165268
482.180584	30332.211838
482.549777	30119.407090
482.918912	29876.156294
483.287988	29805.953185
483.657005	29672.251703
484.025964	29297.323448
484.394864	29495.009775
484.763706	29423.468240
485.132489	28868.936276
485.501213	28945.612226
485.869879	29127.376069
486.238487	29058.365193
486.607036	29328.944085
486.975527	29003.855197
487.343959	29358.966677
487.712333	29717.574197
488.080648	29662.865075
488.448905	30100.432187
488.817104	29983.227881
489.185244	30807.065845
489.553326	31762.281320
489.921350	33645.111952
490.289315	36176.139188
490.657222	37088.688857
491.025070	37683.550052
491.392861	37420.371574
491.760593	36645.846177
492.128267	35655.594682
492.495883	34670.086914
492.863440	33767.768267
493.230939	32775.485188
493.598380	32202.162323
493.965763	32032.625798
494.333088	31540.520962
494.700354	31345.161127
495.067563	31297.552471
495.434713	31172.728460
495.801805	31451.811778
496.168839	31281.211570
496.535815	31126.732973
496.902733	31254.649731
497.269593	31066.982697
497.636395	31204.129807
498.003139	31482.454432
498.369825	31228.811297
498.736453	31633.784829
499.103023	31464.084467
499.469535	31543.316282
499.835989	31663.237771
500.202385	31513.109688
500.568723	31551.596377
500.935003	31841.921469
501.301226	31707.166385
501.667390	32420.212391
502.033497	32636.251039
502.399546	32410.593869
502.765537	32001.809225
503.131470	32473.426811
503.497345	32884.404358
503.863163	31812.811326
504.228923	32568.195462
504.594625	32952.979173
504.960269	32409.812491
505.325856	33061.207705
505.691385	32700.997098
506.056856	33009.848430
506.422270	33472.301199
506.787625	32975.092195
507.152924	33390.440422
507.518164	33534.015004
507.883347	33090.907663
508.248472	33204.381516
508.613540	33862.002556
508.978550	34064.089810
509.343503	33874.923033
509.708398	34187.083882
510.073236	34735.697532
510.438016	34789.098474
510.802738	34433.966830
511.167403	34935.387718
511.532010	35122.437211
511.896561	35602.473524
512.261053	36301.404299
512.625488	36029.726436
512.989866	35886.892903
513.354186	35886.348459
513.718449	35799.844779
514.082655	36616.443647
514.446803	36254.645076
514.810894	36800.990207
515.174927	36726.771819
515.538904	36678.739705
515.902822	37224.802531
516.266684	36847.729265
516.630488	37130.154868
516.994235	37050.532363
517.357925	37534.059676
517.721558	37704.662404
518.085133	37980.431163
518.448651	38078.519414
518.812112	37899.129955
519.175516	37971.740214
519.538863	38314.662184
519.902152	38282.933162
520.265385	38711.756393
520.628560	38617.943041
520.991678	38475.127152
521.354739	38600.924105
521.717743	38826.422478
522.080690	38648.343719
522.443580	39200.521464
522.806413	39078.966642
523.169189	39105.543605
523.531908	39189.650216
523.894569	38948.738515
524.257174	39013.832414
524.619722	39224.431657
524.982213	39244.649204
525.344647	39167.660703
525.707025	39176.437352
526.069345	39416.013147
526.431608	39231.852235
526.793815	39444.195718
527.155964	38891.473528
527.518057	38984.356787
527.880093	38740.047348
528.242072	39164.804889
528.603995	38791.094072
528.965860	38572.242460
529.327669	38620.398083
529.689421	38540.581494
530.051117	38356.554172
530.412755	38459.817168
530.774337	38352.899336
531.135862	38147.981473
531.497331	38140.036615
531.858743	37970.590831
532.220098	38167.843619
532.581396	37773.075903
532.942638	37420.348889
533.303824	37476.005748
533.664953	37357.326904
534.026025	36916.344410
534.387040	37243.230469
534.747999	37113.032589
535.108902	37224.800011
535.469748	36504.809815
535.830537	36553.411580
536.191270	36588.281241
536.551947	36191.648297
536.912567	36238.354588
537.273131	36175.065422
537.633638	35709.585440
537.994089	35667.280077
538.354483	35283.585255
538.714821	35618.610257
539.075103	35671.028175
539.435328	35369.607504
539.795497	34991.160523
540.155609	34908.225981
540.515665	35167.139642
540.875665	34430.465748
541.235609	34439.958241
541.595496	34351.601938
541.955328	34600.423209
542.315102	33962.460149
542.674821	33689.496792
543.034483	33402.415683
543.394090	33212.918710
543.753640	33010.108049
544.113134	33585.772531
544.472571	32718.752042
544.831953	33343.577856
545.191278	32588.763370
545.550548	32166.390295
545.909761	32410.639240
546.268918	32304.129741
546.628019	32358.417927
546.987064	31751.049629
547.346053	31072.553172
547.704986	31485.874855
548.063863	31016.641734
548.422684	30941.084920
548.781449	30423.854974
549.140158	30572.072459
549.498811	30184.674909
549.857408	29571.978112
550.215949	29913.218857
550.574434	29573.132536
550.932864	29322.735904
551.291237	29562.841021
551.649555	29168.446349
552.007817	29044.123934
552.366022	28633.700914
552.724173	28462.563823
553.082267	28479.156781
553.440305	28481.815990
553.798288	27767.398790
554.156215	27789.688252
554.514086	27689.742336
554.871902	27217.164410
555.229661	27077.340446
555.587365	26676.969487
555.945014	26517.278336
556.302606	26299.266076
556.660143	26133.931353
557.017625	26033.188935
557.375050	25632.054241
557.732421	25627.212213
558.089735	25443.625993
558.446994	25133.957994
558.804197	25157.452292
559.161345	24862.212076
559.518437	24295.924141
559.875474	24194.360014
560.232455	24082.942952
560.589381	23877.888978
560.946251	23572.027051
561.303065	23664.849817
561.659825	23289.843423
562.016528	22959.657929
562.373177	22519.129138
562.729770	22614.583386
563.086307	22156.614724
563.442789	22191.597811
563.799216	21911.468454
564.155587	21641.993575
564.511904	21404.966083
564.868164	21214.085313
565.224370	21132.224536
565.580520	20809.971297
565.936615	20673.474495
566.292654	20311.731377
566.648638	20245.535986
567.004567	20011.003865
567.360441	19836.852164
567.716260	19511.085241
568.072023	19458.634556
568.427732	19206.264312
568.783385	18829.760696
569.138982	18785.083470
569.494525	18637.302045
569.850013	18278.855842
570.205445	18124.790619
570.560823	17834.279005
570.916145	17595.126666
571.271412	17474.017986
571.626625	17160.899318
571.981782	16987.413050
572.336884	16661.830128
572.691931	16583.525886
573.046923	16286.337264
573.401860	16045.294492
573.756743	15861.569641
574.111570	15736.606998
574.466342	15528.535894
574.821059	15403.590896
575.175722	15067.169494
575.530330	14908.547068
575.884882	14647.319517
576.239380	14435.288586
576.593823	14295.630980
576.948211	14116.801089
577.302544	13829.772912
577.656823	13667.765351
578.011047	13571.489395
578.365216	13376.028737
578.719330	13130.131334
579.073389	12968.186788
579.427394	12821.723624
579.781344	12646.654434
580.135239	12427.732246
580.489080	12297.925055
580.842866	12032.168027
581.196597	12001.149807
581.550273	11857.552540
581.903895	11701.312059
582.257463	11660.773620
582.610975	11405.736606
582.964434	11334.638692
583.317837	11101.293763
583.671186	10959.904521
584.024481	10877.476615
584.377721	10654.002265
584.730906	10564.471372
585.084037	10464.268357
585.437113	10283.651377
585.790135	10175.226240
586.143103	9975.248708
586.496016	9883.671107
586.848874	9778.449624
587.201679	9660.191716
587.554428	9460.945152
587.907124	9389.534687
588.259765	9244.959436
588.612352	9156.358636
588.964884	8958.906722
589.317362	8899.181652
589.669786	8790.920353
590.022155	8659.011001
590.374470	8622.961709
590.726731	8454.272099
591.078937	8253.263651
591.431090	8196.953963
591.783188	8035.251391
592.135232	7906.863285
592.487222	7835.052048
592.839157	7757.256962
593.191038	7621.924667
593.542866	7497.388002
593.894639	7333.903383
594.246358	7277.132429
594.598022	7188.637494
594.949633	7045.138529
595.301190	6954.266690
595.652692	6866.046497
596.004141	6834.773699
596.355535	6636.517722
596.706876	6549.711573
597.058162	6442.035047
597.409395	6410.658906
597.760573	6354.019022
598.111698	6238.947123
598.462768	6159.165823
598.813785	6081.496765
599.164748	5974.921732
599.515657	5922.982724
599.866511	5820.070089
600.217312	5805.531401
600.568060	5654.153113
600.918753	5654.029604
601.269392	5580.816927
601.619978	5495.893649
601.970510	5448.395898
602.320988	5396.570316
602.671412	5352.815621
603.021783	5281.001864
603.372100	5191.246640
603.722363	5141.102283
604.072572	5090.879788
604.422728	5033.972722
604.772830	4967.903360
605.122878	4925.197225
605.472872	4860.448645
605.822813	4826.592256
606.172701	4757.427625
606.522534	4727.601639
606.872314	4691.247358
607.222041	4636.641579
607.571714	4603.059933
607.921333	4530.316083
608.270899	4499.935569
608.620411	4467.379798
608.969870	4419.609824
609.319276	4380.200604
609.668627	4335.941793
610.017926	4312.830624
610.367171	4283.992703
610.716362	4246.615068
611.065500	4206.492524
611.414585	4181.425387
611.763616	4149.116632
612.112594	4108.545426
612.461518	4080.309923
612.810389	4058.607756
613.159207	4020.978063
613.507971	3987.908094
613.856682	3977.309068
614.205340	3938.691309
614.553945	3933.390535
614.902496	3883.170561
615.250994	3866.469218
615.599439	3841.558356
615.947830	3817.388544
616.296169	3792.618835
616.644454	3772.378602
616.992686	3751.916559
617.340864	3744.387595
617.688990	3707.176318
618.037063	3705.623643
618.385082	3682.595652
618.733048	3670.615350
619.080961	3648.257833
619.428821	3631.826192
619.776628	3608.152933
620.124382	3580.807194
620.472083	3561.716345
620.819731	3545.718243
621.167326	3515.219262
621.514868	3496.287209
621.862357	3461.452836
622.209793	3443.155968
622.557176	3409.690268
622.904506	3387.214284
623.251783	3368.909854
623.599007	3342.103518
623.946179	3325.752536
624.293297	3305.913075
624.640363	3282.776699
624.987376	3266.846653
625.334336	3247.768407
625.681243	3230.724265
626.028097	3216.364539
626.374899	3205.828527
626.721647	3195.216898
627.068343	3178.336595
627.414987	3165.247239
627.761577	3154.693583
628.108115	3151.641164
628.454600	3132.744399
628.801032	3127.010087
629.147412	3114.167747
629.493739	3107.863784
629.840014	3091.956423
630.186236	3092.435333
630.532405	3077.611820
630.878521	3073.944381
631.224585	3064.708987
631.570597	3056.350754
631.916556	3051.972512
632.262462	3045.292983
632.608316	3039.397353
632.954117	3031.538195
633.299866	3026.086187
633.645562	3017.629651
633.991206	3006.702950
634.336797	2994.720128
634.682336	2986.402224
635.027823	2981.146821
635.373257	2973.118783
635.718639	2965.360448
636.063968	2958.857359
636.409245	2945.019392
636.754470	2939.388423
637.099642	2935.289965
637.444762	2923.402924
637.789829	2918.707089
638.134845	2911.160482
638.479808	2906.245357
638.824719	2905.746283
639.169577	2896.130282
639.514383	2895.923594
639.859137	2883.759290
640.203839	2882.551934
640.548489	2876.126983
640.893086	2874.415512
641.237632	2866.702546
641.582125	2866.629449
641.926566	2860.648120
642.270955	2856.395907
642.615292	2850.669156
642.959576	2847.687314
643.303809	2845.756552
643.647990	2843.677076
643.992118	2843.125070
644.336195	2837.811693
644.680219	2835.240705
645.024192	2835.260870
645.368112	2840.057527
645.711981	2836.236333
646.055797	2838.570387
646.399562	2836.868998
646.743274	2841.902590
647.086935	2844.675224
647.430544	2841.867302
647.774101	2841.383351
648.117606	2839.233299
648.461059	2838.499811
648.804460	2840.145748
649.147810	2831.374140
649.491108	2823.298212
649.834354	2820.528097
650.177548	2813.694813
650.520690	2803.325160
650.863781	2803.972948
651.206820	2800.129068
651.549807	2793.978861
651.892742	2785.005607
652.235626	2784.120884
652.578458	2781.653240
652.921238	2773.816766
653.263967	2775.656787
653.606644	2770.711415
653.949269	2765.453492
654.291843	2763.510127
654.634365	2764.407452
654.976836	2759.716659
655.319255	2760.001484
655.661622	2753.364805
656.003938	2752.001173
656.346203	2750.461100
656.688416	2752.202819
657.030577	2749.417581
657.372687	2741.603793
657.714746	2744.373907
658.056753	2744.636047
658.398708	2738.369893
658.740612	2741.465161
659.082465	2738.521127
659.424266	2732.600292
659.766016	2733.220354
660.107715	2729.784808
660.449362	2726.591237
660.790958	2729.719273
661.132503	2732.454099
661.473996	2729.502503
661.815438	2726.450084
662.156829	2730.049468
662.498168	2726.271123
662.839456	2726.437482
663.180693	2723.264075
663.521879	2725.290619
663.863013	2724.685681
664.204097	2722.976729
664.545129	2721.494630
664.886110	2720.201574
665.227040	2721.814743
665.567918	2720.521687
665.908746	2720.935062
666.249522	2724.234497
666.590248	2721.174517
666.930922	2721.701317
667.271545	2719.699979
667.612118	2719.707541
667.952639	2715.609083
668.293109	2717.723847
668.633528	2715.636809
668.973896	2714.008517
669.314213	2711.109853
669.654480	2710.688917
669.994695	2709.438711
670.334859	2710.157075
670.674973	2705.516693
671.015035	2705.922506
671.355047	2705.998123
671.695008	2701.977803
672.034918	2704.211034
672.374777	2703.961497
672.714585	2700.629294
673.054342	2702.093750
673.394049	2701.365303
673.733705	2702.199614
674.073310	2700.059644
674.412864	2699.139633
674.752368	2697.685261
675.091820	2697.914633
675.431223	2693.980013
675.770574	2693.044878
676.109875	2690.723427
676.449125	2685.894002
676.788324	2683.300328
677.127473	2681.039371
677.466571	2677.807991
677.805619	2680.830163
678.144616	2676.867816
678.483562	2680.247909
678.822458	2676.691375
679.161303	2677.109791
679.500098	2676.315809
679.838842	2673.596107
680.177535	2673.240706
680.516179	2674.684996
680.854771	2675.199194
681.193314	2676.991324
681.531805	2684.769824
681.870247	2686.680422
682.208638	2690.224353
682.546978	2697.181145
682.885268	2695.063861
683.223508	2692.376926
683.561697	2690.703262
683.899836	2690.191585
684.237925	2688.457428
684.575963	2687.665967
684.913951	2681.278825
685.251889	2682.357632
685.589776	2682.198836
685.927614	2681.954340
686.265401	2682.206398
686.603137	2680.205060
686.940824	2685.205884
687.278460	2686.032633
687.616046	2689.185875
687.953582	2691.751822
688.291068	2688.633869
688.628504	2692.293747
688.965889	2693.249045
689.303224	2689.533715
689.640510	2688.084383
689.977745	2684.374094
690.314930	2678.233968
690.652065	2680.411747
690.989150	2674.064934
691.326185	2669.127124
691.663170	2666.999757
692.000105	2659.140598
692.336990	2654.227994
692.673825	2655.064825
693.010610	2650.752118
693.347345	2643.208032
693.684030	2637.546816
694.020665	2640.130407
694.357251	2630.045579
694.693786	2638.938174
695.030272	2634.983389
695.366707	2630.980713
695.703093	2628.790332
696.039429	2627.557769
696.375716	2627.822430
696.711952	2626.423510
697.048139	2628.240846
697.384276	2625.188427
697.720363	2625.460649
698.056400	2624.490227
698.392388	2625.629528
698.728326	2624.412089
699.064214	2623.973509
699.400053	2622.390587
699.735842	2624.154991
700.071581	2617.853548
700.407270	2617.593929
700.742910	2616.379011
701.078501	2612.603187
701.414042	2614.130656
701.749533	2608.303082
702.084974	2610.934565
702.420366	2610.778289
702.755709	2609.646550
703.091002	2604.083637
703.426246	2606.836107
703.761440	2605.089347
704.096584	2602.987186
704.431679	2603.450972
704.766725	2603.466095
705.101721	2600.806887
705.436668	2602.021805
705.771565	2600.809407
706.106413	2603.055241
706.441212	2602.498194
706.775961	2604.791919
707.110661	2603.836620
707.445311	2609.210490
707.779913	2603.410642
708.114465	2607.125973
708.448967	2606.838627
708.783421	2612.391458
709.117825	2615.683332
709.452180	2616.620986
709.786485	2617.336830
710.120742	2617.440174
710.454949	2617.346912
710.789107	2622.937552
711.123216	2621.873868
711.457275	2628.843264
711.791286	2632.921557
712.125247	2637.345170
712.459159	2633.208903
712.793023	2638.078657
713.126837	2633.287041
713.460602	2633.992802
713.794318	2632.367030
714.127985	2631.094139
714.461602	2625.362347
714.795171	2626.110958
715.128691	2618.501337
715.462162	2618.145935
715.795584	2611.380707
716.128957	2614.289452
716.462281	2610.891715
716.795556	2608.744183
717.128782	2607.652773
717.461960	2602.987186
717.795088	2602.702360
718.128167	2596.199272
718.461198	2597.658686
718.794180	2594.770105
719.127113	2593.318252
719.459997	2591.430340
719.792833	2587.629310
720.125619	2588.370360
720.458357	2586.555545
720.791046	2586.462283
721.123686	2584.140832
721.456278	2582.663774
721.788821	2586.847932
722.121315	2583.258630
722.453761	2581.393403
722.786158	2583.689649
723.118506	2581.302662
723.450805	2581.915162
723.783056	2581.958012
724.115259	2583.440112
724.447412	2579.404668
724.779518	2587.064701
725.111574	2584.970102
725.443582	2586.253075
725.775542	2585.391038
726.107453	2590.515371
726.439315	2590.238107
726.771129	2593.978644
727.102895	2588.549321
727.434612	2593.479569
727.766281	2591.037130
728.097901	2598.641711
728.429473	2598.261104
728.760996	2598.981989
729.092471	2599.423090
729.423897	2599.470981
729.755276	2599.647421
730.086606	2600.088522
730.417887	2601.517689
730.749120	2604.882659
731.080305	2607.317537
731.411442	2610.974894
731.742530	2610.183433
732.073570	2609.825511
732.404562	2616.179885
732.735506	2614.133177
733.066401	2612.693927
733.397249	2609.054214
733.728048	2607.846858
734.058798	2602.442741
734.389501	2598.251022
734.720156	2595.145671
735.050762	2589.360947
735.381320	2583.430029
735.711831	2583.518249
736.042293	2579.971798
736.372707	2583.878692
736.703073	2581.030440
737.033391	2581.469020
737.363661	2581.095975
737.693883	2579.185378
738.024056	2581.678228
738.354182	2584.796182
738.684260	2585.728795
739.014290	2586.986563
739.344272	2592.385639
739.674207	2593.066195
740.004093	2593.726586
740.333931	2593.925712
740.663722	2593.252717
740.993464	2594.530650
741.323159	2594.260948
741.652806	2591.384970
741.982405	2591.634507
742.311956	2591.011925
742.641460	2589.302973
742.970915	2586.547983
743.300323	2582.948599
743.629683	2578.131777
743.958996	2579.762590
744.288260	2570.912844
744.617477	2578.827456
744.946647	2574.663463
745.275768	2576.455593
745.604842	2573.781261
745.933869	2573.443503
746.262847	2570.998544
746.591778	2573.486353
746.920662	2569.927299
747.249498	2573.675397
747.578286	2568.450241
747.907027	2570.938050
748.235720	2575.654049
748.564365	2574.933164
748.892963	2575.901066
749.221514	2571.182546
749.550017	2572.785633
749.878473	2574.008113
750.206881	2572.309244
750.535242	2570.779254
750.863555	2568.533420
751.191821	2569.496280
751.520039	2567.971331
751.848210	2569.854202
752.176334	2571.837896
752.504411	2570.179356
752.832440	2568.901424
753.160421	2567.499983
753.488356	2568.929150
753.816243	2569.559294
754.144082	2568.299006
754.471875	2566.239695
754.799620	2565.423028
755.127318	2567.063923
755.454969	2564.024107
755.782572	2563.401525
756.110129	2564.906309
756.437638	2568.150292
756.765100	2566.395970
757.092515	2564.926474
757.419882	2566.685837
757.747203	2564.646690
758.074477	2568.760272
758.401703	2567.646177
758.728882	2567.515107
759.056014	2565.438151
759.383099	2571.777402
759.710138	2566.274983
760.037129	2567.378995
760.364073	2570.653225
760.690970	2568.346897
761.017820	2571.822772
761.344623	2573.188925
761.671379	2579.238310
761.998088	2578.421643
762.324751	2589.696183
762.651366	2608.224944
762.977935	2640.168216
763.304456	2661.330980
763.630931	2675.736077
763.957359	2670.158040
764.283740	2656.476348
764.610074	2643.845737
764.936362	2625.069960
765.262602	2614.627210
765.588796	2598.303954
765.914943	2588.738364
766.241044	2580.138156
766.567097	2574.550037
766.893104	2568.341856
767.219064	2563.199879
767.544978	2561.385063
767.870845	2556.837943
768.196665	2552.913404
768.522438	2551.222097
768.848165	2548.678835
769.173846	2550.733105
769.499479	2549.515667
769.825066	2547.194215
770.150607	2548.361243
770.476101	2541.527958
770.801548	2543.176416
771.126949	2541.845551
771.452303	2539.904707
771.777611	2539.748431
772.102872	2541.669111
772.428087	2537.280786
772.753256	2535.816331
773.078378	2537.515200
773.403453	2536.817000
773.728482	2534.198121
774.053465	2534.651825
774.378401	2527.816020
774.703291	2533.474715
775.028135	2530.941535
775.352932	2531.221319
775.677683	2528.526823
776.002388	2527.208561
776.327046	2526.049096
776.651658	2527.168232
776.976224	2523.594054
777.300743	2528.665454
777.625216	2527.616894
777.949643	2527.286699
778.274024	2528.060516
778.598359	2525.421472
778.922647	2527.977337
779.246889	2527.004394
779.571086	2525.640762
779.895236	2527.024559
780.219339	2526.994312
780.543397	2527.286699
780.867409	2527.110258
781.191374	2527.705115
781.515294	2527.027079
781.839167	2527.122861
782.162995	2529.030938
782.486776	2528.085722
782.810511	2528.060516
783.134201	2527.828623
783.457844	2523.566327
783.781441	2524.032634
784.104993	2525.008097
784.428498	2526.883407
784.751958	2526.217974
785.075372	2526.790145
785.398739	2526.308715
785.722061	2525.439116
786.045337	2526.359127
786.368568	2528.388191
786.691752	2523.951976
787.014891	2528.017666
787.337983	2527.851308
787.661030	2536.998482
787.984031	2539.340098
788.306987	2542.626930
788.629897	2543.879657
788.952760	2547.353012
789.275579	2545.823022
789.598351	2544.391334
789.921078	2539.198945
790.243759	2536.106197
790.566395	2533.071423
790.888984	2533.250384
791.211529	2530.616381
791.534027	2527.483304
791.856480	2527.390043
792.178888	2523.135309
792.501249	2523.374763
792.823566	2519.798065
793.145836	2516.491068
793.468062	2523.780576
793.790241	2522.638755
794.112375	2522.260668
794.434464	2523.427696
794.756507	2523.289064
795.078505	2526.429703
795.400457	2529.318284
795.722364	2530.094622
796.044226	2536.292720
796.366042	2538.523431
796.687812	2534.372041
797.009538	2536.368338
797.331218	2538.142824
797.652852	2537.512679
797.974442	2533.164684
798.295986	2532.216947
798.617484	2533.152081
798.938938	2533.530168
799.260346	2529.046062
799.581709	2529.711494
799.903026	2527.256452
800.224299	2528.375588
800.545526	2524.970289
800.866708	2524.274609
801.187845	2524.078004
801.508936	2520.123219
801.829983	2522.300998
802.150984	2519.059536
802.471940	2522.469876
802.792851	2520.677746
803.113717	2523.624301
803.434538	2522.240504
803.755314	2523.599095
804.076045	2518.358815
804.396731	2520.115657
804.717372	2518.767149
805.037967	2518.820081
805.358518	2520.644979
805.679024	2518.807478
805.999485	2521.794362
806.319901	2522.033817
806.640272	2520.665143
806.960598	2522.263189
807.280879	2520.622293
807.601115	2524.330062
807.921306	2523.069774
808.241453	2517.665657
808.561554	2520.181193
808.881611	2520.110616
809.201623	2517.322858
809.521590	2524.521626
809.841513	2521.423837
810.161390	2523.084897
810.481223	2521.789321
810.801011	2520.907119
811.120755	2520.987777
811.440453	2522.721934
811.760107	2518.512571
812.079716	2518.053826
812.399281	2519.780421
812.718801	2520.672705
813.038276	2521.610360
813.357707	2519.898888
813.677093	2522.595905
813.996434	2517.567354
814.315731	2520.450894
814.634983	2521.943076
814.954191	2520.919722
815.273354	2521.154135
815.592473	2520.687828
815.911547	2524.720752
816.230577	2522.144722
816.549562	2522.749660
816.868502	2528.458767
817.187399	2525.688653
817.506250	2529.771988
817.825058	2525.000536
818.143821	2532.534540
818.462539	2535.523944
818.781213	2539.032587
819.099843	2542.848741
819.418429	2554.617314
819.736970	2561.034703
820.055466	2572.871332
820.373919	2585.892633
820.692327	2605.079264
821.010691	2639.901035
821.329011	2709.451314
821.647286	2828.765343
821.965517	2985.850217
822.283704	3104.007302
822.601847	3166.273113
822.919945	3125.681743
823.237999	3058.379818
823.556010	2985.623365
823.873976	2912.836666
824.191897	2845.489371
824.509775	2794.704787
824.827609	2746.375245
825.145398	2714.802498
825.463144	2700.304140
825.780845	2698.033100
826.098502	2703.570808
826.416116	2733.109449
826.733685	2764.541043
827.051210	2783.909156
827.368692	2777.514452
827.686129	2748.144690
828.003522	2712.234031
828.320872	2675.748680
828.638177	2645.431180
828.955439	2623.648355
829.272656	2604.628081
829.589830	2587.883889
829.906960	2574.986097
830.224046	2561.223747
830.541088	2551.322920
830.858086	2545.896118
831.175041	2543.052907
831.491952	2541.164995
831.808819	2540.073586
832.125642	2543.675490
832.442421	2553.288970
832.759157	2564.150136
833.075849	2595.538881
833.392497	2624.880917
833.709101	2648.047539
834.025662	2653.302942
834.342179	2644.475882
834.658653	2623.842439
834.975083	2605.691765
835.291469	2588.531677
835.607811	2572.571384
835.924110	2561.609395
836.240366	2554.166131
836.556578	2543.899821
836.872746	2534.798018
837.188871	2529.046062
837.504952	2525.726462
837.820990	2521.320493
838.136984	2519.687159
838.452935	2520.526512
838.768842	2518.293280
839.084706	2520.745802
839.400526	2533.184849
839.716303	2544.885367
840.032037	2559.403890
840.347727	2560.097049
840.663373	2554.294681
840.978977	2539.156096
841.294537	2531.385157
841.610054	2527.379960
841.925527	2522.666481
842.240957	2517.660616
842.556344	2516.380163
842.871687	2512.271622
843.186987	2508.316837
843.502244	2504.422546
843.817458	2502.607730
844.132629	2501.889366
844.447756	2502.504387
844.762840	2500.354334
845.077881	2498.141268
845.392879	2497.501041
845.707833	2496.059271
846.022745	2492.321256
846.337613	2496.717142
846.652438	2496.041627
846.967221	2496.523057
847.281960	2497.032214
847.596656	2495.550115
847.911309	2495.736638
848.225919	2495.585403
848.540485	2494.161277
848.855009	2491.998622
849.169490	2491.502068
849.483928	2491.766729
849.798323	2494.141112
850.112675	2490.589619
850.426984	2494.796462
850.741251	2492.381750
851.055474	2492.921153
851.369654	2494.456184
851.683792	2493.284116
851.997887	2492.243118
852.311938	2491.673468
852.625947	2493.077429
852.939914	2494.345279
853.253837	2491.718838
853.567718	2493.276554
853.881555	2492.515340
854.195350	2494.032727
854.509103	2495.807214
854.822812	2491.665906
855.136479	2494.796462
855.450103	2493.604229
855.763685	2490.045175
856.077224	2487.002838
856.390720	2491.398725
856.704173	2486.735657
857.017584	2492.890906
857.330953	2493.853767
857.644278	2493.082470
857.957561	2498.065651
858.270802	2492.096924
858.584000	2493.853767
858.897155	2494.405773
859.210268	2495.038438
859.523339	2491.035762
859.836367	2493.132882
860.149352	2494.579693
860.462295	2491.658344
860.775195	2493.878972
861.088054	2495.451812
861.400869	2491.993581
861.713642	2493.513489
862.026373	2490.786224
862.339062	2490.864362
862.651708	2494.052892
862.964312	2492.744713
863.276873	2493.241266
863.589392	2493.619353
863.901869	2496.137409
864.214303	2497.261587
864.526696	2498.123624
864.839045	2494.804024
865.151353	2497.763181
865.463619	2494.635145
865.775842	2495.960969
866.088023	2497.627070
866.400162	2497.816113
866.712258	2494.798983
867.024313	2498.279900
867.336325	2497.183449
867.648296	2500.583707
867.960224	2498.068171
868.272110	2500.455157
868.583954	2499.310816
868.895755	2497.637153
869.207515	2499.484735
869.519233	2500.805518
869.830909	2498.695795
870.142542	2500.666886
870.454134	2498.163953
870.765684	2501.717967
871.077191	2500.929026
871.388657	2501.160919
871.700081	2499.693943
872.011463	2502.315343
872.322803	2496.540702
872.634101	2504.281393
872.945357	2501.627226
873.256571	2505.544202
873.567744	2503.923471
873.878874	2507.225427
874.189963	2507.134686
874.501010	2508.324399
874.812015	2506.683503
875.122979	2508.437825
875.433900	2507.921106
875.744780	2506.081085
876.055618	2509.125942
876.366415	2508.314316
876.677169	2510.590397
876.987882	2509.912362
877.298554	2510.151817
877.609183	2511.011334
877.919771	2514.013341
878.230317	2517.332941
878.540822	2520.639938
878.851285	2525.562624
879.161707	2530.192924
879.472087	2540.923020
879.782425	2556.593447
880.092722	2589.338262
880.402977	2630.766464
880.713191	2688.137315
881.023363	2752.926224
881.333494	2796.585137
881.643583	2820.462562
881.953631	2821.748057
882.263637	2811.738846
882.573602	2788.678087
882.883526	2768.226126
883.193408	2740.214955
883.503248	2718.343909
883.813048	2698.484283
884.122806	2674.989986
884.432522	2648.730616
884.742197	2630.713532
885.051831	2611.511777
885.361424	2595.090218
885.670975	2580.390213
885.980485	2568.951835
886.289954	2557.889023
886.599382	2552.273178
886.908768	2542.841179
887.218113	2533.739376
887.527417	2529.903058
887.836680	2526.200330
888.145901	2522.336286
888.455082	2519.619104
888.764221	2518.883095
889.073319	2516.100378
889.382376	2515.253465
889.691392	2515.092148
890.000366	2515.515605
890.309300	2512.697600
890.618193	2514.893022
890.927044	2512.856396
891.235855	2513.075686
891.544625	2510.713906
891.853353	2515.500481
892.162041	2513.234483
892.470687	2517.479134
892.779293	2523.301667
893.087858	2528.494055
893.396381	2535.269366
893.704864	2547.947868
894.013306	2563.227605
894.321707	2581.965574
894.630068	2597.605754
894.938387	2605.409460
895.246665	2602.309150
895.554903	2594.276072
895.863100	2586.878178
896.171256	2577.073134
896.479371	2568.311609
896.787446	2563.991340
897.095480	2555.073539
897.403473	2548.799823
897.711425	2543.083154
898.019336	2538.498225
898.327207	2532.524458
898.635038	2529.411545
898.942827	2527.541277
899.250576	2522.013652
899.558284	2520.372756
899.865952	2516.780934
900.173579	2513.640295
900.481165	2510.953360
900.788711	2512.289266
901.096216	2509.572084
901.403681	2507.996724
901.711105	2509.645181
902.018489	2508.228617
902.325832	2509.156189
902.633135	2505.650067
902.940397	2513.655419
903.247619	2521.537263
903.554800	2548.026006
903.861941	2579.936510
904.169041	2610.140583
904.476101	2626.685650
904.783121	2624.742285
905.090100	2616.537807
905.397039	2602.919130
905.703938	2587.546131
906.010796	2575.495253
906.317614	2566.859757
906.624391	2555.524722
906.931129	2546.579195
907.237826	2541.590973
907.544483	2534.833306
907.851099	2528.299971
908.157675	2519.389731
908.464211	2514.066273
908.770707	2507.336333
909.077163	2506.083606
909.383578	2500.737462
909.689954	2499.441886
909.996289	2496.550784
910.302584	2497.649755
910.608839	2494.791421
910.915054	2495.613129
911.221229	2493.357213
911.527363	2493.873931
911.833458	2494.463746
912.139513	2496.598675
912.445527	2494.708242
912.751502	2496.830568
913.057436	2498.910044
913.363331	2503.532782
913.669186	2504.752741
913.975000	2511.419667
914.280775	2515.734895
914.586510	2526.429703
914.892205	2540.020653
915.197859	2559.053530
915.503475	2580.735532
915.809050	2603.178749
916.114585	2617.185595
916.420081	2622.816564
916.725536	2626.410907
917.030952	2619.436471
917.336328	2616.149638
917.641665	2601.850405
917.946961	2593.020824
918.252218	2587.679722
918.557435	2572.596590
918.862612	2571.542988
919.167750	2562.511761
919.472848	2556.376677
919.777906	2546.364946
920.082925	2543.083154
920.387904	2534.109901
920.692843	2527.511030
920.997743	2520.861748
921.302603	2519.588857
921.607423	2513.244565
921.912204	2512.748011
922.216946	2507.517814
922.521647	2506.076044
922.826310	2503.898266
923.130932	2500.591269
923.435516	2499.250322
923.740059	2502.078409
924.044564	2497.067502
924.349028	2497.750578
924.653454	2495.371154
924.957840	2494.269662
925.262186	2490.738333
925.566493	2491.123982
925.870761	2490.660196
926.174989	2491.416369
926.479178	2488.941162
926.783328	2489.200782
927.087438	2486.362612
927.391509	2489.089876
927.695541	2488.505102
927.999533	2484.998980
928.303486	2484.073928
928.607400	2484.883033
928.911275	2481.540748
929.215110	2481.770121
929.518906	2482.775831
929.822663	2482.470841
930.126381	2480.691314
930.430060	2487.794300
930.733699	2484.008393
931.037299	2484.020996
931.340861	2481.323979
931.644383	2482.692652
931.947866	2483.509319
932.251309	2484.172231
932.554714	2482.778352
932.858080	2478.984883
933.161407	2477.565798
933.464694	2478.168216
933.767943	2479.211735
934.071153	2485.835811
934.374323	2481.306335
934.677455	2485.724906
934.980548	2484.416727
935.283602	2481.082003
935.586617	2482.677528
935.889593	2483.927735
936.192530	2481.870944
936.495428	2480.472024
936.798287	2482.889257
937.101108	2482.196098
937.403890	2483.801706
937.706632	2482.427991
938.009336	2487.842191
938.312002	2488.726913
938.614628	2489.157932
938.917216	2492.890906
939.219765	2493.153046
939.522275	2493.251349
939.824747	2492.681698
940.127179	2491.996101
940.429573	2492.744713
940.731929	2490.952583
941.034246	2491.123982
941.336524	2493.233705
941.638763	2493.412666
941.940964	2492.374188
942.243126	2492.449805
942.545250	2491.091214
942.847335	2490.866883
943.149381	2489.692294
943.451389	2486.241624
943.753359	2485.321614
944.055290	2487.454022
944.357182	2488.749598
944.659036	2487.446460
944.960851	2485.934114
945.262628	2488.656337
945.564367	2485.956799
945.866067	2484.139463
946.167729	2485.591315
946.469352	2483.123671
946.770937	2486.284474
947.072484	2482.801037
947.373992	2485.611480
947.675462	2482.954792
947.976893	2480.363639
948.278286	2480.691314
948.579641	2483.085862
948.880958	2479.247023
949.182236	2484.625934
949.483476	2482.833804
949.784678	2482.919504
950.085841	2482.440594
950.386967	2484.184833
950.688054	2487.476707
950.989103	2484.610811
951.290114	2485.235914
951.591087	2484.595688
951.892021	2489.868734
952.192917	2487.912767
952.493776	2486.675163
952.794596	2486.493682
953.095378	2488.263127
953.396122	2489.667088
953.696828	2488.724392
953.997496	2488.356388
954.298126	2488.966368
954.598718	2487.217088
954.899272	2483.781541
955.199788	2487.391007
955.500266	2484.126860
955.800706	2483.360605
956.101108	2480.020840
956.401472	2484.121819
956.701798	2479.100830
957.002087	2479.441108
957.302337	2478.805922
957.602550	2479.146200
957.902724	2479.463793
958.202861	2479.040336
958.502960	2478.780717
958.803022	2476.124028
959.103045	2475.198977
959.403031	2478.430356
959.702979	2476.020685
960.002889	2479.110912
960.302762	2475.521611
960.602596	2475.229224
960.902393	2474.798205
961.202153	2474.001703
961.501875	2472.935499
961.801559	2469.900724
962.101205	2475.897177
962.400814	2472.154120
962.700385	2474.097485
962.999918	2470.614047
963.299414	2467.760754
963.598873	2470.820735
963.898293	2465.817389
964.197677	2470.861064
964.497022	2471.266877
964.796331	2473.636219
965.095601	2470.656897
965.394835	2472.577577
965.694030	2475.075468
965.993189	2469.815024
966.292309	2473.873153
966.591393	2471.067751
966.890439	2469.620940
967.189447	2469.867957
967.488419	2469.900724
967.787353	2473.384161
968.086249	2473.699233
968.385108	2475.083030
968.683930	2473.275777
968.982714	2469.807463
969.281462	2472.794346
969.580172	2472.595221
969.878844	2470.329222
970.177480	2472.227217
970.476078	2472.653194
970.774639	2474.495736
971.073162	2471.176136
971.371649	2472.786785
971.670098	2472.360807
971.968510	2471.738225
972.266885	2472.204531
972.565223	2474.208390
972.863524	2470.271249
973.161788	2473.356435
973.460014	2471.408029
973.758204	2471.821404
974.056356	2474.972125
974.354471	2472.108749
974.652550	2474.788123
974.950591	2472.307875
975.248595	2473.837865
975.546563	2475.554378
975.844493	2472.181846
976.142386	2474.435242
976.440243	2474.407516
976.738062	2471.791157
977.035845	2470.747638
977.333590	2471.231589
977.631299	2477.286014
977.928971	2470.041876
978.226606	2467.390229
978.524204	2469.104222
978.821765	2468.277472
979.119290	2471.216465
979.416777	2469.444500
979.714228	2472.895169
980.011642	2470.677062
980.309020	2473.928606
980.606360	2473.540437
980.903664	2475.635037
981.200931	2473.540437
981.498162	2476.459265
981.795356	2478.538741
982.092513	2479.849441
982.389633	2483.358084
982.686717	2485.437560
982.983764	2489.041985
983.280775	2491.305463
983.577749	2492.444764
983.874686	2491.071050
984.171587	2487.048209
984.468451	2486.720534
984.765279	2490.244300
985.062070	2486.922180
985.358824	2486.549135
985.655543	2482.496047
985.952224	2478.425315
986.248869	2477.953967
986.545478	2473.684110
986.842050	2476.318113
987.138586	2474.788123
987.435086	2475.309882
987.731549	2473.779892
988.027975	2473.905921
988.324366	2468.547174
988.620719	2472.733852
988.917037	2469.497432
989.213318	2468.206896
989.509563	2470.480457
989.805772	2469.930971
990.101944	2471.153451
990.398080	2468.786629
990.694180	2469.779736
990.990244	2467.894345
991.286271	2468.254787
991.582262	2469.872998
991.878217	2471.077833
992.174136	2467.347380
992.470019	2469.310909
992.765865	2468.431228
993.061676	2465.280507
993.357450	2469.696557
993.653188	2465.714046
993.948890	2474.205869
994.244556	2470.455251
994.540186	2471.193780
994.835780	2472.779223
995.131337	2474.982207
995.426859	2475.133442
995.722345	2477.452373
996.017795	2477.545634
996.313208	2480.267857
996.608586	2479.221817
996.903928	2480.035964
997.199234	2480.242651
997.494504	2481.999493
997.789738	2477.623772
998.084936	2480.361118
998.380099	2478.238793
998.675225	2478.296766
998.970316	2477.699389
999.265371	2476.512197
999.560390	2474.838534
999.855373	2470.626650
1000.150320	2472.983390
1000.445232	2470.298975
1000.740108	2469.275621
1001.034948	2472.363328
1001.329752	2467.186063
1001.624521	2468.763944
1001.919254	2468.922740
1002.213951	2467.065075
1002.508613	2470.152782
1002.803239	2466.099694
1003.097829	2469.106742
1003.392384	2466.399643
1003.686903	2469.217648
1003.981386	2468.224540
1004.275834	2466.225723
1004.570246	2466.689509
1004.864623	2467.428038
1005.158964	2467.118007
1005.453270	2467.065075
1005.747540	2468.847123
1006.041775	2467.060034
1006.335974	2464.448716
1006.630138	2467.690178
1006.924266	2464.496607
1007.218359	2465.083902
1007.512416	2461.706328
1007.806438	2464.783953
1008.100425	2464.063068
1008.394376	2460.700618
1008.688292	2466.883593
1008.982172	2464.078191
1009.276017	2466.742441
1009.569827	2463.924436
1009.863602	2465.741772
1010.157341	2465.182204
1010.451045	2465.512400
1010.744714	2465.807307
1011.038347	2465.716566
1011.331945	2465.709005
1011.625508	2466.918882
1011.919036	2462.102059
1012.212528	2465.429221
1012.505986	2465.252780
1012.799408	2468.824438
1013.092795	2466.613892
1013.386147	2465.968624
1013.679464	2462.371761
1013.972745	2466.671865
1014.265992	2466.036680
1014.559204	2466.361834
1014.852380	2465.172122
1015.145521	2465.076340
1015.438628	2464.690692
1015.731699	2465.061216
1016.024736	2464.524333
1016.317737	2465.472070
1016.610703	2466.381999
1016.903635	2465.663634
1017.196531	2465.673717
1017.489393	2466.903758
1017.782219	2464.705815
1018.075011	2465.928295
1018.367768	2466.833182
1018.660490	2465.136834
1018.953177	2465.136834
1019.245829	2465.136834
