Dividing Wavelength (nm)	Counts (n)	Blue Motor Position (mm): 0.000000	Red Motor Position (mm): 4.000000	
326.493990	2057.211706
326.888308	2057.211706
327.282561	2057.211706
327.676750	2030.942253
328.070874	2034.188756
328.464933	2037.523479
328.858929	2045.453214
329.252859	2058.441747
329.646726	2071.773078
330.040528	2087.272106
330.434265	2102.761051
330.827938	2124.349793
331.221547	2143.415436
331.615091	2165.203303
332.008571	2186.897909
332.401986	2206.858358
332.795338	2225.024155
333.188625	2245.299676
333.581847	2264.846750
333.975006	2281.684204
334.368100	2300.091977
334.761129	2315.714513
335.154095	2333.393840
335.546996	2345.772393
335.939833	2358.173631
336.332606	2374.766589
336.725315	2384.203629
337.117960	2397.542522
337.510540	2404.143913
337.903056	2413.719585
338.295508	2422.339958
338.687896	2429.873962
339.080220	2431.673654
339.472480	2437.470981
339.864676	2439.570622
340.256807	2444.508432
340.648875	2444.997424
341.040879	2451.266099
341.432818	2447.976746
341.824694	2450.993877
342.216506	2448.422888
342.608253	2448.521191
342.999937	2448.614452
343.391557	2450.290636
343.783113	2449.297528
344.174605	2443.323761
344.566033	2446.741663
344.957397	2442.328133
345.348697	2441.700509
345.739934	2440.208328
346.131106	2438.312854
346.522215	2435.673810
346.913260	2434.816814
347.304241	2430.874632
347.695159	2429.510999
348.086012	2429.531164
348.476802	2427.575196
348.867528	2427.194589
349.258191	2422.289547
349.648789	2422.491193
350.039324	2417.838208
350.429796	2420.426840
350.820203	2421.477921
351.210548	2416.885430
351.600828	2421.195616
351.991045	2420.961203
352.381198	2419.859710
352.771288	2419.065729
353.161314	2418.170924
353.551276	2419.211922
353.941175	2417.298804
354.331010	2419.411048
354.720782	2418.758218
355.110490	2418.652354
355.500135	2416.731674
355.889717	2416.625810
356.279235	2419.458939
356.668689	2419.257292
357.058080	2418.193609
357.447408	2421.218301
357.836672	2423.431368
358.225873	2421.530853
358.615010	2421.941707
359.004084	2423.804413
359.393095	2425.737696
359.782043	2422.975143
360.170927	2424.626121
360.559748	2423.965730
360.948505	2423.554876
361.337199	2426.975299
361.725830	2427.383632
362.114398	2426.229208
362.502903	2426.501431
362.891344	2426.503951
363.279722	2425.420103
363.668037	2428.548139
364.056289	2429.631987
364.444478	2430.551998
364.832603	2427.713828
365.220665	2430.143664
365.608665	2428.031421
365.996601	2431.555187
366.384474	2430.557039
366.772284	2429.876483
367.160031	2429.142995
367.547715	2432.523089
367.935336	2432.565939
368.322893	2430.420928
368.710388	2427.688622
369.097820	2430.357913
369.485189	2425.566297
369.872495	2434.463933
370.259738	2432.966710
370.646918	2434.189190
371.034035	2433.279262
371.421090	2436.961825
371.808081	2435.333532
372.195010	2436.122473
372.581875	2437.607092
372.968678	2441.082968
373.355418	2438.615323
373.742096	2440.883842
374.128710	2441.642536
374.515262	2445.468772
374.901751	2440.165478
375.288177	2445.932558
375.674540	2448.858948
376.060841	2450.076387
376.447079	2454.177365
376.833254	2452.196192
377.219367	2458.727007
377.605417	2459.906637
377.991404	2460.889662
378.377329	2463.294292
378.763191	2466.200517
379.148991	2467.763275
379.534727	2473.825262
379.920402	2474.493215
380.306013	2477.984214
380.691563	2482.238948
381.077049	2481.533187
381.462474	2489.495689
381.847835	2489.964516
382.233134	2495.885352
382.618371	2496.339055
383.003545	2502.017915
383.388657	2502.522031
383.773706	2508.871364
384.158693	2512.049811
384.543618	2516.115502
384.928480	2519.097344
385.313280	2523.591533
385.698017	2525.870135
386.082692	2530.238294
386.467305	2532.229550
386.851856	2536.416228
387.236344	2540.507125
387.620770	2540.360931
388.005133	2539.743390
388.389435	2546.090203
388.773674	2543.173895
389.157851	2549.417364
389.541965	2551.194371
389.926018	2551.416182
390.310008	2554.062787
390.693936	2554.161090
391.077802	2552.873075
391.461606	2554.937428
391.845348	2551.098589
392.229027	2552.961295
392.612645	2553.651933
392.996200	2552.968857
393.379694	2553.104968
393.763125	2552.308466
394.146494	2549.220759
394.529801	2547.022816
394.913047	2546.501057
395.296230	2541.633823
395.679351	2534.792977
396.062410	2538.155427
396.445408	2528.471370
396.828343	2523.830988
397.211217	2519.730009
397.594028	2512.102743
397.976778	2509.851868
398.359466	2506.824655
398.742092	2502.970693
399.124656	2499.068840
399.507158	2495.345948
399.889598	2490.725731
400.271977	2493.442913
400.654294	2486.183651
401.036549	2483.589977
401.418742	2483.131232
401.800874	2482.004534
402.182944	2475.768627
402.564952	2474.336939
402.946898	2473.555561
403.328783	2470.598924
403.710606	2469.878039
404.092367	2465.391412
404.474067	2464.143726
404.855705	2463.390074
405.237282	2464.975517
405.618797	2459.997377
406.000250	2462.069292
406.381642	2457.718776
406.762972	2456.902109
407.144240	2456.466049
407.525447	2456.176183
407.906593	2452.501182
408.287677	2458.606019
408.668700	2454.507561
409.049661	2456.818930
409.430560	2456.531584
409.811399	2458.028807
410.192176	2455.767849
410.572891	2457.091152
410.953545	2456.082921
411.334138	2457.809517
411.714669	2457.302881
412.095139	2455.367078
412.475547	2456.793724
412.855894	2454.505040
413.236180	2454.547890
413.616405	2456.471090
413.996568	2457.035699
414.376670	2458.762295
414.756711	2458.578293
415.136691	2456.897068
415.516609	2459.218519
415.896466	2456.458487
416.276262	2457.547377
416.655997	2457.746502
417.035670	2456.710545
417.415283	2458.074177
417.794834	2456.067798
418.174324	2458.764815
418.553753	2458.623663
418.933121	2459.765484
419.312428	2462.447378
419.691674	2457.890175
420.070859	2459.266410
420.449983	2457.900257
420.829045	2459.208437
421.208047	2460.834209
421.586988	2458.815227
421.965867	2459.427727
422.344686	2459.261369
422.723444	2457.628035
423.102141	2459.573920
423.480777	2460.231791
423.859352	2460.251956
424.237866	2460.705659
424.616319	2458.918570
424.994712	2461.560135
425.373044	2459.568879
425.751314	2459.263889
426.129524	2455.475462
426.507673	2460.932511
426.885762	2457.002932
427.263789	2461.653396
427.641756	2459.914198
428.019662	2460.236832
428.397508	2462.291102
428.775292	2463.662296
429.153016	2460.725824
429.530679	2464.307564
429.908282	2459.531071
430.285824	2462.621298
430.663305	2463.778243
431.040726	2462.454940
431.418086	2462.240691
431.795385	2460.262038
432.172624	2461.164404
432.549802	2462.323870
432.926920	2464.410907
433.303977	2464.602471
433.680974	2461.789508
434.057910	2465.272945
434.434786	2461.676082
434.811601	2463.700105
435.188355	2463.145578
435.565050	2464.753706
435.941683	2463.632049
436.318257	2466.306381
436.694770	2465.015846
437.071222	2464.037862
437.447614	2464.574745
437.823946	2466.389560
438.200218	2466.684468
438.576429	2462.921247
438.952580	2463.556432
439.328670	2464.378140
439.704700	2464.975517
440.080670	2466.215641
440.456580	2464.766309
440.832429	2466.548357
441.208218	2464.862091
441.583947	2465.774540
441.959616	2464.509210
442.335224	2466.465178
442.710773	2465.061216
443.086261	2465.915692
443.461689	2466.112297
443.837057	2466.220682
444.212365	2464.909982
444.587612	2465.275465
444.962800	2463.682461
445.337927	2464.451237
445.712995	2460.998046
446.088002	2467.793522
446.462949	2466.757565
446.837837	2466.828141
447.212664	2466.918882
447.587431	2468.131279
447.962139	2467.052472
448.336786	2468.232102
448.711374	2468.330405
449.085901	2467.049952
449.460369	2468.705971
449.834776	2469.736887
450.209124	2470.213276
450.583412	2469.898203
450.957640	2467.571711
451.331808	2467.675055
451.705917	2468.915178
452.079965	2470.266208
452.453954	2469.315950
452.827883	2468.708491
453.201752	2469.084057
453.575562	2471.319809
453.949311	2467.067596
454.323001	2467.037349
454.696632	2470.697226
455.070202	2469.875518
455.443713	2469.416773
455.817164	2470.057000
456.190556	2472.471712
456.563888	2474.417598
456.937160	2469.976341
457.310373	2471.977679
457.683526	2472.252422
458.056619	2471.279480
458.429653	2472.219655
458.802628	2471.584469
459.175542	2469.507514
459.548398	2474.407516
459.921194	2471.022381
460.293930	2471.907103
460.666607	2473.651343
461.039224	2472.212093
461.411782	2469.870477
461.784280	2474.326857
462.156719	2471.937350
462.529099	2472.746455
462.901419	2472.945581
463.273680	2468.945425
463.645882	2467.377627
464.018024	2469.353759
464.390106	2467.710343
464.762130	2470.745117
465.134094	2470.805611
465.505999	2474.657053
465.877845	2473.953812
466.249631	2474.972125
466.621358	2472.867443
466.993026	2474.760396
467.364634	2479.549493
467.736184	2477.006230
468.107674	2476.948257
468.479105	2473.789974
468.850477	2476.108905
469.221790	2476.789461
469.593043	2475.342650
469.964238	2474.354583
470.335373	2474.115129
470.706449	2475.002372
471.077467	2476.159317
471.448425	2475.919862
471.819324	2475.322485
472.190164	2479.579739
472.560945	2473.658904
472.931667	2476.265181
473.302330	2476.592856
473.672934	2476.582773
474.043479	2474.513380
474.413965	2476.731487
474.784393	2472.726291
475.154761	2476.844913
475.525070	2473.179995
475.895321	2476.497074
476.265513	2472.580097
476.635645	2475.123359
477.005719	2477.031436
477.375734	2475.435911
477.745691	2474.788123
478.115588	2475.221662
478.485427	2475.834162
478.855207	2478.712661
479.224928	2476.481950
479.594591	2478.226190
479.964194	2475.884574
480.333739	2478.092599
480.703226	2476.086220
481.072653	2479.617548
481.442022	2481.651654
481.811333	2477.359111
482.180584	2475.128401
482.549777	2479.478916
482.918912	2472.202011
483.287988	2476.534882
483.657005	2479.529328
484.025964	2477.661580
484.394864	2475.866930
484.763706	2478.621920
485.132489	2478.659729
485.501213	2478.198463
485.869879	2476.600418
486.238487	2479.511684
486.607036	2478.090078
486.975527	2480.371201
487.343959	2478.563947
487.712333	2480.048567
488.080648	2478.211066
488.448905	2479.342805
488.817104	2478.843731
489.185244	2479.957826
489.553326	2478.952116
489.921350	2478.490850
490.289315	2479.141159
490.657222	2482.480923
491.025070	2480.797178
491.392861	2483.443784
491.760593	2480.398927
492.128267	2481.064359
492.495883	2478.974801
492.863440	2479.718371
493.230939	2479.844400
493.598380	2478.717702
493.965763	2478.548823
494.333088	2477.999338
494.700354	2480.552682
495.067563	2477.575881
495.434713	2479.073103
495.801805	2478.732826
496.168839	2478.309369
496.535815	2477.921200
496.902733	2478.755511
497.269593	2479.383134
497.636395	2479.473875
498.003139	2478.271560
498.369825	2481.250882
498.736453	2476.930613
499.103023	2479.993114
499.469535	2479.589822
499.835989	2476.643267
500.202385	2478.427836
500.568723	2474.120170
500.935003	2478.427836
501.301226	2474.092443
501.667390	2480.252733
502.033497	2479.395737
502.399546	2478.629482
502.765537	2479.804071
503.131470	2477.555716
503.497345	2477.248206
503.863163	2479.184009
504.228923	2477.956488
504.594625	2478.354739
504.960269	2478.884060
505.325856	2478.417753
505.691385	2481.245841
506.056856	2478.422795
506.422270	2479.231900
506.787625	2479.549493
507.152924	2478.289204
507.518164	2475.627475
507.883347	2480.988742
508.248472	2479.867085
508.613540	2480.918166
508.978550	2480.051087
509.343503	2479.622589
509.708398	2481.016468
510.073236	2477.187712
510.438016	2480.308186
510.802738	2479.829277
511.167403	2480.656026
511.532010	2480.837507
511.896561	2480.943372
512.261053	2480.708958
512.625488	2479.604945
512.989866	2478.793319
513.354186	2482.473362
513.718449	2478.057311
514.082655	2478.556385
514.446803	2479.105871
514.810894	2483.486634
515.174927	2482.861531
515.538904	2480.348515
515.902822	2479.499081
516.266684	2479.365490
516.630488	2480.320789
516.994235	2481.306335
517.357925	2481.762559
517.721558	2482.579226
518.085133	2480.691314
518.448651	2476.239975
518.812112	2477.296097
519.175516	2478.286683
519.538863	2477.550675
519.902152	2480.761890
520.265385	2482.765749
520.628560	2479.912456
520.991678	2481.409678
521.354739	2479.899853
521.717743	2481.739874
522.080690	2480.958495
522.443580	2479.945223
522.806413	2480.716520
523.169189	2481.407158
523.531908	2481.485296
523.894569	2481.311376
524.257174	2479.247023
524.619722	2482.458238
524.982213	2481.903711
525.344647	2480.789616
525.707025	2481.623927
526.069345	2482.002014
526.431608	2483.557210
526.793815	2479.425984
527.155964	2479.738536
527.518057	2478.931951
527.880093	2482.070069
528.242072	2478.823566
528.603995	2482.473362
528.965860	2482.433033
529.327669	2481.208032
529.689421	2480.164513
530.051117	2483.370687
530.412755	2481.744915
530.774337	2482.319607
531.135862	2480.373721
531.497331	2485.936634
531.858743	2482.899339
532.220098	2481.964205
532.581396	2480.131746
532.942638	2482.221304
533.303824	2481.225676
533.664953	2479.443628
534.026025	2478.894143
534.387040	2480.615697
534.747999	2480.681232
535.108902	2481.321458
535.469748	2481.918835
535.830537	2481.626448
536.191270	2482.256592
536.551947	2480.966057
536.912567	2476.607979
537.273131	2480.409009
537.633638	2475.856847
537.994089	2482.501088
538.354483	2478.193422
538.714821	2482.619555
539.075103	2482.276757
539.435328	2483.355564
539.795497	2479.587301
540.155609	2481.071921
540.515665	2478.994966
540.875665	2480.068731
541.235609	2480.043526
541.595496	2484.782210
541.955328	2481.013948
542.315102	2482.002014
542.674821	2480.739205
543.034483	2482.024699
543.394090	2480.784575
543.753640	2480.552682
544.113134	2484.615852
544.472571	2483.504278
544.831953	2482.518732
545.191278	2483.915132
545.550548	2482.962354
545.909761	2481.729792
546.268918	2483.456387
546.628019	2480.512353
546.987064	2483.572333
547.346053	2480.116622
547.704986	2481.258444
548.063863	2482.233907
548.422684	2481.790285
548.781449	2481.323979
549.140158	2481.356746
549.498811	2480.010758
549.857408	2481.485296
550.215949	2481.399596
550.574434	2481.825573
550.932864	2482.145687
551.291237	2479.983032
551.649555	2482.884216
552.007817	2481.649133
552.366022	2481.944041
552.724173	2482.889257
553.082267	2480.887919
553.440305	2481.752477
553.798288	2483.456387
554.156215	2481.155100
554.514086	2481.507981
554.871902	2477.795171
555.229661	2481.560913
555.587365	2475.856847
555.945014	2482.947230
556.302606	2479.410861
556.660143	2483.942858
557.017625	2481.205512
557.375050	2483.342961
557.732421	2482.087713
558.089735	2480.618217
558.446994	2480.277939
558.804197	2478.901704
559.161345	2482.405306
559.518437	2480.605614
559.875474	2481.313896
560.232455	2482.405306
560.589381	2483.327837
560.946251	2479.501602
561.303065	2483.005203
561.659825	2478.994966
562.016528	2481.785244
562.373177	2483.053094
562.729770	2483.050574
563.086307	2485.911429
563.442789	2484.608290
563.799216	2484.421768
564.155587	2482.281798
564.511904	2482.944710
564.868164	2482.266674
565.224370	2481.563433
565.580520	2484.084010
565.936615	2481.923876
566.292654	2480.696355
566.648638	2480.847590
567.004567	2481.863382
567.360441	2481.210553
567.716260	2481.122333
568.072023	2483.282467
568.427732	2482.813640
568.783385	2483.521922
569.138982	2481.709627
569.494525	2483.123671
569.850013	2482.692652
570.205445	2485.397231
570.560823	2481.878506
570.916145	2481.717189
571.271412	2481.208032
571.626625	2482.153248
571.981782	2482.133084
572.336884	2481.155100
572.691931	2476.736529
573.046923	2482.075111
573.401860	2479.395737
573.756743	2482.808598
574.111570	2481.634010
574.466342	2480.494709
574.821059	2483.796665
575.175722	2484.109216
575.530330	2480.250213
575.884882	2480.391365
576.239380	2477.838021
576.593823	2484.719196
576.948211	2481.477734
577.302544	2481.394555
577.656823	2481.838176
578.011047	2482.841366
578.365216	2482.778352
578.719330	2485.936634
579.073389	2482.591829
579.427394	2481.984370
579.781344	2479.897332
580.135239	2482.811119
580.489080	2483.632827
580.842866	2483.244658
581.196597	2484.285657
581.550273	2483.481593
581.903895	2480.713999
582.257463	2479.935141
582.610975	2480.666108
582.964434	2482.002014
583.317837	2480.734164
583.671186	2485.266161
584.024481	2484.532673
584.377721	2481.656695
584.730906	2484.232724
585.084037	2484.192395
585.437113	2480.784575
585.790135	2482.770790
586.143103	2483.436222
586.496016	2481.276088
586.848874	2483.521922
587.201679	2485.296408
587.554428	2482.879175
587.907124	2479.851962
588.259765	2484.204998
588.612352	2481.462610
588.964884	2484.429329
589.317362	2483.761377
589.669786	2482.102837
590.022155	2481.361787
590.374470	2480.043526
590.726731	2478.596714
591.078937	2480.104019
591.431090	2484.515029
591.783188	2484.063846
592.135232	2483.549648
592.487222	2482.017137
592.839157	2480.628299
593.191038	2481.013948
593.542866	2480.686273
593.894639	2484.159628
594.246358	2482.090234
594.598022	2480.600573
594.949633	2482.354895
595.301190	2481.139977
595.652692	2480.293063
596.004141	2477.775006
596.355535	2481.608804
596.706876	2479.138638
597.058162	2481.492857
597.409395	2482.884216
597.760573	2482.362456
598.111698	2480.739205
598.462768	2480.537559
598.813785	2479.710809
599.164748	2482.768269
599.515657	2479.640233
599.866511	2478.626961
600.217312	2480.935810
600.568060	2478.803402
600.918753	2480.802219
601.269392	2482.334730
601.619978	2481.258444
601.970510	2478.944554
602.320988	2480.161993
602.671412	2483.348002
603.021783	2480.885398
603.372100	2481.538228
603.722363	2481.787765
604.072572	2479.763742
604.422728	2485.621562
604.772830	2481.218114
605.122878	2480.968577
605.472872	2482.478403
605.822813	2482.120481
606.172701	2481.969246
606.522534	2481.044195
606.872314	2479.252064
607.222041	2480.000676
607.571714	2479.254585
607.921333	2478.828608
608.270899	2479.294914
608.620411	2478.107722
608.969870	2484.338589
609.319276	2483.549648
609.668627	2481.994452
610.017926	2482.753146
610.367171	2481.727271
610.716362	2482.591829
611.065500	2480.151910
611.414585	2480.608135
611.763616	2481.545789
612.112594	2481.513022
612.461518	2481.669298
612.810389	2481.820532
613.159207	2485.311531
613.507971	2479.698207
613.856682	2481.661736
614.205340	2482.397744
614.553945	2483.902529
614.902496	2480.361118
615.250994	2481.160141
615.599439	2478.755511
615.947830	2482.304483
616.296169	2481.162662
616.644454	2480.933289
616.992686	2482.339771
617.340864	2480.656026
617.688990	2480.764411
618.037063	2481.631489
618.385082	2480.330871
618.733048	2481.341623
619.080961	2481.830615
619.428821	2480.724081
619.776628	2477.817856
620.124382	2482.377580
620.472083	2481.576036
620.819731	2482.513691
621.167326	2480.913125
621.514868	2480.114102
621.862357	2479.083186
622.209793	2479.965388
622.557176	2479.511684
622.904506	2479.055459
623.251783	2480.126705
623.599007	2483.617704
623.946179	2480.668629
624.293297	2484.573002
624.640363	2483.100985
624.987376	2477.739718
625.334336	2476.539924
625.681243	2479.201653
626.028097	2476.575212
626.374899	2482.866572
626.721647	2480.567806
627.068343	2483.358084
627.414987	2479.138638
627.761577	2480.870275
628.108115	2481.402117
628.454600	2480.325830
628.801032	2479.403299
629.147412	2480.076293
629.493739	2478.959678
629.840014	2482.974957
630.186236	2481.263485
630.532405	2482.891778
630.878521	2478.730305
631.224585	2479.756180
631.570597	2481.492857
631.916556	2481.316417
632.262462	2480.754328
632.608316	2480.071252
632.954117	2478.314410
633.299866	2479.504122
633.645562	2479.511684
633.991206	2479.783906
634.336797	2483.247179
634.682336	2479.080665
635.027823	2480.371201
635.373257	2477.807774
635.718639	2481.573516
636.063968	2477.729636
636.409245	2479.325161
636.754470	2476.965901
637.099642	2476.134111
637.444762	2477.961529
637.789829	2480.875316
638.134845	2480.439256
638.479808	2481.729792
638.824719	2480.288022
639.169577	2477.412043
639.514383	2480.731643
639.859137	2479.738536
640.203839	2481.563433
640.548489	2478.853813
640.893086	2478.619400
641.237632	2479.239462
641.582125	2476.802064
641.926566	2479.640233
642.270955	2479.710809
642.615292	2472.078502
642.959576	2477.923720
643.303809	2473.767289
643.647990	2479.632672
643.992118	2479.380614
644.336195	2479.587301
644.680219	2480.804740
645.024192	2479.539410
645.368112	2478.505974
645.711981	2478.160655
646.055797	2480.255254
646.399562	2479.494040
646.743274	2478.163175
647.086935	2480.116622
647.430544	2480.494709
647.774101	2480.396406
648.117606	2479.453711
648.461059	2480.565285
648.804460	2484.119298
649.147810	2479.814153
649.491108	2482.604432
649.834354	2480.028402
650.177548	2479.748618
650.520690	2478.858854
650.863781	2482.012096
651.206820	2477.684266
651.549807	2479.703248
651.892742	2480.109061
652.235626	2479.161324
652.578458	2481.450007
652.921238	2480.633341
653.263967	2480.134266
653.606644	2477.853144
653.949269	2480.656026
654.291843	2478.899184
654.634365	2480.406489
654.976836	2476.701241
655.319255	2480.313227
655.661622	2480.986221
656.003938	2479.335243
656.346203	2476.267701
656.688416	2479.448669
657.030577	2476.040849
657.372687	2475.869450
657.714746	2478.221148
658.056753	2477.374235
658.398708	2479.352888
658.740612	2479.700727
659.082465	2476.741570
659.424266	2475.193936
659.766016	2472.771661
660.107715	2475.577063
660.449362	2473.971456
660.790958	2478.453042
661.132503	2478.984883
661.473996	2478.979842
661.815438	2478.715182
662.156829	2479.075624
662.498168	2480.219966
662.839456	2478.909266
663.180693	2480.645943
663.521879	2480.451859
663.863013	2478.158134
664.204097	2477.717033
664.545129	2480.245172
664.886110	2478.700058
665.227040	2477.472537
665.567918	2481.666777
665.908746	2477.797692
666.249522	2477.225521
666.590248	2474.120170
666.930922	2478.296766
667.271545	2476.514718
667.612118	2480.650985
667.952639	2477.220479
668.293109	2476.537403
668.633528	2479.481437
668.973896	2479.937661
669.314213	2476.945737
669.654480	2479.925058
669.994695	2477.016313
670.334859	2479.357929
670.674973	2478.107723
671.015035	2476.688638
671.355047	2481.568475
671.695008	2478.926910
672.034918	2478.649647
672.374777	2477.991776
672.714585	2477.200315
673.054342	2476.739049
673.394049	2479.501602
673.733705	2480.232569
674.073310	2481.886067
674.412864	2478.125367
674.752368	2478.679893
675.091820	2478.707620
675.431223	2478.006899
675.770574	2478.077476
676.109875	2477.863227
676.449125	2477.147383
676.788324	2471.294603
677.127473	2477.787609
677.466571	2473.726960
677.805619	2477.119656
678.144616	2474.846096
678.483562	2478.841210
678.822458	2476.464306
679.161303	2480.119143
679.500098	2478.029585
679.838842	2475.844244
680.177535	2476.872640
680.516179	2478.689976
680.854771	2478.445480
681.193314	2478.526138
681.531805	2479.259626
681.870247	2478.236272
682.208638	2476.562609
682.546978	2479.161324
682.885268	2480.920686
683.223508	2477.573360
683.561697	2478.344657
683.899836	2476.640747
684.237925	2477.875829
684.575963	2476.981025
684.913951	2478.707620
685.251889	2475.849286
685.589776	2477.699389
685.927614	2476.459265
686.265401	2476.708802
686.603137	2475.362814
686.940824	2477.908597
687.278460	2480.222487
687.616046	2479.587301
687.953582	2478.836169
688.291068	2476.562609
688.628504	2475.998000
688.965889	2477.812815
689.303224	2478.475727
689.640510	2478.072434
689.977745	2478.072434
690.314930	2478.778196
690.652065	2479.206694
690.989150	2476.824749
691.326185	2479.577219
691.663170	2477.454893
692.000105	2476.958339
692.336990	2480.474544
692.673825	2478.861375
693.010610	2478.092599
693.347345	2472.136476
693.684030	2476.045891
694.020665	2473.510190
694.357251	2471.488688
694.693786	2476.935654
695.030272	2476.179481
695.366707	2476.340798
695.703093	2478.851293
696.039429	2479.078145
696.375716	2478.306848
696.711952	2477.669142
697.048139	2477.225521
697.384276	2478.143011
697.720363	2477.838021
698.056400	2476.829790
698.392388	2478.143011
698.728326	2478.833649
699.064214	2474.372227
699.400053	2478.158134
699.735842	2476.643267
700.071581	2477.520428
700.407270	2474.949440
700.742910	2475.846765
701.078501	2476.691158
701.414042	2477.449852
701.749533	2479.927579
702.084974	2474.185705
702.420366	2476.595376
702.755709	2476.635706
703.091002	2473.860550
703.426246	2475.146045
703.761440	2478.034626
704.096584	2477.775006
704.431679	2477.845583
704.766725	2473.898359
705.101721	2476.827269
705.436668	2473.550519
705.771565	2475.206538
706.106413	2476.439101
706.441212	2477.119656
706.775961	2478.342136
707.110661	2476.388689
707.445311	2478.072434
707.779913	2475.940026
708.114465	2475.292238
708.448967	2475.274594
708.783421	2476.935654
709.117825	2475.864409
709.452180	2474.631847
709.786485	2476.247537
710.120742	2474.299131
710.454949	2472.380972
710.789107	2472.718729
711.123216	2470.193111
711.457275	2474.871302
711.791286	2476.282825
712.125247	2476.716364
712.459159	2476.386168
712.793023	2478.342136
713.126837	2477.906076
713.460602	2477.187712
713.794318	2475.191415
714.127985	2477.263329
714.461602	2476.517238
714.795171	2475.458596
715.128691	2477.265850
715.462162	2475.254429
715.795584	2476.693679
716.128957	2478.253916
716.462281	2478.269039
716.795556	2475.582104
717.128782	2479.257106
717.461960	2475.667804
717.795088	2475.476240
718.128167	2475.196456
718.461198	2474.684779
718.794180	2474.525983
719.127113	2478.160655
719.459997	2475.836683
719.792833	2477.386837
720.125619	2476.958339
720.458357	2475.030098
720.791046	2479.501602
721.123686	2474.147896
721.456278	2478.324492
721.788821	2475.125880
722.121315	2473.300982
722.453761	2474.588997
722.786158	2476.111426
723.118506	2474.021867
723.450805	2474.369707
723.783056	2472.943060
724.115259	2476.867599
724.447412	2479.375573
724.779518	2474.415077
725.111574	2474.611682
725.443582	2474.871302
725.775542	2477.495222
726.107453	2474.967084
726.439315	2478.901704
726.771129	2474.977166
727.102895	2474.024388
727.434612	2473.076651
727.766281	2470.740076
728.097901	2477.573360
728.429473	2474.488174
728.760996	2475.284676
729.092471	2474.445324
729.423897	2480.298104
729.755276	2475.125880
730.086606	2473.147227
730.417887	2476.744090
730.749120	2477.175109
731.080305	2475.733339
731.411442	2477.452373
731.742530	2477.908597
732.073570	2475.554378
732.404562	2474.583956
732.735506	2476.539924
733.066401	2476.008082
733.397249	2475.748463
733.728048	2476.534882
734.058798	2476.756693
734.389501	2476.330716
734.720156	2475.617392
735.050762	2473.439614
735.381320	2476.739049
735.711831	2472.827114
736.042293	2474.720067
736.372707	2476.958339
736.703073	2474.170581
737.033391	2472.587659
737.363661	2476.297948
737.693883	2475.529172
738.024056	2476.398771
738.354182	2476.970942
738.684260	2476.267701
739.014290	2475.461117
739.344272	2475.022536
739.674207	2474.949440
740.004093	2473.122021
740.333931	2477.172588
740.663722	2475.624954
740.993464	2475.801395
741.323159	2474.402474
741.652806	2474.967084
741.982405	2474.904069
742.311956	2476.476909
742.641460	2475.750983
742.970915	2471.211424
743.300323	2473.069089
743.629683	2471.317288
743.958996	2473.777371
744.288260	2470.936681
744.617477	2474.702423
744.946647	2475.924903
745.275768	2475.856847
745.604842	2474.830973
745.933869	2475.113277
746.262847	2474.072279
746.591778	2476.086220
746.920662	2475.254429
747.249498	2475.070427
747.578286	2472.093626
747.907027	2474.838534
748.235720	2476.676035
748.564365	2474.760396
748.892963	2474.407516
749.221514	2478.417753
749.550017	2476.383648
749.878473	2474.367186
750.206881	2473.631178
750.535242	2474.102526
750.863555	2473.469861
751.191821	2474.112608
751.520039	2477.333905
751.848210	2474.533544
752.176334	2474.606641
752.504411	2474.324337
752.832440	2471.352576
753.160421	2474.253760
753.488356	2474.218472
753.816243	2474.702423
754.144082	2472.973307
754.471875	2474.843575
754.799620	2473.573205
755.127318	2475.108236
755.454969	2473.888277
755.782572	2473.144707
756.110129	2474.936837
756.437638	2473.202680
756.765100	2474.369707
757.092515	2472.403657
757.419882	2475.284676
757.747203	2475.370376
758.074477	2475.478761
758.401703	2473.681589
758.728882	2473.547999
759.056014	2473.316106
759.383099	2474.284007
759.710138	2472.791826
760.037129	2472.020529
760.364073	2472.509521
760.690970	2470.941722
761.017820	2474.659573
761.344623	2471.617237
761.671379	2477.102012
761.998088	2474.198308
762.324751	2475.672845
762.651366	2472.431383
762.977935	2475.640078
763.304456	2473.598410
763.630931	2477.298617
763.957359	2475.866930
764.283740	2474.241157
764.610074	2475.786271
764.936362	2476.429018
765.262602	2474.238637
765.588796	2474.687300
765.914943	2475.531693
766.241044	2477.197794
766.567097	2474.780561
766.893104	2471.803760
767.219064	2472.509521
767.544978	2475.115798
767.870845	2475.740901
768.196665	2476.464306
768.522438	2474.132773
768.848165	2473.502628
769.173846	2474.941878
769.499479	2474.175623
769.825066	2475.133442
770.150607	2477.585963
770.476101	2474.780561
770.801548	2474.619244
771.126949	2472.282669
771.452303	2474.341981
771.777611	2471.798718
772.102872	2473.016157
772.428087	2475.713174
772.753256	2474.011785
773.078378	2471.113122
773.403453	2473.517752
773.728482	2472.885087
774.053465	2473.248050
774.378401	2473.447176
774.703291	2473.530355
775.028135	2474.641929
775.352932	2474.442804
775.677683	2472.685962
776.002388	2471.592031
776.327046	2469.147072
776.651658	2470.762761
776.976224	2468.353090
777.300743	2473.807618
777.625216	2472.887608
777.949643	2476.214769
778.274024	2471.481126
778.598359	2475.529172
778.922647	2475.279635
779.246889	2474.094964
779.571086	2473.306023
779.895236	2472.317957
780.219339	2472.577577
780.543397	2471.846609
780.867409	2470.324181
781.191374	2473.898359
781.515294	2474.873822
781.839167	2472.630509
782.162995	2473.389203
782.486776	2471.549181
782.810511	2474.286528
783.134201	2472.640591
783.457844	2472.496918
783.781441	2474.639409
784.104993	2473.177474
784.428498	2473.122021
784.751958	2474.992289
785.075372	2471.680251
785.398739	2471.549181
785.722061	2472.408698
786.045337	2474.392392
786.368568	2473.308544
786.691752	2473.371558
787.014891	2471.554223
787.337983	2474.899028
787.661030	2474.906590
787.984031	2473.858030
788.306987	2472.292752
788.629897	2475.425829
788.952760	2475.057824
789.275579	2475.110757
789.598351	2475.042701
789.921078	2473.585808
790.243759	2471.690334
790.566395	2473.588328
790.888984	2472.378451
791.211529	2474.452886
791.534027	2474.248719
791.856480	2470.593883
792.178888	2471.012298
792.501249	2470.740076
792.823566	2471.891980
793.145836	2467.997688
793.468062	2473.754686
793.790241	2474.757876
794.112375	2472.045735
794.434464	2475.319964
794.756507	2472.113791
795.078505	2474.485653
795.400457	2472.423822
795.722364	2472.010447
796.044226	2473.527834
796.366042	2472.998513
796.687812	2474.858699
797.009538	2473.351394
797.331218	2473.323668
797.652852	2472.280149
797.974442	2472.592700
798.295986	2470.210755
798.617484	2472.443986
798.938938	2472.559933
799.260346	2473.313585
799.581709	2474.485653
799.903026	2472.512042
800.224299	2471.965077
800.545526	2471.213945
800.866708	2474.125211
801.187845	2474.062197
801.508936	2473.379120
801.829983	2473.328709
802.150984	2473.280818
802.471940	2472.854840
802.792851	2473.227886
803.113717	2470.346866
803.434538	2470.941722
803.755314	2473.391723
804.076045	2471.874336
804.396731	2471.060189
804.717372	2470.641774
805.037967	2471.594552
805.358518	2472.159161
805.679024	2474.261322
805.999485	2470.036835
806.319901	2472.118832
806.640272	2471.521455
806.960598	2472.880046
807.280879	2471.967597
807.601115	2470.941722
807.921306	2472.756538
808.241453	2470.392237
808.561554	2467.969962
808.881611	2470.498101
809.201623	2467.357462
809.521590	2472.232258
809.841513	2470.835858
810.161390	2474.188225
810.481223	2472.451548
810.801011	2470.288893
811.120755	2471.047587
811.440453	2472.577577
811.760107	2470.954325
812.079716	2474.311734
812.399281	2472.469192
812.718801	2473.462299
813.038276	2472.610344
813.357707	2472.786785
813.677093	2469.694037
813.996434	2473.381641
814.315731	2471.980200
814.634983	2470.493060
814.954191	2472.769141
815.273354	2473.989100
815.592473	2472.068420
815.911547	2476.567650
816.230577	2471.486167
816.549562	2472.995993
816.868502	2472.267546
817.187399	2470.392237
817.506250	2471.725622
817.825058	2470.046917
818.143821	2473.185036
818.462539	2470.407360
818.781213	2473.921044
819.099843	2472.028091
819.418429	2471.549181
819.736970	2474.276446
820.055466	2471.171095
820.373919	2473.563122
820.692327	2472.411219
821.010691	2474.631847
821.329011	2474.026908
821.647286	2476.590335
821.965517	2479.282311
822.283704	2479.443628
822.601847	2478.576550
822.919945	2480.789616
823.237999	2478.329533
823.556010	2478.765593
823.873976	2477.207877
824.191897	2474.601600
824.509775	2469.313430
824.827609	2471.710498
825.145398	2469.242853
825.463144	2474.226034
825.780845	2475.279635
826.098502	2474.830973
826.416116	2475.299800
826.733685	2472.476754
827.051210	2474.692341
827.368692	2476.499594
827.686129	2472.348204
828.003522	2474.367186
828.320872	2473.542958
828.638177	2473.275777
828.955439	2472.270066
829.272656	2471.433235
829.589830	2472.086064
829.906960	2474.127732
830.224046	2470.039356
830.541088	2469.920889
830.858086	2474.019347
831.175041	2469.971300
831.491952	2469.792339
831.808819	2475.476240
832.125642	2469.167236
832.442421	2473.716878
832.759157	2474.057155
833.075849	2473.948771
833.392497	2476.179481
833.709101	2472.580097
834.025662	2474.130252
834.342179	2473.290900
834.658653	2474.054635
834.975083	2472.537248
835.291469	2475.778709
835.607811	2471.385344
835.924110	2472.625468
836.240366	2473.560602
836.556578	2472.025570
836.872746	2472.633029
837.188871	2473.449696
837.504952	2474.100005
837.820990	2469.593214
838.136984	2474.367186
838.452935	2475.476240
838.768842	2471.924747
839.084706	2471.448358
839.400526	2471.443317
839.716303	2468.111114
840.032037	2472.935499
840.347727	2467.339818
840.663373	2468.804273
840.978977	2464.615074
841.294537	2474.173102
841.610054	2470.384675
841.925527	2473.724439
842.240957	2468.227061
842.556344	2474.750314
842.871687	2472.527165
843.186987	2473.250571
843.502244	2468.562298
843.817458	2473.822742
844.132629	2470.694706
844.447756	2469.351238
844.762840	2470.387195
845.077881	2472.847278
845.392879	2469.202524
845.707833	2471.856692
846.022745	2468.889973
846.337613	2471.965077
846.652438	2469.628502
846.967221	2471.637402
847.281960	2470.770323
847.596656	2470.384675
847.911309	2469.739407
848.225919	2472.128914
848.540485	2469.714201
848.855009	2471.607155
849.169490	2470.520786
849.483928	2468.532051
849.798323	2471.503811
850.112675	2472.214614
850.426984	2469.315950
850.741251	2470.261167
851.055474	2469.101701
851.369654	2470.223358
851.683792	2470.218317
851.997887	2470.649335
852.311938	2469.734366
852.625947	2473.132104
852.939914	2469.051290
853.253837	2469.772175
853.567718	2472.494398
853.881555	2469.555405
854.195350	2470.402319
854.509103	2468.743779
854.822812	2469.885601
855.136479	2473.298462
855.450103	2471.350056
855.763685	2467.627164
856.077224	2464.725980
856.390720	2467.601958
856.704173	2464.879735
857.017584	2470.160343
857.330953	2469.149592
857.644278	2472.224696
857.957561	2470.828296
858.270802	2469.560446
858.584000	2472.209572
858.897155	2471.980200
859.210268	2470.820735
859.523339	2474.203349
859.836367	2468.945425
860.149352	2473.268215
860.462295	2470.551033
860.775195	2470.387195
861.088054	2468.970631
861.400869	2470.200673
861.713642	2471.055148
862.026373	2473.076651
862.339062	2471.491208
862.651708	2470.689665
862.964312	2469.280662
863.276873	2469.315950
863.589392	2467.065075
863.901869	2471.869295
864.214303	2469.888121
864.526696	2471.385344
864.839045	2470.445169
865.151353	2469.709160
865.463619	2470.397278
865.775842	2471.498770
866.088023	2468.189252
866.400162	2471.312247
866.712258	2467.871660
867.024313	2473.192597
867.336325	2470.924078
867.648296	2473.573205
867.960224	2469.704119
868.272110	2470.026753
868.583954	2469.673872
868.895755	2467.743110
869.207515	2471.713019
869.519233	2467.425517
869.830909	2470.079685
870.142542	2467.486011
870.454134	2468.022894
870.765684	2472.456589
871.077191	2469.215127
871.388657	2469.041207
871.700081	2466.820579
872.011463	2470.606486
872.322803	2464.841926
872.634101	2468.406022
872.945357	2469.875518
873.256571	2470.177987
873.567744	2468.378296
873.878874	2467.390229
874.189963	2470.024232
874.501010	2470.931640
874.812015	2469.893162
875.122979	2470.583800
875.433900	2469.860395
875.744780	2471.642443
876.055618	2468.816876
876.366415	2470.482977
876.677169	2468.605148
876.987882	2470.293934
877.298554	2468.741259
877.609183	2471.216465
877.919771	2468.799232
878.230317	2468.416104
878.540822	2470.886270
878.851285	2470.926599
879.161707	2470.059520
879.472087	2469.694037
879.782425	2470.936681
880.092722	2471.408029
880.402977	2471.932309
880.713191	2467.932153
881.023363	2474.039511
881.333494	2473.278297
881.643583	2472.920375
881.953631	2475.887094
882.263637	2474.599079
882.573602	2472.176805
882.883526	2470.057000
883.193408	2473.343832
883.503248	2469.915848
883.813048	2471.723101
884.122806	2472.290231
884.432522	2472.217134
884.742197	2470.878708
885.051831	2470.117494
885.361424	2469.830148
885.670975	2471.667648
885.980485	2472.882567
886.289954	2473.071610
886.599382	2470.251084
886.908768	2466.276134
887.218113	2464.776391
887.527417	2466.676906
887.836680	2465.058696
888.145901	2470.281331
888.455082	2468.428707
888.764221	2471.962556
889.073319	2469.237812
889.382376	2469.920889
889.691392	2467.294448
890.000366	2473.361476
890.309300	2466.245887
890.618193	2469.628502
890.927044	2468.567339
891.235855	2470.203193
891.544625	2470.944243
891.853353	2469.802422
892.162041	2469.487349
892.470687	2469.517596
892.779293	2470.404839
893.087858	2469.590693
893.396381	2472.025570
893.704864	2472.491877
894.013306	2469.144551
894.321707	2469.837710
894.630068	2471.060189
894.938387	2469.358800
895.246665	2470.732514
895.554903	2469.941053
895.863100	2472.423822
896.171256	2468.537092
896.479371	2470.246043
896.787446	2470.513224
897.095480	2471.113122
897.403473	2470.654377
897.711425	2468.743779
898.019336	2468.708491
898.327207	2470.906434
898.635038	2469.313430
898.942827	2471.087916
899.250576	2469.716722
899.558284	2468.141361
899.865952	2467.969962
900.173579	2470.334263
900.481165	2470.210755
900.788711	2468.716053
901.096216	2469.973821
901.403681	2470.719912
901.711105	2470.712350
902.018489	2469.487349
902.325832	2465.598099
902.633135	2464.604992
902.940397	2467.647328
903.247619	2466.870991
903.554800	2470.049438
903.861941	2470.054479
904.169041	2471.682772
904.476101	2468.279993
904.783121	2473.512711
905.090100	2466.792853
905.397039	2471.713019
905.703938	2470.498101
906.010796	2470.835858
906.317614	2469.618419
906.624391	2470.722432
906.931129	2469.845271
907.237826	2471.161012
907.544483	2471.360138
907.851099	2468.206896
908.157675	2468.612709
908.464211	2472.186887
908.770707	2468.625312
909.077163	2469.711681
909.383578	2467.954839
909.689954	2468.471557
909.996289	2468.005250
910.302584	2470.971969
910.608839	2467.793522
910.915054	2470.142699
911.221229	2470.074644
911.527363	2467.579273
911.833458	2470.876187
912.139513	2468.864767
912.445527	2467.599437
912.751502	2468.073306
913.057436	2469.472226
913.363331	2469.981383
913.669186	2468.826958
913.975000	2468.794191
914.280775	2468.358131
914.586510	2469.797380
914.892205	2467.541464
915.197859	2469.278142
915.503475	2468.128758
915.809050	2472.741414
916.114585	2470.666979
916.420081	2471.367700
916.725536	2469.205045
917.030952	2471.710498
917.336328	2470.445169
917.641665	2467.281845
917.946961	2466.197997
918.252218	2467.939715
918.557435	2464.133644
918.862612	2469.681434
919.167750	2468.849643
919.472848	2469.247895
919.777906	2469.991465
920.082925	2471.478605
920.387904	2471.024901
920.692843	2469.487349
920.997743	2469.333594
921.302603	2467.914509
921.607423	2467.339818
921.912204	2467.773357
922.216946	2468.829479
922.521647	2469.542802
922.826310	2467.506176
923.130932	2467.637246
923.435516	2470.278811
923.740059	2468.950467
924.044564	2468.214458
924.349028	2468.680765
924.653454	2467.264201
924.957840	2467.836372
925.262186	2466.513069
925.566493	2469.071454
925.870761	2465.267904
926.174989	2466.129941
926.479178	2468.196814
926.783328	2466.578604
927.087438	2469.346197
927.391509	2468.285034
927.695541	2467.954839
927.999533	2468.118676
928.303486	2470.472895
928.607400	2467.803604
928.911275	2469.623461
929.215110	2467.634725
929.518906	2466.792853
929.822663	2469.789819
930.126381	2468.632874
930.430060	2468.479119
930.733699	2468.302678
931.037299	2468.421145
931.340861	2467.556587
931.644383	2468.310240
931.947866	2471.319809
932.251309	2468.232102
932.554714	2468.685806
932.858080	2465.305712
933.161407	2461.320680
933.464694	2466.833182
933.767943	2463.687502
934.071153	2468.201855
934.374323	2467.160857
934.677455	2467.576752
934.980548	2469.071454
935.283602	2467.221351
935.586617	2470.324181
935.889593	2465.961062
936.192530	2468.317802
936.495428	2467.070116
936.798287	2466.898717
937.101108	2468.509366
937.403890	2467.695219
937.706632	2466.712194
938.009336	2469.051290
938.312002	2470.757720
938.614628	2469.293265
938.917216	2466.823100
939.219765	2467.990127
939.522275	2467.302009
939.824747	2469.605817
940.127179	2467.929633
940.429573	2468.577421
940.731929	2466.303861
941.034246	2466.807976
941.336524	2468.327884
941.638763	2467.077678
941.940964	2470.523307
942.243126	2469.010960
942.545250	2468.380816
942.847335	2467.702781
943.149381	2467.702781
943.451389	2467.715384
943.753359	2465.648511
944.055290	2470.457772
944.357182	2466.692030
944.659036	2464.904941
944.960851	2466.870991
945.262628	2467.291927
945.564367	2467.312092
945.866067	2465.204889
946.167729	2469.651187
946.469352	2467.261680
946.770937	2467.291927
947.072484	2470.573718
947.373992	2467.352421
947.675462	2467.874180
947.976893	2464.345372
948.278286	2463.821093
948.579641	2465.325877
948.880958	2464.027780
949.182236	2470.314099
949.483476	2469.452061
949.784678	2469.517596
950.085841	2465.774540
950.386967	2466.850826
950.688054	2466.709674
950.989103	2467.740590
951.290114	2467.012143
951.591087	2467.470888
951.892021	2467.826289
952.192917	2465.923254
952.493776	2465.041052
952.794596	2467.735548
953.095378	2467.327215
953.396122	2466.757565
953.696828	2469.318471
953.997496	2469.918368
954.298126	2467.929633
954.598718	2469.966259
954.899272	2465.696402
955.199788	2465.595579
955.500266	2466.777729
955.800706	2466.192955
956.101108	2466.966772
956.401472	2467.054993
956.701798	2465.676237
957.002087	2462.669189
957.302337	2466.928964
957.602550	2466.112297
957.902724	2467.619602
958.202861	2466.717235
958.502960	2466.540795
958.803022	2465.860239
959.103045	2467.105404
959.403031	2470.150261
959.702979	2467.007102
960.002889	2468.892493
960.302762	2464.337811
960.602596	2464.181535
960.902393	2467.123048
961.202153	2469.018522
961.501875	2468.126238
961.801559	2467.175980
962.101205	2467.097843
962.400814	2466.578604
962.700385	2467.357462
962.999918	2465.451906
963.299414	2464.617595
963.598873	2465.388891
963.898293	2460.193982
964.197677	2468.867288
964.497022	2465.401494
964.796331	2466.434931
965.095601	2468.804273
965.394835	2468.789150
965.694030	2467.725466
965.993189	2467.095322
966.292309	2465.580455
966.591393	2467.637246
966.890439	2466.318984
967.189447	2467.405353
967.488419	2466.964252
967.787353	2467.218830
968.086249	2465.439303
968.385108	2464.990640
968.683930	2465.109107
968.982714	2465.764457
969.281462	2464.176494
969.580172	2467.395271
969.878844	2463.208592
970.177480	2467.959880
970.476078	2466.107256
970.774639	2467.337297
971.073162	2466.306381
971.371649	2466.324025
971.670098	2464.612554
971.968510	2465.381330
972.266885	2466.964252
972.565223	2466.480301
972.863524	2464.879735
973.161788	2467.042390
973.460014	2466.046762
973.758204	2467.806125
974.056356	2466.674386
974.354471	2467.803604
974.652550	2465.865280
974.950591	2464.814200
975.248595	2468.610189
975.546563	2467.496094
975.844493	2468.216979
976.142386	2465.968624
976.440243	2468.370734
976.738062	2466.603809
977.035845	2465.782101
977.333590	2468.708491
977.631299	2465.431741
977.928971	2463.894189
978.226606	2462.984261
978.524204	2466.765126
978.821765	2462.966617
979.119290	2465.968624
979.416777	2465.162039
979.714228	2467.173460
980.011642	2467.024746
980.309020	2467.975003
980.606360	2467.387709
980.903664	2466.608851
981.200931	2464.836885
981.498162	2467.175980
981.795356	2470.266208
982.092513	2467.854016
982.389633	2468.380816
982.686717	2465.845116
982.983764	2466.568521
983.280775	2466.712194
983.577749	2465.497276
983.874686	2465.099025
984.171587	2466.785291
984.468451	2467.738069
984.765279	2466.215641
985.062070	2465.207410
985.358824	2465.023408
985.655543	2466.661783
985.952224	2463.531226
986.248869	2469.366362
986.545478	2461.965948
986.842050	2465.502317
987.138586	2464.723459
987.435086	2465.903089
987.731549	2468.766464
988.027975	2465.295630
988.324366	2467.410394
988.620719	2467.062554
988.917037	2467.518779
989.213318	2466.651700
989.509563	2466.692030
989.805772	2467.312092
990.101944	2466.737400
990.398080	2467.924592
990.694180	2469.189921
990.990244	2466.371916
991.286271	2466.991978
991.582262	2465.577935
991.878217	2467.279324
992.174136	2465.766978
992.470019	2465.449385
992.765865	2467.581793
993.061676	2463.926957
993.357450	2464.746144
993.653188	2462.124744
993.948890	2469.328553
994.244556	2465.030969
994.540186	2464.320167
994.835780	2465.220013
995.131337	2465.159519
995.426859	2464.131123
995.722345	2465.504838
996.017795	2465.409056
996.313208	2467.911989
996.608586	2468.118676
996.903928	2465.338480
997.199234	2465.615743
997.494504	2465.363686
997.789738	2466.853347
998.084936	2465.787143
998.380099	2466.263532
998.675225	2467.317133
998.970316	2465.887966
999.265371	2463.768160
999.560390	2465.290589
999.855373	2468.983234
1000.150320	2467.112966
1000.445232	2466.618933
1000.740108	2464.804117
1001.034948	2466.291258
1001.329752	2464.806638
1001.624521	2464.889817
1001.919254	2464.824282
1002.213951	2463.251442
1002.508613	2466.598768
1002.803239	2465.976186
1003.097829	2466.744962
1003.392384	2466.802935
1003.686903	2467.062554
1003.981386	2466.543316
1004.275834	2464.380661
1004.570246	2466.762606
1004.864623	2466.180352
1005.158964	2467.891824
1005.453270	2465.618264
1005.747540	2466.127420
1006.041775	2464.085753
1006.335974	2466.238326
1006.630138	2466.109776
1006.924266	2467.838892
1007.218359	2466.036680
1007.512416	2462.442337
1007.806438	2462.192800
1008.100425	2461.731534
1008.394376	2462.069292
1008.688292	2465.701443
1008.982172	2466.318984
1009.276017	2467.062554
1009.569827	2465.880404
1009.863602	2465.761937
1010.157341	2468.590024
1010.451045	2467.765795
1010.744714	2465.792184
1011.038347	2466.613892
1011.331945	2465.552729
1011.625508	2465.393933
1011.919036	2463.077522
1012.212528	2466.770168
1012.505986	2464.327728
1012.799408	2468.728656
1013.092795	2465.404015
1013.386147	2465.449385
1013.679464	2465.482153
1013.972745	2466.316464
1014.265992	2466.374437
1014.559204	2469.031125
1014.852380	2465.169601
1015.145521	2467.765795
1015.438628	2466.313943
1015.731699	2464.642801
1016.024736	2464.995681
1016.317737	2464.375619
1016.610703	2464.912502
1016.903635	2468.083388
1017.196531	2465.078860
1017.489393	2464.418469
1017.782219	2464.831844
1018.075011	2466.989458
1018.367768	2465.988789
1018.660490	2466.276134
1018.953177	2466.276134
1019.245829	2466.276134
