Dividing Wavelength (nm)	Counts (n)	Blue Motor Position (mm): 0.000000	Red Motor Position (mm): 44.000000	
326.493990	2055.144833
326.888308	2055.144833
327.282561	2055.144833
327.676750	2028.827489
328.070874	2031.249763
328.464933	2034.707995
328.858929	2044.568492
329.252859	2056.926880
329.646726	2068.345094
330.040528	2084.585171
330.434265	2101.808273
330.827938	2124.044803
331.221547	2142.197998
331.615091	2163.461585
332.008571	2183.979081
332.401986	2207.037318
332.795338	2224.814948
333.188625	2245.871847
333.581847	2263.858684
333.975006	2280.895263
334.368100	2297.873870
334.761129	2315.386838
335.154095	2331.833603
335.546996	2369.319623
335.939833	2447.530604
336.332606	2462.212964
336.725315	2472.580097
337.117960	2481.220635
337.510540	2493.609271
337.903056	2501.276866
338.295508	2508.556292
338.687896	2514.618279
339.080220	2522.477438
339.472480	2525.981040
339.864676	2527.561442
340.256807	2532.348017
340.648875	2534.591331
341.040879	2534.414890
341.432818	2539.609799
341.824694	2538.515869
342.216506	2536.045704
342.608253	2537.734490
342.999937	2536.403626
343.391557	2535.002185
343.783113	2534.896321
344.174605	2532.844571
344.566033	2532.534540
344.957397	2530.245856
345.348697	2531.962369
345.739934	2529.696370
346.131106	2525.996163
346.522215	2526.089425
346.913260	2521.633045
347.304241	2522.631193
347.695159	2519.409896
348.086012	2518.946110
348.476802	2517.680780
348.867528	2513.710872
349.258191	2510.313134
349.648789	2513.012672
350.039324	2507.104439
350.429796	2514.131808
350.820203	2511.076869
351.210548	2510.923113
351.600828	2508.710047
351.991045	2507.485047
352.381198	2507.031343
352.771288	2507.540499
353.161314	2509.453617
353.551276	2507.169974
353.941175	2510.686179
354.331010	2507.641322
354.720782	2509.738442
355.110490	2511.583505
355.500135	2509.004954
355.889717	2508.848679
356.279235	2509.435973
356.668689	2508.407578
357.058080	2511.311282
357.447408	2509.196518
357.836672	2512.170799
358.225873	2510.701303
358.615010	2512.196005
359.004084	2512.226252
359.393095	2510.746673
359.782043	2513.184071
360.170927	2511.878412
360.559748	2515.266068
360.948505	2517.017868
361.337199	2520.284536
361.725830	2518.245389
362.114398	2520.135822
362.502903	2516.654905
362.891344	2520.715555
363.279722	2514.121726
363.668037	2520.849145
364.056289	2520.090452
364.444478	2520.493744
364.832603	2520.521470
365.220665	2524.319980
365.608665	2524.022552
365.996601	2524.521626
366.384474	2522.449712
366.772284	2524.267048
367.160031	2521.338137
367.547715	2526.248221
367.935336	2522.956348
368.322893	2523.057171
368.710388	2524.791328
369.097820	2522.217819
369.485189	2521.023065
369.872495	2531.821217
370.259738	2529.086391
370.646918	2529.351051
371.034035	2531.375075
371.421090	2529.751823
371.808081	2533.119314
372.195010	2532.383305
372.581875	2532.262318
372.968678	2534.162833
373.355418	2539.602238
373.742096	2538.921682
374.128710	2543.246992
374.515262	2544.348484
374.901751	2549.124977
375.288177	2551.219577
375.674540	2553.261244
376.060841	2560.520506
376.447079	2563.073850
376.833254	2568.785477
377.219367	2571.048955
377.605417	2580.574216
377.991404	2583.674525
378.377329	2591.896647
378.763191	2598.924016
379.148991	2604.486929
379.534727	2615.292642
379.920402	2625.165742
380.306013	2631.313429
380.691563	2641.882208
381.077049	2654.162459
381.462474	2663.791063
381.847835	2678.319668
382.233134	2694.103521
382.618371	2698.302802
383.003545	2718.051522
383.388657	2731.821434
383.773706	2751.802047
384.158693	2763.807555
384.543618	2783.450411
384.928480	2797.248049
385.313280	2819.519867
385.698017	2839.860922
386.082692	2865.797659
386.467305	2878.632437
386.851856	2903.157650
387.236344	2928.693615
387.620770	2945.064762
388.005133	2964.959676
388.389435	3000.562825
388.773674	3010.272087
389.157851	3046.276008
389.541965	3072.593352
389.926018	3090.028182
390.310008	3118.755197
390.693936	3144.757469
391.077802	3172.877025
391.461606	3206.332642
391.845348	3221.766135
392.229027	3249.908376
392.612645	3289.390693
392.996200	3324.361178
393.379694	3360.100438
393.763125	3404.218096
394.146494	3426.875562
394.529801	3464.769915
394.913047	3508.748941
395.296230	3514.062317
395.679351	3538.610216
396.062410	3590.849173
396.445408	3568.968044
396.828343	3608.430197
397.211217	3645.011330
397.594028	3621.895119
397.976778	3670.028056
398.359466	3699.990153
398.742092	3711.521793
399.124656	3723.224832
399.507158	3785.233544
399.889598	3791.892909
400.271977	3855.146787
400.654294	3845.626567
401.036549	3906.385074
401.418742	3903.715783
401.800874	3975.219509
402.182944	4000.170700
402.564952	4086.906273
402.946898	4080.561981
403.328783	4074.333635
403.710606	4126.144094
404.092367	4202.142009
404.474067	4262.023355
404.855705	4246.519286
405.237282	4218.175398
405.618797	4317.027384
406.000250	4394.731730
406.381642	4477.588134
406.762972	4479.110563
407.144240	4445.717960
407.525447	4508.014018
407.906593	4524.851472
408.287677	4606.828195
408.668700	4638.360613
409.049661	4680.363507
409.430560	4713.783836
409.811399	4696.739695
410.192176	4747.718363
410.572891	4827.978573
410.953545	4936.479328
411.334138	4834.171631
411.714669	4942.662303
412.095139	4854.643757
412.475547	4966.769101
412.855894	4975.268486
413.236180	5069.381787
413.616405	5000.892671
413.996568	5108.740596
414.376670	5102.305563
414.756711	5106.310760
415.136691	5176.372716
415.516609	5260.146610
415.896466	5295.200274
416.276262	5374.532912
416.655997	5485.506352
417.035670	5582.909006
417.415283	5721.651642
417.794834	5792.893228
418.174324	5754.202373
418.553753	5755.263535
418.933121	5924.769813
419.312428	5943.427123
419.691674	5864.437284
420.070859	6089.635708
420.449983	5970.271268
420.829045	6161.802346
421.208047	6088.438434
421.586988	6247.053299
421.965867	6319.514844
422.344686	6401.602473
422.723444	6569.858544
423.102141	6190.373086
423.480777	6578.262148
423.859352	6391.873046
424.237866	6759.887359
424.616319	6758.364931
424.994712	6924.160919
425.373044	6837.029616
425.751314	7153.730024
426.129524	6872.325254
426.507673	7139.614793
426.885762	7183.344282
427.263789	7224.795170
427.641756	7314.315980
428.019662	7391.377578
428.397508	7431.290913
428.775292	7413.440188
429.153016	7590.987106
429.530679	7518.233173
429.908282	7569.360556
430.285824	7509.252358
430.663305	7801.853530
431.040726	7677.515991
431.418086	7688.911519
431.795385	7816.830798
432.172624	8009.090323
432.549802	7893.675627
432.926920	8029.995988
433.303977	7970.384344
433.680974	8008.092175
434.057910	8219.669402
434.434786	8262.771267
434.811601	8223.699804
435.188355	8559.181031
435.565050	8454.516595
435.941683	8464.208213
436.318257	8804.657497
436.694770	8752.693283
437.071222	8981.823808
437.447614	8753.918283
437.823946	8720.402172
438.200218	8874.434628
438.576429	8751.143128
438.952580	8928.443030
439.328670	8927.946476
439.704700	9006.578394
440.080670	8897.283658
440.456580	9170.819186
440.832429	9143.692737
441.208218	8880.365545
441.583947	8996.806117
441.959616	9111.630999
442.335224	9147.118201
442.710773	9235.776974
443.086261	9414.750538
443.461689	9127.770253
443.837057	9302.446233
444.212365	9520.213997
444.587612	9506.040793
444.962800	9398.245801
445.337927	9527.730358
445.712995	9067.720028
446.088002	9747.007947
446.462949	9803.700763
446.837837	9787.896746
447.212664	9813.309202
447.587431	10647.531944
447.962139	11663.576502
448.336786	12616.848612
448.711374	12400.552865
449.085901	11179.998778
449.460369	11094.238668
449.834776	10867.293484
450.209124	11784.327260
450.583412	11615.458688
450.957640	11932.471648
451.331808	11514.857422
451.705917	10939.581110
452.079965	10822.273460
452.453954	11017.686227
452.827883	10964.018103
453.201752	10936.891654
453.575562	10943.639238
453.949311	11288.930551
454.323001	11361.954185
454.696632	11275.400094
455.070202	11861.338446
455.443713	11919.157960
455.817164	12096.775454
456.190556	12419.520206
456.563888	12283.711521
456.937160	12550.673385
457.310373	12025.143179
457.683526	12036.939479
458.056619	12058.311451
458.429653	12128.527162
458.802628	12268.575457
459.175542	12321.373982
459.548398	12883.444992
459.921194	13455.439513
460.293930	13735.636926
460.666607	14605.067086
461.039224	15408.576597
461.411782	15767.375681
461.784280	15440.456854
462.156719	15377.323964
462.529099	15296.027796
462.901419	14653.210105
463.273680	14256.151184
463.645882	14465.601044
464.018024	14352.038971
464.390106	14717.512543
464.762130	15790.035667
465.134094	17325.117425
465.505999	19632.670310
465.877845	21920.507242
466.249631	23209.580693
466.621358	22746.830496
466.993026	21930.627359
467.364634	21185.534738
467.736184	20384.903725
468.107674	19743.265664
468.479105	19608.669377
468.850477	19334.264249
469.221790	18903.321213
469.593043	18226.480774
469.964238	17833.353953
470.335373	17887.508548
470.706449	18608.895143
471.077467	19469.299117
471.448425	21953.655350
471.819324	23866.533779
472.190164	23782.472539
472.560945	22025.925331
472.931667	20422.644324
473.302330	20084.297201
473.672934	19519.254431
474.043479	19940.783113
474.413965	19726.448375
474.784393	19544.379542
475.154761	20227.309694
475.525070	20351.438026
475.895321	20184.921152
476.265513	20722.892926
476.635645	21315.155406
477.005719	21381.340715
477.375734	21737.886403
477.745691	22379.995813
478.115588	23025.407178
478.485427	24231.571291
478.855207	26053.209877
479.224928	27883.368014
479.594591	29326.032819
479.964194	28986.798453
480.333739	29445.044379
480.703226	29672.781024
481.072653	30112.898961
481.442022	30635.464968
481.811333	31059.872149
482.180584	30619.260179
482.549777	30389.796939
482.918912	30155.501752
483.287988	30089.979355
483.657005	29957.941453
484.025964	29576.003473
484.394864	29781.097776
484.763706	29711.003053
485.132489	29163.435442
485.501213	29239.849253
485.869879	29417.484391
486.238487	29343.301291
486.607036	29614.946387
486.975527	29299.223963
487.343959	29650.925102
487.712333	30017.074188
488.080648	29958.851382
488.448905	30407.083055
488.817104	30283.978078
489.185244	31131.527110
489.553326	32092.486979
489.921350	33999.636138
490.289315	36557.754534
490.657222	37487.711307
491.025070	38078.257274
491.392861	37815.948396
491.760593	37035.673562
492.128267	36029.492022
492.495883	35045.244542
492.863440	34136.760564
493.230939	33134.269148
493.598380	32567.976172
493.965763	32410.407347
494.333088	31896.038255
494.700354	31702.631867
495.067563	31662.015291
495.434713	31532.908820
495.801805	31831.393019
496.168839	31684.037571
496.535815	31520.056398
496.902733	31651.156645
497.269593	31458.748406
497.636395	31614.789762
498.003139	31894.911557
498.369825	31651.736378
498.736453	32061.143605
499.103023	31910.660122
499.469535	31993.791269
499.835989	32102.458382
500.202385	31991.752123
500.568723	32027.554397
500.935003	32341.666173
501.301226	32186.096165
501.667390	32941.374437
502.033497	33154.348064
502.399546	32961.899495
502.765537	32554.667526
503.131470	33052.337795
503.497345	33493.542100
503.863163	32399.047107
504.228923	33197.598643
504.594625	33588.686317
504.960269	33056.524473
505.325856	33734.040427
505.691385	33403.628080
506.056856	33734.993205
506.422270	34236.041048
506.787625	33750.131790
507.152924	34220.718460
507.518164	34388.011671
507.883347	33965.734378
508.248472	34102.452991
508.613540	34793.123836
508.978550	35045.022732
509.343503	34882.362341
509.708398	35231.006020
510.073236	35841.663671
510.438016	35934.030212
510.802738	35601.051918
511.167403	36157.985993
511.532010	36406.787099
511.896561	36929.637932
512.261053	37695.036321
512.625488	37485.397417
512.989866	37388.282109
513.354186	37453.759136
513.718449	37418.516429
514.082655	38319.574788
514.446803	37990.763008
514.810894	38634.989702
515.174927	38634.818303
515.538904	38632.549784
515.902822	39291.249631
516.266684	38971.254828
516.630488	39339.425417
516.994235	39335.495838
517.357925	39916.438407
517.721558	40177.514724
518.085133	40575.649931
518.448651	40734.133726
518.812112	40632.204115
519.175516	40792.139762
519.538863	41253.135637
519.902152	41322.297748
520.265385	41861.199614
520.628560	41872.983312
520.991678	41833.238855
521.354739	42058.338977
521.717743	42421.879266
522.080690	42320.491580
522.443580	43018.071325
522.806413	43038.455231
523.169189	43171.382896
523.531908	43386.622521
523.894569	43246.231428
524.257174	43432.418883
524.619722	43787.653872
524.982213	43947.811329
525.344647	43992.332279
525.707025	44103.182211
526.069345	44549.982197
526.431608	44466.858612
526.793815	44839.699829
527.155964	44387.009255
527.518057	44642.880580
527.880093	44491.514895
528.242072	45145.884391
528.603995	44853.285739
528.965860	44750.660450
529.327669	44992.146842
529.689421	45064.144602
530.051117	45019.268250
530.412755	45292.506350
530.774337	45348.977356
531.135862	45291.611545
531.497331	45445.671727
531.858743	45439.821468
532.220098	45842.100504
532.581396	45565.923411
532.942638	45323.771586
533.303824	45578.072592
533.664953	45636.670964
534.026025	45311.957642
534.387040	45878.918571
534.747999	45935.815554
535.108902	46287.972918
535.469748	45591.444253
535.830537	45874.643673
536.191270	46099.123733
536.551947	45869.829371
536.912567	46112.059334
537.273131	46269.018179
537.633638	45893.245531
537.994089	46057.060345
538.354483	45806.981306
538.714821	46496.777510
539.075103	46762.847090
539.435328	46620.575646
539.795497	46364.341357
540.155609	46491.547313
540.515665	47093.682893
540.875665	46367.371091
541.235609	46645.829306
541.595496	46794.601318
541.955328	47368.065335
542.315102	46799.758418
542.674821	46705.072946
543.034483	46602.399766
543.394090	46613.056765
543.753640	46584.836386
544.113134	47665.735387
544.472571	46752.787467
544.831953	47894.346673
545.191278	47156.704878
545.550548	46842.068822
545.909761	47482.965834
546.268918	47619.812997
546.628019	48027.455820
546.987064	47460.013461
547.346053	46774.524923
547.704986	47696.609934
548.063863	47314.475349
548.422684	47528.870581
548.781449	47096.657174
549.140158	47643.594640
549.498811	47377.711583
549.857408	46773.373019
550.215949	47605.271788
550.574434	47458.216289
550.932864	47412.470339
551.291237	48117.528636
551.649555	47858.854430
552.007817	48044.036175
552.366022	47741.017458
552.724173	47822.139706
553.082267	48213.081187
553.440305	48596.287017
553.798288	47827.087599
554.156215	48212.473728
554.514086	48419.788659
554.871902	47986.940067
555.229661	48181.480714
555.587365	47856.278400
555.945014	47973.102099
556.302606	48008.448149
556.660143	48095.113146
557.017625	48330.744238
557.375050	48028.171664
557.732421	48423.791335
558.089735	48505.916773
558.446994	48349.346096
558.804197	48829.548767
559.161345	48676.499337
559.518437	48012.390332
559.875474	48268.372562
560.232455	48486.939349
560.589381	48530.260505
560.946251	48360.943270
561.303065	49025.647131
561.659825	48693.127582
562.016528	48493.881018
562.373177	48063.013599
562.729770	48698.990444
563.086307	48211.251248
563.442789	48763.398747
563.799216	48622.115369
564.155587	48522.875214
564.511904	48491.090739
564.868164	48530.696564
565.224370	48858.492552
565.580520	48571.013192
565.936615	48757.049413
566.292654	48422.972148
566.648638	48780.861303
567.004567	48716.455522
567.360441	48797.572728
567.716260	48497.170371
568.072023	48895.585362
568.427732	48802.318975
568.783385	48332.722891
569.138982	48766.136093
569.494525	48898.731042
569.850013	48492.499742
570.205445	48627.993354
570.560823	48394.361079
570.916145	48264.281666
571.271412	48499.602727
571.626625	48130.711254
571.981782	48216.937670
572.336884	47824.443513
572.691931	48151.138009
573.046923	47791.295406
573.401860	47613.662789
573.756743	47636.836973
574.111570	47794.846899
574.466342	47691.115077
574.821059	47849.677009
575.175722	47327.534458
575.530330	47421.735980
575.884882	47078.990450
576.239380	46981.282806
576.593823	47043.488124
576.948211	47004.310797
577.302544	46541.222843
577.656823	46530.386883
578.011047	46803.594736
578.365216	46638.660785
578.719330	46330.734505
579.073389	46316.742783
579.427394	46375.547842
579.781344	46270.838036
580.135239	46008.466143
580.489080	46100.999042
580.842866	45568.055819
581.196597	46067.994608
581.550273	46070.658858
581.903895	45988.795561
582.257463	46431.144208
582.610975	45862.802003
582.964434	46168.401790
583.317837	45672.334607
583.671186	45653.052194
584.024481	45915.187153
584.377721	45461.785776
584.730906	45665.786148
585.084037	45813.892728
585.437113	45527.787083
585.790135	45658.252144
586.143103	45204.991919
586.496016	45366.273554
586.848874	45490.432133
587.201679	45520.570671
587.554428	44992.834960
587.907124	45259.247338
588.259765	45030.936001
588.612352	45183.640112
588.964884	44641.128779
589.317362	44941.637001
589.669786	44962.580475
590.022155	44834.247822
590.374470	45312.053424
590.726731	44873.417587
591.078937	44209.971494
591.431090	44561.251697
591.783188	44062.893310
592.135232	43876.090833
592.487222	44125.708607
592.839157	44299.620853
593.191038	43950.284015
593.542866	43750.044343
593.894639	43114.110347
594.246358	43422.815485
594.598022	43425.331021
594.949633	42965.005619
595.301190	42975.115653
595.652692	42912.622990
596.004141	43419.828602
596.355535	42288.628967
596.706876	42306.343581
597.058162	42009.855680
597.409395	42525.631253
597.760573	42762.482305
598.111698	42336.010772
598.462768	42266.057200
598.813785	42270.695062
599.164748	41869.542724
599.515657	42158.597444
599.866511	41663.145283
600.217312	42333.162520
600.568060	41284.176542
600.918753	42122.447330
601.269392	42011.002542
601.619978	41740.368198
601.970510	41951.990795
602.320988	42081.407297
602.671412	42358.847199
603.021783	42201.681666
603.372100	41759.988369
603.722363	41863.566436
604.072572	41914.398911
604.422728	41915.686926
604.772830	41686.347193
605.122878	41857.161650
605.472872	41721.562173
605.822813	41971.248003
606.172701	41722.393964
606.522534	42024.613657
606.872314	42232.745256
607.222041	42072.338261
607.571714	42390.775347
607.921333	41873.169834
608.270899	42078.271699
608.620411	42472.772234
608.969870	42225.455747
609.319276	42228.553536
609.668627	42257.799790
610.017926	42658.006912
610.367171	42807.073831
610.716362	42845.318545
611.065500	42755.890996
611.414585	42955.876090
611.763616	43104.393523
612.112594	43012.831046
612.461518	43129.609375
612.810389	43514.352757
613.159207	43285.388590
613.507971	43245.261006
613.856682	43766.211324
614.205340	43593.138430
614.553945	44288.424451
614.902496	43625.840395
615.250994	44046.328078
615.599439	44133.875277
615.947830	44227.549997
616.296169	44205.381523
616.644454	44217.306373
616.992686	44375.064241
617.340864	44811.907948
617.688990	44309.977904
618.037063	45005.614285
618.385082	44788.844669
618.733048	45143.023536
619.080961	45004.021280
619.428821	45033.106217
619.776628	45065.362040
620.124382	44898.023459
620.472083	45001.742679
620.819731	45129.233459
621.167326	44692.619125
621.514868	44687.053691
621.862357	44137.154547
622.209793	44252.022279
622.557176	43806.900997
622.904506	43564.199686
623.251783	43192.407028
623.599007	42862.221534
623.946179	42794.193683
624.293297	42504.554189
624.640363	41956.021198
624.987376	41791.114973
625.334336	41606.638989
625.681243	41194.149096
626.028097	41079.581313
626.374899	40890.038970
626.721647	40846.871570
627.068343	40585.399522
627.414987	40301.466614
627.761577	40032.601715
628.108115	40362.590605
628.454600	39582.283004
628.801032	39798.278802
629.147412	39675.070482
629.493739	39561.578985
629.840014	39102.551680
630.186236	39517.017706
630.532405	38926.794372
630.878521	39159.980505
631.224585	38920.992004
631.570597	38561.555214
631.916556	38728.818178
632.262462	38598.474104
632.608316	38542.232472
632.954117	38398.015142
633.299866	38332.129782
633.645562	38243.972604
633.991206	37705.743732
634.336797	37290.178735
634.682336	37170.012751
635.027823	36951.650131
635.373257	36822.732703
635.718639	36473.201781
636.063968	36385.105097
636.409245	35697.277463
636.754470	35629.577287
637.099642	35412.275830
637.444762	34832.782593
637.789829	34958.851768
638.134845	34557.288576
638.479808	34465.259792
638.824719	34397.884771
639.169577	33879.071902
639.514383	33970.951972
639.859137	33534.158677
640.203839	33706.682085
640.548489	33404.341404
640.893086	33381.573032
641.237632	33074.924685
641.582125	33151.746828
641.926566	32926.921449
642.270955	32934.581482
642.615292	32858.263454
642.959576	32714.260374
643.303809	32710.960939
643.647990	32795.019659
643.992118	32739.720722
644.336195	32542.651936
644.680219	32594.454833
645.024192	32750.720519
645.368112	33273.142854
645.711981	33237.378388
646.055797	33908.406377
646.399562	33654.261647
646.743274	34478.699508
647.086935	34846.141651
647.430544	34799.735309
647.774101	34828.180019
648.117606	35128.801667
648.461059	35259.332264
648.804460	34865.552613
649.147810	34377.405084
649.491108	34050.282090
649.834354	33946.043631
650.177548	33114.782568
650.520690	32601.918261
650.863781	32557.853535
651.206820	32375.401574
651.549807	31951.274178
651.892742	31353.436182
652.235626	31241.257906
652.578458	31066.171071
652.921238	30370.499402
653.263967	30640.435546
653.606644	30311.409517
653.949269	30185.796566
654.291843	29759.753531
654.634365	30095.113770
654.976836	29630.941968
655.319255	29698.947133
655.661622	29530.633089
656.003938	29378.806138
656.346203	29191.716316
656.688416	29413.275027
657.030577	29186.168526
657.372687	28972.557193
657.714746	29072.959334
658.056753	29246.657331
658.398708	28601.291336
658.740612	28661.893567
659.082465	28851.670324
659.424266	28727.806653
659.766016	28683.399129
660.107715	28505.741306
660.449362	28566.467045
660.790958	28514.351597
661.132503	28420.684438
661.473996	28487.847730
661.815438	28530.563948
662.156829	28606.743344
662.498168	28383.551298
662.839456	28340.882972
663.180693	28445.474312
663.521879	28480.898500
663.863013	28414.559436
664.204097	28365.246869
664.545129	28732.615914
664.886110	28636.042530
665.227040	28709.640856
665.567918	28660.648402
665.908746	28698.149545
666.249522	28739.597912
666.590248	28751.789943
666.930922	28811.598192
667.271545	28793.326530
667.612118	28839.069960
667.952639	28625.120870
668.293109	28621.435787
668.633528	28465.144894
668.973896	28409.062057
669.314213	28340.646038
669.654480	28154.582091
669.994695	28117.927861
670.334859	28008.839812
670.674973	27800.519171
671.015035	27943.163660
671.355047	27856.619652
671.695008	27740.957938
672.034918	27616.779196
672.374777	27672.930088
672.714585	27524.405093
673.054342	27617.442107
673.394049	27451.028578
673.733705	27610.669317
674.073310	27328.657089
674.412864	27345.479419
674.752368	27071.752327
675.091820	27267.270958
675.431223	26888.314821
675.770574	26677.123242
676.109875	26494.608267
676.449125	26294.063605
676.788324	26169.131210
677.127473	25690.498858
677.466571	25580.510964
677.805619	25313.869213
678.144616	25229.354269
678.483562	25152.189327
678.822458	24828.975748
679.161303	24753.814665
679.500098	24644.315762
679.838842	24539.197622
680.177535	24552.622215
680.516179	24713.568613
680.854771	24735.474947
681.193314	25287.022548
681.531805	26059.874283
681.870247	26676.488057
682.208638	27361.172531
682.546978	27669.013111
682.885268	27822.251585
683.223508	27429.081914
683.561697	27174.995158
683.899836	27010.885435
684.237925	26593.679543
684.575963	26403.033187
684.913951	26026.990836
685.251889	26109.204494
685.589776	26044.047580
685.927614	25980.740770
686.265401	26107.666942
686.603137	26131.060416
686.940824	26499.593968
687.278460	26717.346609
687.616046	26834.727355
687.953582	27372.026135
688.291068	27264.178210
688.628504	27525.264609
688.965889	27528.077573
689.303224	27296.373539
689.640510	27037.611113
689.977745	26513.885639
690.314930	25879.907611
690.652065	25518.598033
690.989150	24922.799183
691.326185	24200.611045
691.663170	23640.120437
692.000105	22996.594463
692.336990	22459.477165
692.673825	22081.917427
693.010610	21628.228704
693.347345	21170.514620
693.684030	20609.361100
694.020665	20412.435987
694.357251	19824.208951
694.693786	19792.797521
695.030272	19569.328212
695.366707	19112.168655
695.703093	18849.663171
696.039429	18875.768787
696.375716	18637.884298
696.711952	18591.389736
697.048139	18450.595351
697.384276	18277.507333
697.720363	18358.463223
698.056400	18239.733968
698.392388	18071.964367
698.728326	18041.833391
699.064214	17915.270182
699.400053	17881.648207
699.735842	17542.247483
700.071581	17370.210546
700.407270	17157.304975
700.742910	16993.260788
701.078501	16759.578102
701.414042	16577.070688
701.749533	16309.246787
702.084974	16042.577311
702.420366	16204.239553
702.755709	15854.784248
703.091002	15596.654485
703.426246	15614.134686
703.761440	15538.169539
704.096584	15328.651623
704.431679	15260.437250
704.766725	15195.061047
705.101721	15107.788591
705.436668	15173.142110
705.771565	14937.805925
706.106413	15136.437468
706.441212	15170.006512
706.775961	15220.808740
707.110661	15258.435912
707.445311	15501.790052
707.779913	15386.831580
708.114465	15575.053141
708.448967	15793.776204
708.783421	16224.678911
709.117825	16478.881614
709.452180	16602.709997
709.786485	16914.218016
710.120742	17449.477649
710.454949	17502.581164
710.789107	17864.878809
711.123216	18394.832627
711.457275	18539.750677
711.791286	18938.727757
712.125247	19052.972906
712.459159	18857.378657
712.793023	19429.254711
713.126837	18662.659049
713.460602	18851.682153
713.794318	18596.468699
714.127985	18378.254793
714.461602	17669.685332
714.795171	17657.180750
715.128691	16892.283956
715.462162	16470.969523
715.795584	16131.518388
716.128957	15897.508026
716.462281	15604.503562
716.795556	15369.333735
717.128782	14992.255427
717.461960	14526.934242
717.795088	14474.554133
718.128167	14210.493453
718.461198	13859.480432
718.794180	13749.694183
719.127113	13498.463240
719.459997	13332.407632
719.792833	13020.897092
720.125619	13032.065769
720.458357	12759.621650
720.791046	12632.163637
721.123686	12488.941936
721.456278	12310.283443
721.788821	12284.316460
722.121315	12076.280643
722.453761	12124.267387
722.786158	12031.021164
723.118506	12064.602811
723.450805	11953.790687
723.783056	12060.136348
724.115259	11965.922224
724.447412	11926.399578
724.779518	12065.974004
725.111574	12070.942062
725.443582	12240.153432
725.775542	12185.955987
726.107453	12524.739169
726.439315	12433.035539
726.771129	12696.967670
727.102895	12981.321514
727.434612	13155.581600
727.766281	13263.926078
728.097901	13482.298780
728.429473	13535.498077
728.760996	13544.189026
729.092471	13604.367800
729.423897	13510.819108
729.755276	13385.813616
730.086606	13415.309407
730.417887	13765.926699
730.749120	14105.929840
731.080305	14228.064395
731.411442	14500.062372
731.742530	14565.867073
732.073570	14639.883815
732.404562	14847.556668
732.735506	14769.701088
733.066401	14664.905582
733.397249	14368.878946
733.728048	13945.144759
734.058798	13362.026932
734.389501	12820.854025
734.720156	12432.934716
735.050762	12005.739778
735.381320	11717.937784
735.711831	11497.803198
736.042293	11217.973790
736.372707	11214.049251
736.703073	11050.584797
737.033391	11153.686475
737.363661	11112.170053
737.693883	11173.228508
738.024056	11274.437233
738.354182	11392.685058
738.684260	11597.923034
739.014290	11770.774118
739.344272	11900.145249
739.674207	12117.177004
740.004093	12224.898900
740.333931	12255.375196
740.663722	12303.717340
740.993464	12321.704177
741.323159	12230.744118
741.652806	12039.664222
741.982405	11911.777711
742.311956	11674.399859
742.641460	11589.282497
742.970915	11359.738597
743.300323	11117.503593
743.629683	10969.933897
743.958996	10755.546227
744.288260	10530.504078
744.617477	10311.687754
744.946647	10272.507906
745.275768	10056.149145
745.604842	9906.114324
745.933869	9775.097256
746.262847	9738.425383
746.591778	9663.536522
746.920662	9567.852901
747.249498	9543.194097
747.578286	9621.828535
747.907027	9706.159477
748.235720	9859.987767
748.564365	9899.913705
748.892963	9848.733391
749.221514	9906.169777
749.550017	9824.041819
749.878473	9789.840111
750.206881	9645.917689
750.535242	9585.643133
750.863555	9524.753556
751.191821	9442.534858
751.520039	9430.927601
751.848210	9371.628508
752.176334	9379.464982
752.504411	9324.125716
752.832440	9206.666831
753.160421	9258.300849
753.488356	9193.073360
753.816243	9127.757650
754.144082	9012.007716
754.471875	8967.872414
754.799620	8933.390922
755.127318	8911.224969
755.454969	8885.489878
755.782572	8858.129016
756.110129	8847.119136
756.437638	8787.462121
756.765100	8779.403837
757.092515	8778.864433
757.419882	8787.273078
757.747203	8782.730998
758.074477	8819.304569
758.401703	8795.480076
758.728882	8891.246876
759.056014	8908.903517
759.383099	8995.339141
759.710138	9057.935148
760.037129	9121.710786
760.364073	9157.916353
760.690970	9161.296446
761.017820	9151.458635
761.344623	9253.206763
761.671379	9426.259492
761.998088	9713.189367
762.324751	10497.799592
762.651366	12120.920061
762.977935	14612.437252
763.304456	16552.061524
763.630931	17518.838885
763.957359	17065.235862
764.283740	15861.352871
764.610074	14619.716679
764.936362	13106.349691
765.262602	11961.196142
765.588796	10828.252268
765.914943	10044.357886
766.241044	9357.145273
766.567097	8875.916727
766.893104	8439.307434
767.219064	8147.442270
767.544978	7858.180862
767.870845	7608.414374
768.196665	7464.154195
768.522438	7316.929818
768.848165	7186.547935
769.173846	7058.457257
769.499479	6975.739484
769.825066	6872.315172
770.150607	6736.481282
770.476101	6677.293094
770.801548	6600.188646
771.126949	6505.946796
771.452303	6433.807884
771.777611	6315.113917
772.102872	6306.289377
772.428087	6213.718669
772.753256	6124.485205
773.078378	6069.776083
773.403453	5962.966636
773.728482	5888.090378
774.053465	5837.754456
774.378401	5779.055261
774.703291	5703.755546
775.028135	5635.561337
775.352932	5611.136947
775.677683	5544.268562
776.002388	5486.688503
776.327046	5478.539477
776.651658	5421.574439
776.976224	5359.434656
777.300743	5355.563050
777.625216	5309.786852
777.949643	5273.258652
778.274024	5276.941214
778.598359	5224.871136
778.922647	5226.005396
779.246889	5196.928021
779.571086	5197.906004
779.895236	5197.764852
780.219339	5193.641188
780.543397	5189.893090
780.867409	5230.192074
781.191374	5229.403134
781.515294	5207.849680
781.839167	5250.608747
782.162995	5229.574533
782.486776	5200.759298
782.810511	5170.908105
783.134201	5119.405157
783.457844	5108.906954
783.781441	5076.792283
784.104993	5036.379873
784.428498	5019.423953
784.751958	5005.845605
785.075372	4981.201924
785.398739	4948.880566
785.722061	4965.176096
786.045337	4962.287515
786.368568	5025.652298
786.691752	5019.305485
787.014891	5167.263351
787.337983	5323.498791
787.661030	5607.358602
787.984031	5923.549854
788.306987	6143.840715
788.629897	6265.337564
788.952760	6258.330360
789.275579	6158.031563
789.598351	5956.912210
789.921078	5777.248007
790.243759	5563.881171
790.566395	5405.389814
790.888984	5274.642448
791.211529	5160.964429
791.534027	5045.587541
791.856480	4937.374133
792.178888	4889.578953
792.501249	4835.941076
792.823566	4754.778499
793.145836	4743.408177
793.468062	4727.463007
793.790241	4696.739695
794.112375	4718.204928
794.434464	4778.091315
794.756507	4789.461637
795.078505	4855.470506
795.400457	4991.004448
795.722364	5156.215662
796.044226	5302.414165
796.366042	5444.758705
796.687812	5426.809677
797.009538	5463.300069
797.331218	5413.629580
797.652852	5368.712900
797.974442	5288.782885
798.295986	5244.713118
798.617484	5148.590917
798.938938	5074.364968
799.260346	5022.456207
799.581709	4923.538686
799.903026	4880.759454
800.224299	4823.292821
800.545526	4742.815841
800.866708	4693.430177
801.187845	4659.026823
801.508936	4607.937249
801.829983	4585.433538
802.150984	4514.191952
802.471940	4488.870237
802.792851	4475.899348
803.113717	4461.330413
803.434538	4442.582362
803.755314	4412.264863
804.076045	4411.808638
804.396731	4380.319071
804.717372	4393.131163
805.037967	4387.772417
805.358518	4406.888472
805.679024	4440.646559
805.999485	4442.352989
806.319901	4461.302687
806.640272	4468.135971
806.960598	4503.030838
807.280879	4497.165455
807.601115	4535.468142
807.921306	4505.319522
808.241453	4509.569214
808.561554	4513.937374
808.881611	4495.474148
809.201623	4494.039940
809.521590	4473.429182
809.841513	4455.684321
810.161390	4467.631855
810.481223	4403.921753
810.801011	4391.908683
811.120755	4379.701529
811.440453	4337.781815
811.760107	4322.328158
812.079716	4305.805776
812.399281	4268.095424
812.718801	4255.578239
813.038276	4234.670054
813.357707	4208.617371
813.677093	4216.466447
813.996434	4170.261752
814.315731	4183.890511
814.634983	4178.433462
814.954191	4173.122607
815.273354	4212.773802
815.592473	4233.752564
815.911547	4280.962970
816.230577	4311.847599
816.549562	4377.538874
816.868502	4409.900562
817.187399	4446.708546
817.506250	4500.958923
817.825058	4506.151312
818.143821	4608.272486
818.462539	4692.946227
818.781213	4825.934386
819.099843	5025.871588
819.418429	5408.106996
819.736970	5788.847702
820.055466	6247.138998
820.373919	6803.402599
820.692327	7606.050073
821.010691	8991.636414
821.329011	12280.603650
821.647286	18121.342469
821.965517	25770.774192
822.283704	31101.885125
822.601847	33899.508740
822.919945	31338.877329
823.237999	27867.064922
823.556010	24101.481796
823.873976	20635.020573
824.191897	17495.662180
824.509775	15231.032200
824.827609	13127.094039
825.145398	11779.855756
825.463144	10990.496763
825.780845	10875.203054
826.098502	11366.511388
826.416116	12795.670941
826.733685	14393.247883
827.051210	15176.880125
827.368692	14728.698863
827.686129	13204.105226
828.003522	11482.052113
828.320872	9929.205329
828.638177	8739.450172
828.955439	7826.194741
829.272656	7045.065432
829.589830	6432.582884
829.906960	5876.772987
830.224046	5462.032219
830.541088	5127.609635
830.858086	4917.796812
831.175041	4740.428855
831.491952	4663.198378
831.808819	4645.100635
832.125642	4744.643259
832.442421	5010.269217
832.759157	5590.022074
833.075849	6620.658252
833.392497	7898.885659
833.709101	8897.278617
834.025662	9046.191781
834.342179	8522.884723
834.658653	7679.300559
834.975083	6892.250415
835.291469	6250.388022
835.607811	5711.357606
835.924110	5343.081153
836.240366	4996.035519
836.556578	4672.317825
836.872746	4407.901744
837.188871	4202.285682
837.504952	4029.162376
837.820990	3898.810741
838.136984	3803.235505
838.452935	3757.373608
838.768842	3742.441710
839.084706	3849.994727
839.400526	4228.098910
839.716303	4815.927695
840.032037	5302.346109
840.347727	5389.064038
840.663373	5071.746088
840.978977	4661.486906
841.294537	4341.154347
841.610054	4101.699539
841.925527	3933.952624
842.240957	3788.275881
842.556344	3663.202333
842.871687	3556.571847
843.186987	3443.846606
843.502244	3349.496371
843.817458	3287.855662
844.132629	3227.008935
844.447756	3194.821168
844.762840	3163.324038
845.077881	3130.745582
845.392879	3109.474433
845.707833	3087.210177
846.022745	3071.144020
846.337613	3058.289077
846.652438	3044.446069
846.967221	3035.782846
847.281960	3021.639889
847.596656	3014.357942
847.911309	3005.936695
848.225919	2996.592916
848.540485	2990.742657
848.855009	2985.608242
849.169490	2977.098774
849.483928	2969.050572
849.798323	2969.733648
850.112675	2961.161166
850.426984	2962.297947
850.741251	2955.172276
851.055474	2952.203036
851.369654	2954.320321
851.683792	2951.509877
851.997887	2954.683284
852.311938	2956.056998
852.625947	2952.535752
852.939914	2949.619445
853.253837	2954.804271
853.567718	2952.134980
853.881555	2947.660956
854.195350	2951.000721
854.509103	2950.630196
854.822812	2950.620114
855.136479	2945.286573
855.450103	2948.396965
855.763685	2941.147786
856.077224	2937.182918
856.390720	2945.132818
856.704173	2948.202880
857.017584	2954.471555
857.330953	2961.635035
857.644278	2966.000674
857.957561	2969.708443
858.270802	2968.364975
858.584000	2966.625777
858.897155	2965.756178
859.210268	2958.267544
859.523339	2952.298818
859.836367	2949.737912
860.149352	2946.667849
860.462295	2942.826490
860.775195	2939.191818
861.088054	2934.977413
861.400869	2933.873401
861.713642	2931.763678
862.026373	2937.286262
862.339062	2936.925819
862.651708	2942.506377
862.964312	2952.813016
863.276873	2959.028758
863.589392	2973.340594
863.901869	2989.169817
864.214303	3004.857888
864.526696	3018.942872
864.839045	3031.273534
865.151353	3042.558157
865.463619	3040.032539
865.775842	3042.694268
866.088023	3049.086451
866.400162	3045.724002
866.712258	3046.432284
867.024313	3046.964125
867.336325	3042.401881
867.648296	3045.436656
867.960224	3042.875750
868.272110	3047.382541
868.583954	3047.596790
868.895755	3051.617110
869.207515	3044.224258
869.519233	3059.158677
869.830909	3062.778225
870.142542	3068.552867
870.454134	3070.367682
870.765684	3082.645412
871.077191	3092.304263
871.388657	3096.528750
871.700081	3106.036366
872.011463	3123.546814
872.322803	3132.570479
872.634101	3145.032212
872.945357	3159.991836
873.256571	3180.287521
873.567744	3189.807740
873.878874	3196.958617
874.189963	3208.276007
874.501010	3212.971842
874.812015	3208.013867
875.122979	3219.638768
875.433900	3216.793037
875.744780	3219.976525
876.055618	3224.264027
876.366415	3222.776886
876.677169	3227.064388
876.987882	3241.224989
877.298554	3251.410640
877.609183	3269.954525
877.919771	3299.785553
878.230317	3339.746779
878.540822	3396.089235
878.851285	3484.322030
879.161707	3606.852316
879.472087	3809.884787
879.782425	4149.885408
880.092722	4794.139828
880.402977	5912.663482
880.713191	7449.756660
881.023363	9158.949789
881.333494	10337.062402
881.643583	10933.834194
881.953631	10861.876764
882.263637	10424.143293
882.573602	9762.582592
882.883526	9112.094785
883.193408	8451.585164
883.503248	7820.997312
883.813048	7244.064980
884.122806	6720.901596
884.432522	6186.851840
884.742197	5707.344847
885.051831	5291.472340
885.361424	4905.007404
885.670975	4595.480558
885.980485	4336.778625
886.289954	4129.866986
886.599382	3961.469762
886.908768	3825.842559
887.218113	3697.003270
887.527417	3595.424020
887.836680	3506.855988
888.145901	3436.327725
888.455082	3376.186760
888.764221	3328.573062
889.073319	3280.545989
889.382376	3255.405755
889.691392	3233.706108
890.000366	3224.594222
890.309300	3214.521997
890.618193	3219.280846
890.927044	3211.956050
891.235855	3216.251113
891.544625	3223.404510
891.853353	3238.694330
892.162041	3267.791870
892.470687	3318.619303
892.779293	3385.689335
893.087858	3489.847135
893.396381	3649.583656
893.704864	3877.892473
894.013306	4226.846183
894.321707	4611.957569
894.630068	4913.383281
894.938387	5020.880846
895.246665	4969.924863
895.554903	4784.067603
895.863100	4562.208943
896.171256	4385.173702
896.479371	4221.822673
896.787446	4065.418355
897.095480	3928.152777
897.403473	3824.226869
897.711425	3723.567630
898.019336	3640.696102
898.327207	3551.709654
898.635038	3477.150989
898.942827	3398.534195
899.250576	3334.105728
899.558284	3271.849998
899.865952	3232.864235
900.173579	3185.305990
900.481165	3156.720127
900.788711	3123.531691
901.096216	3097.967999
901.403681	3078.993096
901.711105	3069.878690
902.018489	3061.482648
902.325832	3077.190884
902.633135	3098.905654
902.940397	3175.057324
903.247619	3370.959083
903.554800	3785.699851
903.861941	4410.944080
904.169041	4977.988188
904.476101	5271.519453
904.783121	5206.286923
905.090100	4960.397082
905.397039	4681.875853
905.703938	4435.015590
906.010796	4208.569480
906.317614	4034.042213
906.624391	3863.467211
906.931129	3730.201788
907.237826	3601.803600
907.544483	3486.018378
907.851099	3362.842825
908.157675	3249.051380
908.464211	3137.972076
908.770707	3055.450908
909.077163	2986.503047
909.383578	2939.048145
909.689954	2902.099008
909.996289	2875.524565
910.302584	2855.216277
910.608839	2843.475430
910.915054	2834.076198
911.221229	2830.058399
911.527363	2828.631752
911.833458	2830.917916
912.139513	2839.918896
912.445527	2843.830831
912.751502	2865.588451
913.057436	2890.859755
913.363331	2920.731113
913.669186	2975.720019
913.975000	3041.549926
914.280775	3151.071514
914.586510	3306.054227
914.892205	3527.277702
915.197859	3839.695650
915.503475	4230.357347
915.809050	4597.441567
916.114585	4844.684957
916.420081	4960.918842
916.725536	4959.131752
917.030952	4824.003624
917.336328	4691.690979
917.641665	4559.693407
917.946961	4410.926436
918.252218	4279.070016
918.557435	4117.748052
918.862612	3992.261130
919.167750	3874.222513
919.472848	3739.883324
919.777906	3622.648771
920.082925	3508.983355
920.387904	3390.002042
920.692843	3305.156902
920.997743	3224.609346
921.302603	3151.207625
921.607423	3100.765840
921.912204	3052.380845
922.216946	3014.849455
922.521647	2975.220944
922.826310	2947.265226
923.130932	2916.274733
923.435516	2891.820095
923.740059	2868.882845
924.044564	2845.423836
924.349028	2827.686536
924.653454	2811.441418
924.957840	2795.589509
925.262186	2778.126952
925.566493	2760.820671
925.870761	2742.692682
926.174989	2737.674213
926.479178	2723.135526
926.783328	2711.775286
927.087438	2704.200952
927.391509	2696.467822
927.695541	2686.357788
927.999533	2679.852179
928.303486	2677.157682
928.607400	2670.417659
928.911275	2667.007319
929.215110	2659.208654
929.518906	2656.433499
929.822663	2657.479538
930.126381	2654.893426
930.430060	2657.098931
930.733699	2656.216729
931.037299	2659.788387
931.340861	2659.387615
931.644383	2662.664365
931.947866	2660.035403
932.251309	2659.841319
932.554714	2656.743530
932.858080	2656.005001
933.161407	2654.714465
933.464694	2650.714310
933.767943	2645.214411
934.071153	2649.383445
934.374323	2646.313382
934.677455	2645.370687
934.980548	2642.061169
935.283602	2640.223668
935.586617	2638.973462
935.889593	2641.153761
936.192530	2642.618217
936.495428	2643.601242
936.798287	2650.079124
937.101108	2656.793941
937.403890	2667.463543
937.706632	2683.759073
938.009336	2701.261959
938.312002	2721.461863
938.614628	2741.192939
938.917216	2753.664753
939.219765	2763.109355
939.522275	2770.318205
939.824747	2773.632764
940.127179	2773.037908
940.429573	2770.882814
940.731929	2769.919954
941.034246	2767.926178
941.336524	2764.094901
941.638763	2757.629621
941.940964	2756.709610
942.243126	2747.176788
942.545250	2743.038001
942.847335	2730.016701
943.149381	2724.002604
943.451389	2716.292159
943.753359	2703.631302
944.055290	2699.817669
944.357182	2688.986750
944.659036	2685.967098
944.960851	2684.815195
945.262628	2679.090965
945.564367	2678.536438
945.866067	2677.324040
946.167729	2676.184739
946.469352	2676.066272
946.770937	2672.101405
947.072484	2673.117197
947.373992	2672.383709
947.675462	2669.966476
947.976893	2660.899961
948.278286	2659.707728
948.579641	2660.862152
948.880958	2657.010711
949.182236	2659.135557
949.483476	2655.321924
949.784678	2654.424599
950.085841	2656.085659
950.386967	2655.251348
950.688054	2659.019611
950.989103	2664.796773
951.290114	2670.495797
951.591087	2678.904442
951.892021	2684.338806
952.192917	2693.276772
952.493776	2699.936136
952.794596	2701.929912
953.095378	2703.676672
953.396122	2704.735314
953.696828	2703.376723
953.997496	2703.265818
954.298126	2694.952955
954.598718	2691.131761
954.899272	2685.571368
955.199788	2678.506191
955.500266	2668.945642
955.800706	2663.042451
956.101108	2653.239928
956.401472	2642.552682
956.701798	2633.846609
957.002087	2620.543004
957.302337	2616.588219
957.602550	2610.440532
957.902724	2599.193717
958.202861	2593.842532
958.502960	2586.840370
958.803022	2581.529514
959.103045	2576.770665
959.403031	2571.515262
959.702979	2567.041238
960.002889	2563.270455
960.302762	2561.722821
960.602596	2561.004456
960.902393	2553.725030
961.202153	2553.173024
961.501875	2551.580019
961.801559	2547.902497
962.101205	2548.020965
962.400814	2546.064997
962.700385	2543.499050
962.999918	2539.201466
963.299414	2536.484284
963.598873	2540.978473
963.898293	2533.782226
964.197677	2540.035777
964.497022	2536.149047
964.796331	2535.387833
965.095601	2533.671320
965.394835	2533.986392
965.694030	2532.436238
965.993189	2533.053779
966.292309	2535.518903
966.591393	2529.469518
966.890439	2533.081505
967.189447	2531.523789
967.488419	2533.651156
967.787353	2534.117462
968.086249	2531.846422
968.385108	2530.825589
968.683930	2535.120652
968.982714	2535.231557
969.281462	2535.279448
969.580172	2533.323481
969.878844	2535.929757
970.177480	2540.423946
970.476078	2538.170550
970.774639	2543.612476
971.073162	2543.741025
971.371649	2544.308155
971.670098	2546.758156
971.968510	2548.177240
972.266885	2546.072559
972.565223	2551.834597
972.863524	2550.349978
973.161788	2553.246121
973.460014	2549.833259
973.758204	2553.029351
974.056356	2553.432643
974.354471	2553.805689
974.652550	2554.796275
974.950591	2556.003632
975.248595	2553.586398
975.546563	2553.170503
975.844493	2552.696635
976.142386	2552.051367
976.440243	2547.156407
976.738062	2548.900646
977.035845	2545.608773
977.333590	2546.175902
977.631299	2544.013247
977.928971	2540.013092
978.226606	2537.389171
978.524204	2535.166022
978.821765	2534.949253
979.119290	2538.992258
979.416777	2536.476722
979.714228	2539.592155
980.011642	2535.594520
980.309020	2539.191384
980.606360	2543.735984
980.903664	2546.377548
981.200931	2553.009186
981.498162	2566.048131
981.795356	2588.009917
982.092513	2610.352311
982.389633	2639.996817
982.686717	2672.000582
982.983764	2700.359593
983.280775	2718.306100
983.577749	2721.355998
983.874686	2720.829198
984.171587	2709.073227
984.468451	2698.822041
984.765279	2687.479445
985.062070	2673.152485
985.358824	2663.360044
985.655543	2649.146511
985.952224	2634.602782
986.248869	2615.572426
986.545478	2597.267997
986.842050	2577.751169
987.138586	2563.860270
987.435086	2551.706048
987.731549	2543.811601
988.027975	2532.479087
988.324366	2530.873480
988.620719	2525.688653
988.917037	2519.961902
989.213318	2520.506347
989.509563	2515.659278
989.805772	2518.691532
990.101944	2517.509381
990.398080	2515.230779
990.694180	2514.837569
990.990244	2512.475789
991.286271	2513.461334
991.582262	2513.925121
991.878217	2513.521828
992.174136	2514.315810
992.470019	2514.199863
992.765865	2515.361849
993.061676	2509.693072
993.357450	2519.001563
993.653188	2517.854700
993.948890	2523.006759
994.244556	2529.835002
994.540186	2534.838347
994.835780	2539.927392
995.131337	2551.978270
995.426859	2560.654096
995.722345	2576.652198
996.017795	2588.498909
996.313208	2602.546085
996.608586	2610.775768
996.903928	2616.404217
997.199234	2615.423712
997.494504	2616.003445
997.789738	2610.012033
998.084936	2603.655138
998.380099	2595.959817
998.675225	2587.057139
998.970316	2579.218145
999.265371	2570.570046
999.560390	2560.523026
999.855373	2550.947354
1000.150320	2543.194060
1000.445232	2533.598223
1000.740108	2530.341638
1001.034948	2524.892151
1001.329752	2521.496934
1001.624521	2515.654236
1001.919254	2516.261695
1002.213951	2511.921262
1002.508613	2510.744153
1002.803239	2509.904800
1003.097829	2505.438338
1003.392384	2508.213493
1003.686903	2506.358349
1003.981386	2506.265087
1004.275834	2503.280724
1004.570246	2502.098574
1004.864623	2499.000785
1005.158964	2502.315343
1005.453270	2499.547750
1005.747540	2498.262256
1006.041775	2498.368120
1006.335974	2500.407267
1006.630138	2496.704539
1006.924266	2498.915085
1007.218359	2498.600013
1007.512416	2495.267810
1007.806438	2492.303612
1008.100425	2492.777480
1008.394376	2492.215392
1008.688292	2494.451143
1008.982172	2496.323932
1009.276017	2497.790908
1009.569827	2495.724035
1009.863602	2495.431648
1010.157341	2496.573469
1010.451045	2497.599344
1010.744714	2493.780670
1011.038347	2495.436689
1011.331945	2494.529281
1011.625508	2492.424599
1011.919036	2492.749754
1012.212528	2493.649600
1012.505986	2494.035248
1012.799408	2493.014414
1013.092795	2492.916112
1013.386147	2493.463077
1013.679464	2493.367295
1013.972745	2489.967037
1014.265992	2493.730258
1014.559204	2491.822182
1014.852380	2491.628097
1015.145521	2490.914774
1015.438628	2491.880155
1015.731699	2494.403252
1016.024736	2491.955772
1016.317737	2491.227325
1016.610703	2491.733961
1016.903635	2493.092552
1017.196531	2492.757316
1017.489393	2494.189003
1017.782219	2493.652120
1018.075011	2494.620022
1018.367768	2494.796462
1018.660490	2491.749085
1018.953177	2491.749085
1019.245829	2491.749085
