Dividing Wavelength (nm)	Counts (n)	Blue Motor Position (mm): 0.000000	Red Motor Position (mm): 28.500000	
326.493990	2052.256251
326.888308	2052.256251
327.282561	2052.256251
327.676750	2024.066119
328.070874	2026.780780
328.464933	2033.147758
328.858929	2039.444159
329.252859	2051.676519
329.646726	2065.045659
330.040528	2079.962433
330.434265	2095.680751
330.827938	2119.348968
331.221547	2140.715898
331.615091	2157.240801
332.008571	2178.983297
332.401986	2198.986596
332.795338	2220.179607
333.188625	2238.542009
333.581847	2257.050606
333.975006	2275.778492
334.368100	2294.246759
334.761129	2309.382824
335.154095	2323.631645
335.546996	2345.452280
335.939833	2366.778881
336.332606	2381.773793
336.725315	2389.514485
337.117960	2400.645353
337.510540	2411.882084
337.903056	2423.159146
338.295508	2427.499579
338.687896	2433.579211
339.080220	2438.859819
339.472480	2446.214863
339.864676	2448.304421
340.256807	2450.900615
340.648875	2452.538990
341.040879	2452.828857
341.432818	2455.919084
341.824694	2458.169959
342.216506	2457.481842
342.608253	2456.781121
342.999937	2456.377829
343.391557	2455.122582
343.783113	2452.942282
344.174605	2453.239711
344.566033	2452.049998
344.957397	2449.715944
345.348697	2448.707713
345.739934	2447.913732
346.131106	2447.462548
346.522215	2443.346446
346.913260	2438.985848
347.304241	2440.074737
347.695159	2439.759665
348.086012	2437.355035
348.476802	2436.591300
348.867528	2432.747420
349.258191	2428.906061
349.648789	2426.587130
350.039324	2424.061512
350.429796	2428.807758
350.820203	2428.601071
351.210548	2428.162491
351.600828	2428.361616
351.991045	2427.376071
352.381198	2427.691143
352.771288	2429.274065
353.161314	2425.508323
353.551276	2429.100145
353.941175	2425.324321
354.331010	2426.566966
354.720782	2426.519075
355.110490	2430.020156
355.500135	2426.070412
355.889717	2427.544949
356.279235	2427.197110
356.668689	2428.422110
357.058080	2431.252718
357.447408	2432.200455
357.836672	2428.313725
358.225873	2427.539908
358.615010	2430.123500
359.004084	2429.707604
359.393095	2433.957297
359.782043	2432.691967
360.170927	2433.402770
360.559748	2432.961669
360.948505	2435.041145
361.337199	2434.327822
361.725830	2434.108532
362.114398	2433.196083
362.502903	2437.360076
362.891344	2438.229675
363.279722	2437.453337
363.668037	2437.239088
364.056289	2437.032401
364.444478	2438.867381
364.832603	2441.798812
365.220665	2439.815118
365.608665	2441.584563
365.996601	2440.485591
366.384474	2441.367793
366.772284	2439.648760
367.160031	2442.711261
367.547715	2441.861826
367.935336	2443.084306
368.322893	2441.261929
368.710388	2442.655808
369.097820	2442.073555
369.485189	2440.372165
369.872495	2446.857610
370.259738	2445.153700
370.646918	2446.865172
371.034035	2448.984977
371.421090	2448.652261
371.808081	2448.576643
372.195010	2453.408589
372.581875	2451.571089
372.968678	2452.634772
373.355418	2456.249279
373.742096	2456.135853
374.128710	2458.621142
374.515262	2460.388067
374.901751	2462.694395
375.288177	2469.489870
375.674540	2470.067082
376.060841	2475.362814
376.447079	2478.309369
376.833254	2481.515543
377.219367	2487.716162
377.605417	2494.330156
377.991404	2500.566063
378.377329	2505.642505
378.763191	2512.964781
379.148991	2522.527850
379.534727	2530.079498
379.920402	2540.670962
380.306013	2547.524411
380.691563	2565.294478
381.077049	2568.972000
381.462474	2583.117478
381.847835	2597.018459
382.233134	2610.009513
382.618371	2621.387397
383.003545	2639.210397
383.388657	2651.818322
383.773706	2671.448575
384.158693	2683.653209
384.543618	2702.401260
384.928480	2718.081769
385.313280	2740.043556
385.698017	2758.118613
386.082692	2780.070317
386.467305	2797.679068
386.851856	2820.465083
387.236344	2848.531707
387.620770	2867.330170
388.005133	2885.185937
388.389435	2921.711617
388.773674	2932.774429
389.157851	2967.180304
389.541965	2994.203409
389.926018	3005.412415
390.310008	3038.827703
390.693936	3061.974161
391.077802	3092.427771
391.461606	3124.469345
391.845348	3142.078096
392.229027	3167.813186
392.612645	3211.880432
392.996200	3240.473857
393.379694	3279.504991
393.763125	3323.209274
394.146494	3344.747604
394.529801	3380.590208
394.913047	3426.840273
395.296230	3431.647014
395.679351	3456.530149
396.062410	3509.921009
396.445408	3485.118532
396.828343	3529.984802
397.211217	3563.949576
397.594028	3536.601316
397.976778	3586.261723
398.359466	3617.970580
398.742092	3624.370325
399.124656	3641.056544
399.507158	3698.855894
399.889598	3706.687326
400.271977	3774.024539
400.654294	3757.792023
401.036549	3821.882733
401.418742	3819.326868
401.800874	3888.579719
402.182944	3913.750200
402.564952	3997.052747
402.946898	3995.195082
403.328783	3990.647961
403.710606	4041.266187
404.092367	4109.946867
404.474067	4174.743338
404.855705	4159.788755
405.237282	4131.094507
405.618797	4229.470104
406.000250	4302.425682
406.381642	4389.667891
406.762972	4390.658477
407.144240	4358.009444
407.525447	4421.512859
407.906593	4436.306125
408.287677	4519.696892
408.668700	4548.988517
409.049661	4589.219445
409.430560	4623.196822
409.811399	4609.734421
410.192176	4658.227800
410.572891	4737.215119
410.953545	4850.396585
411.334138	4744.058485
411.714669	4849.463971
412.095139	4765.707721
412.475547	4874.720152
412.855894	4882.823807
413.236180	4983.094877
413.616405	4911.994443
413.996568	5015.423797
414.376670	5018.940002
414.756711	5012.043703
415.136691	5083.834775
415.516609	5170.565307
415.896466	5206.801120
416.276262	5281.732831
416.655997	5394.384976
417.035670	5493.310058
417.415283	5628.871726
417.794834	5704.509198
418.174324	5662.097971
418.553753	5668.570813
418.933121	5837.250341
419.312428	5842.639334
419.691674	5770.911277
420.070859	6000.956771
420.449983	5875.749633
420.829045	6068.803140
421.208047	5995.426625
421.586988	6152.776160
421.965867	6227.670062
422.344686	6309.974461
422.723444	6474.497557
423.102141	6088.405667
423.480777	6482.507951
423.859352	6292.779085
424.237866	6666.847824
424.616319	6661.166443
424.994712	6826.763306
425.373044	6738.812815
425.751314	7051.031638
426.129524	6775.590553
426.507673	7043.449742
426.885762	7086.349962
427.263789	7124.735828
427.641756	7209.633899
428.019662	7292.457537
428.397508	7332.438928
428.775292	7313.978222
429.153016	7486.985581
429.530679	7419.892865
429.908282	7470.435473
430.285824	7406.745535
430.663305	7698.320833
431.040726	7578.164931
431.418086	7583.838749
431.795385	7718.490489
432.172624	7912.786641
432.549802	7787.100593
432.926920	7927.446316
433.303977	7869.473047
433.680974	7910.611383
434.057910	8110.755273
434.434786	8160.317377
434.811601	8115.798947
435.188355	8456.051626
435.565050	8341.521652
435.941683	8356.995474
436.318257	8690.339251
436.694770	8644.074062
437.071222	8873.426397
437.447614	8645.629258
437.823946	8613.098692
438.200218	8766.813555
438.576429	8641.087178
438.952580	8809.592787
439.328670	8814.608735
439.704700	8894.634531
440.080670	8789.891957
440.456580	9055.974140
440.832429	9034.894555
441.208218	8765.916230
441.583947	8883.390238
441.959616	9005.227364
442.335224	9030.266776
442.710773	9117.335064
443.086261	9295.804513
443.461689	9014.059466
443.837057	9184.296711
444.212365	9400.105986
444.587612	9382.161999
444.962800	9276.275083
445.337927	9405.628570
445.712995	8948.466493
446.088002	9623.600501
446.462949	9678.639819
446.837837	9656.637703
447.212664	9684.621148
447.587431	10510.135296
447.962139	11517.199038
448.336786	12461.712143
448.711374	12241.181827
449.085901	11037.485358
449.460369	10956.700868
449.834776	10736.714997
450.209124	11646.476908
450.583412	11460.002106
450.957640	11777.688060
451.331808	11369.677232
451.705917	10797.143308
452.079965	10671.472383
452.453954	10872.811027
452.827883	10824.080713
453.201752	10785.142841
453.575562	10795.502412
453.949311	11135.853393
454.323001	11201.312776
454.696632	11112.404466
455.070202	11694.725791
455.443713	11757.969587
455.817164	11920.526634
456.190556	12234.368708
456.563888	12105.363060
456.937160	12363.162627
457.310373	11844.329593
457.683526	11861.840041
458.056619	11869.568130
458.429653	11932.063314
458.802628	12065.671535
459.175542	12117.668517
459.548398	12652.575269
459.921194	13221.502248
460.293930	13480.141167
460.666607	14326.439992
461.039224	15105.260453
461.411782	15461.387725
461.784280	15130.415810
462.156719	15070.007664
462.529099	14979.518952
462.901419	14333.321167
463.273680	13922.472170
463.645882	14120.380308
464.018024	13997.827337
464.390106	14330.682123
464.762130	15355.316807
465.134094	16801.835574
465.505999	19006.107819
465.877845	21208.855116
466.249631	22423.753028
466.621358	21983.783806
466.993026	21171.094353
467.364634	20430.677402
467.736184	19624.536408
468.107674	18981.093614
468.479105	18812.920722
468.850477	18512.190689
469.221790	18048.288588
469.593043	17369.378756
469.964238	16960.526056
470.335373	16970.051316
470.706449	17602.176720
471.077467	18371.973515
471.448425	20647.792337
471.819324	22358.762473
472.190164	22244.872725
472.560945	20564.124306
472.931667	19029.276962
473.302330	18658.331218
473.672934	18064.064879
474.043479	18406.848217
474.413965	18149.230133
474.784393	17908.061333
475.154761	18475.276840
475.525070	18524.995220
475.895321	18297.828224
476.265513	18720.574345
476.635645	19187.513740
477.005719	19158.138937
477.375734	19407.353418
477.745691	19881.083248
478.115588	20360.360868
478.485427	21308.785908
478.855207	22781.304426
479.224928	24246.770370
479.594591	25373.006989
479.964194	24964.872653
480.333739	25287.821571
480.703226	25328.753220
481.072653	25551.052981
481.442022	25851.069691
481.811333	26058.142647
482.180584	25556.878034
482.549777	25220.746499
482.918912	24880.962647
483.287988	24664.606407
483.657005	24403.905656
484.025964	23952.921512
484.394864	23960.090033
484.763706	23741.661878
485.132489	23150.090036
485.501213	23043.167163
485.869879	23017.079192
486.238487	22789.556795
486.607036	22827.277229
486.975527	22411.528230
487.343959	22501.837981
487.712333	22581.382347
488.080648	22373.333928
488.448905	22491.669973
488.817104	22224.725754
489.185244	22605.597530
489.553326	23067.503333
489.921350	24168.793802
490.289315	25709.730860
490.657222	26109.191891
491.025070	26282.443746
491.392861	25852.219074
491.760593	25081.693832
492.128267	24168.496374
492.495883	23273.046299
492.863440	22438.712652
493.230939	21565.287378
493.598380	20968.011470
493.965763	20626.579161
494.333088	20070.759182
494.700354	19722.322190
495.067563	19460.842581
495.434713	19144.174941
495.801805	19085.024562
496.168839	18753.271269
496.535815	18425.215662
496.902733	18267.125077
497.269593	17921.369979
497.636395	17758.878467
498.003139	17666.403541
498.369825	17289.592414
498.736453	17261.397241
499.103023	16934.692663
499.469535	16741.132520
499.835989	16551.358283
500.202385	16252.972387
500.568723	16026.803540
500.935003	15931.089673
501.301226	15631.829136
501.667390	15724.273816
502.033497	15570.939560
502.399546	15253.334264
502.765537	14840.335215
503.131470	14806.110822
503.497345	14733.225819
503.863163	14085.336727
504.228923	14146.768228
504.594625	14063.926947
504.960269	13633.727480
505.325856	13639.587822
505.691385	13300.290441
506.056856	13173.404599
506.422270	13113.533335
506.787625	12709.404196
507.152924	12638.366777
507.518164	12451.728138
507.883347	12102.618152
508.248472	11918.875656
508.613540	11909.395766
508.978550	11758.713157
509.343503	11501.717654
509.708398	11380.177956
510.073236	11337.035761
510.438016	11148.204220
510.802738	10850.632471
511.167403	10779.030442
511.532010	10640.144133
511.896561	10558.006093
512.261053	10521.568633
512.625488	10277.652404
512.989866	10051.317199
513.354186	9874.017298
513.718449	9670.871401
514.082655	9656.138628
514.446803	9415.766331
514.810894	9346.437863
515.174927	9162.498762
515.538904	8984.523346
515.902822	8915.570443
516.266684	8681.776851
516.630488	8573.470182
516.994235	8402.073471
517.357925	8321.591450
517.721558	8204.329171
518.085133	8093.023014
518.448651	7956.571582
518.812112	7781.724203
519.175516	7641.784292
519.538863	7555.885551
519.902152	7408.028509
520.265385	7330.956828
520.628560	7190.664037
520.991678	7041.677777
521.354739	6921.499190
521.717743	6827.050652
522.080690	6684.910278
522.443580	6624.938191
522.806413	6497.533110
523.169189	6381.077415
523.531908	6281.764164
523.894569	6144.576723
524.257174	6043.917484
524.619722	5956.755934
524.982213	5856.505028
525.344647	5749.763637
525.707025	5651.393081
526.069345	5575.044806
526.431608	5463.718485
526.793815	5397.704575
527.155964	5263.504019
527.518057	5185.986196
527.880093	5082.219085
528.242072	5032.956930
528.603995	4925.151855
528.965860	4837.072815
529.327669	4764.969192
529.689421	4691.771638
530.051117	4608.179225
530.412755	4551.844330
530.774337	4479.758351
531.135862	4405.003081
531.497331	4344.282383
531.858743	4280.731077
532.220098	4231.693253
532.581396	4158.427643
532.942638	4089.530193
533.303824	4042.029921
533.664953	3992.114937
534.026025	3926.395934
534.387040	3896.731265
534.747999	3848.893235
535.108902	3810.565343
535.469748	3746.061258
535.830537	3705.837892
536.191270	3676.674817
536.551947	3627.715131
536.912567	3591.837239
537.273131	3562.326324
537.633638	3516.159437
537.994089	3496.292250
538.354483	3454.818677
538.714821	3440.620268
539.075103	3417.032709
539.435328	3386.190929
539.795497	3356.246476
540.155609	3331.113803
540.515665	3319.390600
540.875665	3284.367183
541.235609	3264.323556
541.595496	3246.634147
541.955328	3235.117631
542.315102	3206.564536
542.674821	3188.880168
543.034483	3170.089267
543.394090	3152.903973
543.753640	3137.959473
544.113134	3135.751447
544.472571	3111.939557
544.831953	3111.168261
545.191278	3092.299222
545.550548	3074.166192
545.909761	3068.303330
546.268918	3058.916701
546.628019	3053.832698
546.987064	3036.702857
547.346053	3020.939169
547.704986	3021.329858
548.063863	3007.857374
548.422684	2999.874707
548.781449	2987.440701
549.140158	2985.895588
549.498811	2977.076089
549.857408	2961.695529
550.215949	2962.834829
550.574434	2956.271247
550.932864	2948.432253
551.291237	2950.453756
551.649555	2940.268104
552.007817	2937.825665
552.366022	2926.838470
552.724173	2922.762698
553.082267	2920.826894
553.440305	2918.838159
553.798288	2906.169740
554.156215	2905.630336
554.514086	2897.304871
554.871902	2889.763304
555.229661	2885.846328
555.587365	2874.443238
555.945014	2878.322406
556.302606	2873.929040
556.660143	2872.789739
557.017625	2868.025849
557.375050	2861.341279
557.732421	2858.712317
558.089735	2856.668129
558.446994	2851.125381
558.804197	2850.192767
559.161345	2844.576922
559.518437	2838.963597
559.875474	2834.121569
560.232455	2834.023266
560.589381	2831.054027
560.946251	2824.518171
561.303065	2823.257882
561.659825	2819.348467
562.016528	2816.878302
562.373177	2812.361428
562.729770	2814.549289
563.086307	2805.001344
563.442789	2805.921354
563.799216	2802.752989
564.155587	2799.579583
564.511904	2795.697894
564.868164	2792.766463
565.224370	2792.471556
565.580520	2789.409055
565.936615	2786.185237
566.292654	2782.144752
566.648638	2782.842952
567.004567	2778.797426
567.360441	2775.011519
567.716260	2771.197887
568.072023	2773.857095
568.427732	2771.994389
568.783385	2765.456012
569.138982	2768.286620
569.494525	2767.996754
569.850013	2764.440220
570.205445	2761.954931
570.560823	2757.889240
570.916145	2754.531832
571.271412	2756.192892
571.626625	2752.853128
571.981782	2750.511512
572.336884	2743.526993
572.691931	2744.136973
573.046923	2740.265367
573.401860	2736.608009
573.756743	2739.970459
574.111570	2739.350397
574.466342	2736.315622
574.821059	2735.292268
575.175722	2732.350755
575.530330	2730.707339
575.884882	2729.346227
576.239380	2726.908829
576.593823	2726.654251
576.948211	2724.189127
577.302544	2722.510423
577.656823	2719.382387
578.011047	2720.100751
578.365216	2717.378528
578.719330	2713.968187
579.073389	2713.849720
579.427394	2714.893239
579.781344	2714.094216
580.135239	2708.553988
580.489080	2710.376365
580.842866	2707.777651
581.196597	2707.374358
581.550273	2707.646581
581.903895	2706.865202
582.257463	2709.544575
582.610975	2702.582742
582.964434	2705.650284
583.317837	2701.924871
583.671186	2704.183308
584.024481	2701.466126
584.377721	2701.438400
584.730906	2701.085519
585.084037	2702.237422
585.437113	2697.639890
585.790135	2697.188707
586.143103	2696.412369
586.496016	2695.545291
586.848874	2696.840867
587.201679	2694.436237
587.554428	2693.347348
587.907124	2694.837009
588.259765	2691.194775
588.612352	2689.773170
588.964884	2687.963395
589.317362	2692.719724
589.669786	2689.662264
590.022155	2685.495751
590.374470	2686.166224
590.726731	2684.948785
591.078937	2680.656243
591.431090	2683.277643
591.783188	2683.128929
592.135232	2680.726819
592.487222	2683.287725
592.839157	2682.544155
593.191038	2682.309741
593.542866	2679.761438
593.894639	2678.448217
594.246358	2677.470234
594.598022	2676.842610
594.949633	2674.911848
595.301190	2676.565347
595.652692	2674.112825
596.004141	2675.884791
596.355535	2671.826662
596.706876	2671.864471
597.058162	2670.689882
597.409395	2669.951353
597.760573	2669.671569
598.111698	2667.864315
598.462768	2668.181908
598.813785	2670.127793
599.164748	2669.764830
599.515657	2666.997237
599.866511	2665.595796
600.217312	2667.551763
600.568060	2663.160918
600.918753	2666.941784
601.269392	2665.361382
601.619978	2664.368275
601.970510	2664.375837
602.320988	2666.331804
602.671412	2667.851712
603.021783	2666.117555
603.372100	2666.077226
603.722363	2663.629746
604.072572	2661.880465
604.422728	2662.797955
604.772830	2661.444406
605.122878	2664.159067
605.472872	2661.593120
605.822813	2667.166115
606.172701	2660.862152
606.522534	2662.311484
606.872314	2665.686537
607.222041	2659.894251
607.571714	2662.818120
607.921333	2658.825526
608.270899	2660.610095
608.620411	2659.279230
608.969870	2664.569921
609.319276	2662.457677
609.668627	2662.087153
610.017926	2664.206958
610.367171	2665.454643
610.716362	2663.652431
611.065500	2662.775270
611.414585	2662.971875
611.763616	2666.238543
612.112594	2664.010353
612.461518	2663.511279
612.810389	2664.078408
613.159207	2665.358862
613.507971	2661.618325
613.856682	2665.999088
614.205340	2661.797286
614.553945	2666.828358
614.902496	2665.157215
615.250994	2666.420024
615.599439	2668.176867
615.947830	2668.665858
616.296169	2666.604027
616.644454	2668.194511
616.992686	2666.541012
617.340864	2668.323060
617.688990	2665.363903
618.037063	2666.450271
618.385082	2666.304078
618.733048	2669.265756
619.080961	2669.026301
619.428821	2668.156702
619.776628	2669.064110
620.124382	2667.345076
620.472083	2667.902124
620.819731	2668.391116
621.167326	2666.339366
621.514868	2666.966990
621.862357	2661.686381
622.209793	2664.469098
622.557176	2661.285609
622.904506	2659.768222
623.251783	2661.399035
623.599007	2661.058757
623.946179	2656.735968
624.293297	2655.884013
624.640363	2653.570123
624.987376	2652.115750
625.334336	2650.318579
625.681243	2650.724392
626.028097	2645.892446
626.374899	2649.670791
626.721647	2650.487458
627.068343	2648.070224
627.414987	2644.014616
627.761577	2648.050060
628.108115	2645.670635
628.454600	2642.741725
628.801032	2647.384627
629.147412	2645.413536
629.493739	2644.367497
629.840014	2643.505460
630.186236	2642.446817
630.532405	2640.508494
630.878521	2642.250212
631.224585	2640.758031
631.570597	2638.517238
631.916556	2640.405150
632.262462	2639.495222
632.608316	2641.768782
632.954117	2638.988586
633.299866	2639.580921
633.645562	2637.549336
633.991206	2636.525982
634.336797	2635.076650
634.682336	2634.133955
635.027823	2632.525827
635.373257	2632.165384
635.718639	2628.780249
636.063968	2631.827627
636.409245	2629.506175
636.754470	2628.366875
637.099642	2625.672378
637.444762	2625.183386
637.789829	2624.245731
638.134845	2623.449229
638.479808	2623.018210
638.824719	2622.998046
639.169577	2620.149794
639.514383	2619.817078
639.859137	2619.708693
640.203839	2619.922942
640.548489	2620.069135
640.893086	2617.493106
641.237632	2619.756584
641.582125	2618.604680
641.926566	2616.910852
642.270955	2615.307766
642.615292	2610.886674
642.959576	2613.301386
643.303809	2611.902466
643.647990	2614.874226
643.992118	2615.186778
644.336195	2616.147118
644.680219	2615.375821
645.024192	2616.124432
645.368112	2615.877416
645.711981	2619.272633
646.055797	2621.760442
646.399562	2621.694907
646.743274	2623.555093
647.086935	2627.847636
647.430544	2622.526698
647.774101	2625.251442
648.117606	2626.032820
648.461059	2627.925774
648.804460	2630.161525
649.147810	2624.805299
649.491108	2621.457973
649.834354	2621.347068
650.177548	2618.859258
650.520690	2619.786831
650.863781	2619.073507
651.206820	2618.173662
651.549807	2614.039915
651.892742	2613.485388
652.235626	2612.338526
652.578458	2611.599997
652.921238	2609.843155
653.263967	2609.623865
653.606644	2611.216869
653.949269	2611.161417
654.291843	2606.521034
654.634365	2609.515480
654.976836	2605.848040
655.319255	2607.070520
655.661622	2605.656477
656.003938	2605.323760
656.346203	2605.227978
656.688416	2604.872577
657.030577	2605.162443
657.372687	2606.384923
657.714746	2605.003647
658.056753	2605.003647
658.398708	2602.001640
658.740612	2605.908534
659.082465	2601.779829
659.424266	2601.076588
659.766016	2601.389140
660.107715	2602.324274
660.449362	2601.132041
660.790958	2603.697988
661.132503	2602.752772
661.473996	2606.742845
661.815438	2604.655807
662.156829	2604.318050
662.498168	2603.453492
662.839456	2605.782505
663.180693	2603.249326
663.521879	2602.667072
663.863013	2602.876280
664.204097	2606.006837
664.545129	2604.708740
664.886110	2605.023812
665.227040	2607.965325
665.567918	2606.707557
665.908746	2605.684203
666.249522	2608.008175
666.590248	2607.554471
666.930922	2606.450458
667.271545	2606.919286
667.612118	2607.118411
667.952639	2607.153699
668.293109	2605.883328
668.633528	2608.192177
668.973896	2608.600510
669.314213	2606.135386
669.654480	2602.861157
669.994695	2604.615478
670.334859	2603.793770
670.674973	2605.106991
671.015035	2604.970880
671.355047	2604.842330
671.695008	2601.729418
672.034918	2603.609768
672.374777	2603.307299
672.714585	2605.260746
673.054342	2606.027001
673.394049	2605.641353
673.733705	2605.290993
674.073310	2604.875098
674.412864	2607.098247
674.752368	2602.551126
675.091820	2605.185129
675.431223	2602.427617
675.770574	2599.967534
676.109875	2601.326125
676.449125	2598.785384
676.788324	2596.249683
677.127473	2594.633994
677.466571	2591.135433
677.805619	2595.586772
678.144616	2595.869076
678.483562	2595.748089
678.822458	2597.383943
679.161303	2594.132399
679.500098	2593.124168
679.838842	2596.100969
680.177535	2593.464446
680.516179	2597.210023
680.854771	2593.734148
681.193314	2599.455857
681.531805	2600.244798
681.870247	2602.490632
682.208638	2609.676797
682.546978	2608.436673
682.885268	2610.488422
683.223508	2608.391302
683.561697	2608.991200
683.899836	2609.560850
684.237925	2605.437186
684.575963	2604.988524
684.913951	2602.785539
685.251889	2602.483070
685.589776	2602.803183
685.927614	2603.529110
686.265401	2604.106322
686.603137	2604.297886
686.940824	2605.190170
687.278460	2607.060438
687.616046	2609.147476
687.953582	2612.222579
688.291068	2608.487084
688.628504	2612.141921
688.965889	2612.608228
689.303224	2613.994545
689.640510	2608.794595
689.977745	2607.466251
690.314930	2602.901486
690.652065	2600.822010
690.989150	2600.353183
691.326185	2599.884355
691.663170	2593.633325
692.000105	2594.621391
692.336990	2588.703076
692.673825	2587.498240
693.010610	2585.141501
693.347345	2582.000862
693.684030	2576.800912
694.020665	2578.945923
694.357251	2574.328226
694.693786	2576.755542
695.030272	2573.277145
695.366707	2573.675397
695.703093	2571.699264
696.039429	2573.977866
696.375716	2572.523493
696.711952	2570.955694
697.048139	2572.515931
697.384276	2571.805128
697.720363	2571.474933
698.056400	2570.310426
698.392388	2570.217165
698.728326	2570.819583
699.064214	2570.156671
699.400053	2568.735066
699.735842	2567.167267
700.071581	2565.917061
700.407270	2568.067113
700.742910	2563.973696
701.078501	2563.366237
701.414042	2561.269117
701.749533	2559.444219
702.084974	2560.568397
702.420366	2560.802810
702.755709	2558.549414
703.091002	2559.580330
703.426246	2557.982285
703.761440	2559.391287
704.096584	2557.400031
704.431679	2556.888354
704.766725	2554.128322
705.101721	2555.935576
705.436668	2553.336861
705.771565	2553.697304
706.106413	2557.543704
706.441212	2556.023796
706.775961	2557.826009
707.110661	2556.880793
707.445311	2557.029507
707.779913	2558.897254
708.114465	2556.351471
708.448967	2558.158725
708.783421	2563.212482
709.117825	2563.756926
709.452180	2564.021587
709.786485	2566.544684
710.120742	2569.161043
710.454949	2566.254818
710.789107	2573.567012
711.123216	2571.916034
711.457275	2575.936354
711.791286	2580.823753
712.125247	2580.823753
712.459159	2579.802919
712.793023	2577.720922
713.126837	2581.320306
713.460602	2579.034143
713.794318	2579.155131
714.127985	2576.120356
714.461602	2573.955181
714.795171	2573.708164
715.128691	2571.752196
715.462162	2566.436300
715.795584	2565.337328
716.128957	2565.523851
716.462281	2564.354303
716.795556	2565.745662
717.128782	2556.369115
717.461960	2556.787531
717.795088	2557.936914
718.128167	2553.682180
718.461198	2551.723692
718.794180	2554.299722
719.127113	2549.853424
719.459997	2552.895760
719.792833	2548.751932
720.125619	2547.942827
720.458357	2547.171530
720.791046	2548.139432
721.123686	2546.430481
721.456278	2545.558361
721.788821	2544.459389
722.121315	2545.417209
722.453761	2544.066179
722.786158	2542.810932
723.118506	2543.768751
723.450805	2545.765048
723.783056	2547.184133
724.115259	2544.986190
724.447412	2541.875798
724.779518	2545.772610
725.111574	2545.384441
725.443582	2544.154400
725.775542	2544.161961
726.107453	2549.908877
726.439315	2547.978115
726.771129	2549.843342
727.102895	2546.652291
727.434612	2549.034237
727.766281	2548.073897
728.097901	2555.665874
728.429473	2554.781152
728.760996	2556.364074
729.092471	2555.128992
729.423897	2556.459856
729.755276	2553.525905
730.086606	2554.493806
730.417887	2558.279713
730.749120	2560.185269
731.080305	2560.016390
731.411442	2563.963614
731.742530	2563.096535
732.073570	2565.785991
732.404562	2568.109963
732.735506	2565.876732
733.066401	2564.225754
733.397249	2566.605178
733.728048	2561.569066
734.058798	2558.078067
734.389501	2555.068498
734.720156	2550.211346
735.050762	2549.568599
735.381320	2548.802343
735.711831	2544.345963
736.042293	2541.913607
736.372707	2547.247147
736.703073	2542.899152
737.033391	2547.456355
737.363661	2546.352343
737.693883	2543.332692
738.024056	2546.483413
738.354182	2544.358566
738.684260	2547.993238
739.014290	2545.482744
739.344272	2549.571119
739.674207	2551.522046
740.004093	2554.072870
740.333931	2551.945503
740.663722	2554.561862
740.993464	2555.096224
741.323159	2552.893240
741.652806	2554.471121
741.982405	2549.992056
742.311956	2547.748742
742.641460	2549.709751
742.970915	2548.099102
743.300323	2544.222455
743.629683	2540.486960
743.958996	2542.813453
744.288260	2536.993441
744.617477	2538.939326
744.946647	2540.161806
745.275768	2540.101312
745.604842	2536.670807
745.933869	2536.126362
746.262847	2539.055272
746.591778	2535.770961
746.920662	2536.023018
747.249498	2536.557381
747.578286	2535.922195
747.907027	2535.423121
748.235720	2536.063348
748.564365	2537.671476
748.892963	2538.659542
749.221514	2539.856816
749.550017	2539.675334
749.878473	2535.934798
750.206881	2538.057124
750.535242	2535.617206
750.863555	2534.861032
751.191821	2536.156609
751.520039	2532.302647
751.848210	2535.665097
752.176334	2535.433203
752.504411	2534.417411
752.832440	2534.364479
753.160421	2531.644776
753.488356	2533.378933
753.816243	2532.285003
754.144082	2532.784077
754.471875	2533.832637
754.799620	2533.603265
755.127318	2529.257790
755.454969	2531.284334
755.782572	2532.776515
756.110129	2531.249046
756.437638	2531.322143
756.765100	2529.456916
757.092515	2532.184180
757.419882	2531.833820
757.747203	2532.685775
758.074477	2531.319622
758.401703	2533.018491
758.728882	2531.856505
759.056014	2534.427493
759.383099	2531.916999
759.710138	2531.695188
760.037129	2532.635363
760.364073	2535.269366
760.690970	2532.963038
761.017820	2536.312885
761.344623	2540.171888
761.671379	2542.263967
761.998088	2543.360418
762.324751	2549.661860
762.651366	2566.610219
762.977935	2585.476738
763.304456	2606.110180
763.630931	2613.210646
763.957359	2609.959101
764.283740	2600.063316
764.610074	2591.276585
764.936362	2577.141190
765.262602	2567.855384
765.588796	2556.031358
765.914943	2549.722354
766.241044	2544.605583
766.567097	2537.008564
766.893104	2534.092257
767.219064	2530.802904
767.544978	2528.214271
767.870845	2527.153108
768.196665	2526.669157
768.522438	2523.039527
768.848165	2518.978877
769.173846	2519.326717
769.499479	2518.255472
769.825066	2519.888806
770.150607	2519.394773
770.476101	2515.513084
770.801548	2515.455111
771.126949	2514.474606
771.452303	2516.516274
771.777611	2515.651716
772.102872	2513.010151
772.428087	2512.107785
772.753256	2514.640964
773.078378	2511.114677
773.403453	2509.214162
773.728482	2510.850017
774.053465	2507.613596
774.378401	2508.836076
774.703291	2507.366579
775.028135	2506.433966
775.352932	2508.599142
775.677683	2507.543020
776.002388	2503.787360
776.327046	2501.750734
776.651658	2504.430107
776.976224	2502.834582
777.300743	2504.926661
777.625216	2505.766013
777.949643	2504.301558
778.274024	2502.998420
778.598359	2503.986486
778.922647	2505.256857
779.246889	2505.481188
779.571086	2503.363903
779.895236	2504.362052
780.219339	2502.262411
780.543397	2503.210148
780.867409	2502.489263
781.191374	2506.312978
781.515294	2503.431959
781.839167	2505.171157
782.162995	2504.646877
782.486776	2507.273318
782.810511	2502.963132
783.134201	2504.535972
783.457844	2503.353821
783.781441	2503.752072
784.104993	2501.455827
784.428498	2505.266939
784.751958	2505.377844
785.075372	2503.542864
785.398739	2502.169150
785.722061	2506.149141
786.045337	2504.241064
786.368568	2503.822648
786.691752	2506.373472
787.014891	2504.397340
787.337983	2509.498988
787.661030	2509.781292
787.984031	2513.627693
788.306987	2520.644979
788.629897	2516.503671
788.952760	2518.373939
789.275579	2517.121212
789.598351	2517.527025
789.921078	2513.761283
790.243759	2512.581653
790.566395	2510.562671
790.888984	2508.460510
791.211529	2507.565705
791.534027	2505.793739
791.856480	2506.539830
792.178888	2501.738131
792.501249	2499.013388
792.823566	2501.198728
793.145836	2497.405259
793.468062	2504.520848
793.790241	2499.577997
794.112375	2504.404902
794.434464	2501.395333
794.756507	2500.765188
795.078505	2506.915396
795.400457	2505.030005
795.722364	2508.858761
796.044226	2509.892197
796.366042	2511.855727
796.687812	2510.887825
797.009538	2512.122908
797.331218	2510.295490
797.652852	2516.375121
797.974442	2507.386744
798.295986	2509.743483
798.617484	2509.577125
798.938938	2504.530930
799.260346	2507.570746
799.581709	2506.849861
799.903026	2507.230468
800.224299	2504.155364
800.545526	2504.719974
800.866708	2504.730056
801.187845	2503.565549
801.508936	2503.426918
801.829983	2503.081599
802.150984	2499.731752
802.471940	2500.654283
802.792851	2499.925836
803.113717	2501.468429
803.434538	2498.365599
803.755314	2499.396515
804.076045	2500.893738
804.396731	2499.603202
804.717372	2498.337873
805.037967	2499.441886
805.358518	2498.665548
805.679024	2500.596310
805.999485	2499.467091
806.319901	2500.109838
806.640272	2499.913233
806.960598	2501.801146
807.280879	2501.982627
807.601115	2503.137051
807.921306	2502.958090
808.241453	2498.713439
808.561554	2499.492297
808.881611	2498.481546
809.201623	2496.860815
809.521590	2500.382061
809.841513	2501.511279
810.161390	2502.098574
810.481223	2501.410456
810.801011	2500.926505
811.120755	2500.563542
811.440453	2501.281907
811.760107	2499.933398
812.079716	2502.312823
812.399281	2499.777122
812.718801	2502.282576
813.038276	2501.107987
813.357707	2497.072543
813.677093	2498.902482
813.996434	2501.531444
814.315731	2499.275528
814.634983	2497.743017
814.954191	2499.532626
815.273354	2498.322749
815.592473	2498.657986
815.911547	2501.758296
816.230577	2503.565549
816.549562	2502.496825
816.868502	2504.112515
817.187399	2504.848523
817.506250	2508.705006
817.825058	2504.228461
818.143821	2509.468741
818.462539	2510.769358
818.781213	2513.297497
819.099843	2518.157169
819.418429	2523.957017
819.736970	2533.401618
820.055466	2539.203987
820.373919	2549.394679
820.692327	2564.074519
821.010691	2588.118302
821.329011	2641.983031
821.647286	2732.996023
821.965517	2844.710512
822.283704	2934.153185
822.601847	2979.490802
822.919945	2948.986780
823.237999	2902.857702
823.556010	2848.753518
823.873976	2794.482976
824.191897	2743.801736
824.509775	2707.122301
824.827609	2671.483863
825.145398	2644.485964
825.463144	2634.287710
825.780845	2630.574900
826.098502	2637.020015
826.416116	2659.511123
826.733685	2685.830987
827.051210	2700.173070
827.368692	2696.009077
827.686129	2671.309944
828.003522	2643.414719
828.320872	2616.426902
828.638177	2595.309508
828.955439	2580.251582
829.272656	2562.882286
829.589830	2550.246634
829.906960	2538.745242
830.224046	2531.037317
830.541088	2525.078673
830.858086	2521.401152
831.175041	2515.276150
831.491952	2516.463342
831.808819	2516.201202
832.125642	2519.770338
832.442421	2522.411903
832.759157	2537.011085
833.075849	2555.754095
833.392497	2575.286045
833.709101	2596.743717
834.025662	2601.328646
834.342179	2590.795155
834.658653	2578.688824
834.975083	2562.005125
835.291469	2550.755791
835.607811	2540.509645
835.924110	2530.515558
836.240366	2525.963396
836.556578	2516.458300
836.872746	2512.846314
837.188871	2504.596465
837.504952	2505.047649
837.820990	2502.567401
838.136984	2496.185300
838.452935	2496.086998
838.768842	2499.366268
839.084706	2499.825013
839.400526	2507.117042
839.716303	2519.170441
840.032037	2529.711494
840.347727	2528.322656
840.663373	2525.996163
840.978977	2515.689524
841.294537	2510.577794
841.610054	2504.367093
841.925527	2503.298368
842.240957	2499.114211
842.556344	2495.161946
842.871687	2496.255876
843.186987	2489.195740
843.502244	2487.375884
843.817458	2483.756335
844.132629	2488.311018
844.447756	2488.215236
844.762840	2485.061994
845.077881	2481.334061
845.392879	2484.762046
845.707833	2483.685759
846.022745	2480.832466
846.337613	2482.642240
846.652438	2481.747436
846.967221	2481.954123
847.281960	2482.927066
847.596656	2480.434215
847.911309	2479.851962
848.225919	2481.543269
848.540485	2478.642085
848.855009	2480.600573
849.169490	2480.429174
849.483928	2478.059832
849.798323	2479.854482
850.112675	2478.894143
850.426984	2480.749287
850.741251	2479.872126
851.055474	2480.477065
851.369654	2478.924389
851.683792	2479.773824
851.997887	2480.469503
852.311938	2478.543782
852.625947	2480.403968
852.939914	2480.860193
853.253837	2480.038484
853.567718	2480.214925
853.881555	2480.164513
854.195350	2482.614514
854.509103	2478.047229
854.822812	2476.945737
855.136479	2478.400109
855.450103	2479.660398
855.763685	2476.665953
856.077224	2476.698720
856.390720	2479.085706
856.704173	2473.941209
857.017584	2475.869450
857.330953	2478.480768
857.644278	2480.219966
857.957561	2484.260451
858.270802	2481.689462
858.584000	2479.554534
858.897155	2480.411530
859.210268	2480.366159
859.523339	2479.022692
859.836367	2480.255254
860.149352	2479.791468
860.462295	2481.505460
860.775195	2479.753659
861.088054	2479.456231
861.400869	2477.354070
861.713642	2479.998155
862.026373	2481.054277
862.339062	2481.770121
862.651708	2478.798361
862.964312	2480.098978
863.276873	2482.667446
863.589392	2480.310707
863.901869	2483.310193
864.214303	2481.064359
864.526696	2481.853300
864.839045	2483.113588
865.151353	2485.089721
865.463619	2483.045533
865.775842	2484.136942
866.088023	2485.861017
866.400162	2484.983856
866.712258	2483.458907
867.024313	2483.050574
867.336325	2481.979329
867.648296	2483.194247
867.960224	2483.446304
868.272110	2483.784062
868.583954	2482.180975
868.895755	2481.835656
869.207515	2483.458907
869.519233	2482.385142
869.830909	2486.259268
870.142542	2484.477220
870.454134	2486.584423
870.765684	2486.039978
871.077191	2485.687097
871.388657	2484.462097
871.700081	2485.591315
872.011463	2483.889926
872.322803	2482.881695
872.634101	2486.226501
872.945357	2488.041316
873.256571	2489.606594
873.567744	2487.771614
873.878874	2488.926039
874.189963	2488.807572
874.501010	2489.188179
874.812015	2489.707417
875.122979	2490.456029
875.433900	2491.136585
875.744780	2488.482417
876.055618	2493.765546
876.366415	2491.502068
876.677169	2492.001143
876.987882	2491.343272
877.298554	2492.487614
877.609183	2492.782521
877.919771	2497.095228
878.230317	2497.856443
878.540822	2502.489263
878.851285	2502.764006
879.161707	2508.042094
879.472087	2514.577950
879.782425	2526.341482
880.092722	2548.711603
880.402977	2581.985739
880.713191	2626.594909
881.023363	2673.860767
881.333494	2705.662887
881.643583	2726.825650
881.953631	2728.479149
882.263637	2717.819629
882.573602	2700.349510
882.883526	2686.171265
883.193408	2669.263235
883.503248	2647.629123
883.813048	2632.120014
884.122806	2615.217025
884.432522	2601.280755
884.742197	2583.838363
885.051831	2569.244222
885.361424	2553.956923
885.670975	2545.961653
885.980485	2534.346835
886.289954	2527.488345
886.599382	2519.603980
886.908768	2516.470903
887.218113	2507.185098
887.527417	2507.424553
887.836680	2499.991371
888.145901	2503.862978
888.455082	2501.372647
888.764221	2499.860301
889.073319	2498.030362
889.382376	2494.478870
889.691392	2496.039107
890.000366	2495.910557
890.309300	2494.751092
890.618193	2494.630104
890.927044	2495.930722
891.235855	2492.296050
891.544625	2493.362254
891.853353	2496.502893
892.162041	2496.875938
892.470687	2500.671927
892.779293	2501.589417
893.087858	2506.222238
893.396381	2508.924296
893.704864	2520.329907
894.013306	2531.619571
894.321707	2546.261602
894.630068	2556.837943
894.938387	2562.206772
895.246665	2561.816082
895.554903	2557.876420
895.863100	2550.082797
896.171256	2541.525438
896.479371	2534.944212
896.787446	2529.789632
897.095480	2524.075484
897.403473	2519.324196
897.711425	2514.628362
898.019336	2513.383197
898.327207	2509.206601
898.635038	2506.065962
898.942827	2505.395488
899.250576	2501.854078
899.558284	2497.669920
899.865952	2495.739158
900.173579	2492.895947
900.481165	2494.436020
900.788711	2493.233705
901.096216	2492.268324
901.403681	2490.536687
901.711105	2491.340751
902.018489	2492.308653
902.325832	2489.987202
902.633135	2484.678867
902.940397	2494.070536
903.247619	2499.439365
903.554800	2519.036851
903.861941	2543.647764
904.169041	2567.230281
904.476101	2576.571539
904.783121	2577.804102
905.090100	2571.220355
905.397039	2560.147460
905.703938	2550.004659
906.010796	2541.419574
906.317614	2532.133768
906.624391	2526.648993
906.931129	2519.346882
907.237826	2514.525018
907.544483	2511.578463
907.851099	2506.151661
908.157675	2497.737976
908.464211	2493.452995
908.770707	2491.408807
909.077163	2489.054588
909.383578	2486.455873
909.689954	2484.983856
909.996289	2482.385142
910.302584	2481.868423
910.608839	2481.878506
910.915054	2480.517394
911.221229	2481.003865
911.527363	2482.024699
911.833458	2481.772641
912.139513	2481.281129
912.445527	2481.318938
912.751502	2483.718527
913.057436	2484.492344
913.363331	2485.929073
913.669186	2487.070894
913.975000	2491.444095
914.280775	2493.836123
914.586510	2504.740138
914.892205	2515.273629
915.197859	2529.572862
915.503475	2543.708258
915.809050	2557.349620
916.114585	2571.623647
916.420081	2575.185222
916.725536	2578.782085
917.030952	2569.037535
917.336328	2569.859243
917.641665	2557.883982
917.946961	2553.316697
918.252218	2551.000287
918.557435	2539.350180
918.862612	2535.357586
919.167750	2532.761392
919.472848	2523.752850
919.777906	2518.489885
920.082925	2514.761952
920.387904	2509.309944
920.692843	2505.962618
920.997743	2499.482215
921.302603	2499.378871
921.607423	2492.911071
921.912204	2493.021976
922.216946	2490.793786
922.521647	2488.633652
922.826310	2486.884371
923.130932	2486.155925
923.435516	2484.953609
923.740059	2483.363125
924.044564	2481.323979
924.349028	2481.076962
924.653454	2480.023361
924.957840	2481.830615
925.262186	2476.721405
925.566493	2479.725933
925.870761	2474.450365
926.174989	2475.221662
926.479178	2476.577732
926.783328	2475.516569
927.087438	2474.112608
927.391509	2476.834831
927.695541	2471.844089
927.999533	2472.292752
928.303486	2474.389872
928.607400	2472.501959
928.911275	2472.196970
929.215110	2471.478605
929.518906	2470.419963
929.822663	2474.823411
930.126381	2469.883080
930.430060	2473.258133
930.733699	2469.835189
931.037299	2471.975159
931.340861	2472.733853
931.644383	2472.491877
931.947866	2470.059520
932.251309	2471.642443
932.554714	2472.706126
932.858080	2470.132617
933.161407	2465.661114
933.464694	2470.248564
933.767943	2467.634725
934.071153	2473.270735
934.374323	2470.949284
934.677455	2471.501290
934.980548	2472.907772
935.283602	2472.295272
935.586617	2473.300982
935.889593	2472.995992
936.192530	2467.876701
936.495428	2472.373410
936.798287	2472.824593
937.101108	2472.464151
937.403890	2471.912144
937.706632	2475.216621
938.009336	2475.503967
938.312002	2474.919193
938.614628	2475.972794
938.917216	2478.687455
939.219765	2477.331385
939.522275	2479.529328
939.824747	2480.557723
940.127179	2478.732826
940.429573	2480.441777
940.731929	2480.144349
941.034246	2479.466313
941.336524	2479.234420
941.638763	2479.965388
941.940964	2474.722588
942.243126	2479.622589
942.545250	2479.761221
942.847335	2475.698051
943.149381	2476.628144
943.451389	2473.618575
943.753359	2476.915490
944.055290	2474.962043
944.357182	2476.544965
944.659036	2472.585138
944.960851	2474.639409
945.262628	2473.411888
945.564367	2473.842906
945.866067	2476.035808
946.167729	2474.886425
946.469352	2473.845427
946.770937	2473.714357
947.072484	2472.696044
947.373992	2474.924234
947.675462	2472.572536
947.976893	2469.875518
948.278286	2467.405353
948.579641	2473.074130
948.880958	2467.881742
949.182236	2475.445993
949.483476	2471.100519
949.784678	2471.581949
950.085841	2473.595890
950.386967	2473.434573
950.688054	2472.542289
950.989103	2475.118318
951.290114	2474.581435
951.591087	2473.462299
951.892021	2477.412043
952.192917	2474.830973
952.493776	2474.102526
952.794596	2476.918010
953.095378	2475.108236
953.396122	2476.837352
953.696828	2473.409367
953.997496	2476.028247
954.298126	2474.483133
954.598718	2477.094451
954.899272	2475.047742
955.199788	2473.757207
955.500266	2473.137145
955.800706	2473.638740
956.101108	2474.583956
956.401472	2472.751497
956.701798	2470.835858
957.002087	2470.447689
957.302337	2468.579942
957.602550	2471.985241
957.902724	2467.475929
958.202861	2466.971814
958.502960	2469.570528
958.803022	2469.366362
959.103045	2469.197483
959.403031	2469.041207
959.702979	2464.075671
960.002889	2467.012143
960.302762	2465.230095
960.602596	2465.978706
960.902393	2465.996350
961.202153	2465.451906
961.501875	2466.820579
961.801559	2463.304374
962.101205	2462.638942
962.400814	2465.842595
962.700385	2463.329580
962.999918	2464.995681
963.299414	2463.551391
963.598873	2460.246914
963.898293	2459.556276
964.197677	2465.371247
964.497022	2465.635908
964.796331	2464.650362
965.095601	2461.202213
965.394835	2464.594910
965.694030	2462.938891
965.993189	2465.310753
966.292309	2462.833026
966.591393	2464.879735
966.890439	2463.385033
967.189447	2466.190435
967.488419	2465.731690
967.787353	2464.806638
968.086249	2465.961062
968.385108	2464.615074
968.683930	2463.440485
968.982714	2464.156329
969.281462	2461.907975
969.580172	2467.975003
969.878844	2462.812862
970.177480	2467.128089
970.476078	2464.292440
970.774639	2466.228243
971.073162	2465.698922
971.371649	2464.431072
971.670098	2466.848305
971.968510	2465.852677
972.266885	2467.813686
972.565223	2465.502317
972.863524	2465.978706
973.161788	2467.120528
973.460014	2466.117338
973.758204	2467.090281
974.056356	2464.368058
974.354471	2464.539457
974.652550	2464.698253
974.950591	2467.284365
975.248595	2465.835033
975.546563	2468.264870
975.844493	2465.038531
976.142386	2466.316464
976.440243	2465.963583
976.738062	2465.837554
977.035845	2464.380661
977.333590	2465.842595
977.631299	2467.657411
977.928971	2462.757409
978.226606	2461.837398
978.524204	2465.277986
978.821765	2459.321863
979.119290	2463.692543
979.416777	2466.092132
979.714228	2462.757409
980.011642	2465.930815
980.309020	2463.150619
980.606360	2463.238839
980.903664	2467.624643
981.200931	2463.508541
981.498162	2466.513069
981.795356	2467.619602
982.092513	2470.419963
982.389633	2470.793008
982.686717	2476.242496
982.983764	2477.306179
983.280775	2478.521097
983.577749	2476.713843
983.874686	2478.962198
984.171587	2480.792137
984.468451	2477.454893
984.765279	2478.299286
985.062070	2474.268884
985.358824	2475.420788
985.655543	2474.450365
985.952224	2470.082206
986.248869	2470.596403
986.545478	2469.978862
986.842050	2467.324694
987.138586	2469.729325
987.435086	2467.967442
987.731549	2465.209930
988.027975	2467.496094
988.324366	2465.114148
988.620719	2463.284210
988.917037	2464.902420
989.213318	2465.242698
989.509563	2462.976699
989.805772	2464.226905
990.101944	2462.787656
990.398080	2462.157512
990.694180	2462.933849
990.990244	2461.182048
991.286271	2464.073150
991.582262	2460.682974
991.878217	2462.706997
992.174136	2461.522326
992.470019	2462.434775
992.765865	2462.346555
993.061676	2457.980916
993.357450	2461.449230
993.653188	2458.732048
993.948890	2462.563325
994.244556	2464.204220
994.540186	2465.169601
994.835780	2465.966103
995.131337	2466.838223
995.426859	2466.145064
995.722345	2469.038687
996.017795	2468.164047
996.313208	2472.202011
996.608586	2470.493060
996.903928	2471.176136
997.199234	2472.113791
997.494504	2473.701754
997.789738	2470.175467
998.084936	2471.876856
998.380099	2470.510704
998.675225	2468.945425
998.970316	2467.733028
999.265371	2470.838379
999.560390	2468.211938
999.855373	2465.787142
1000.150320	2460.309929
1000.445232	2464.514251
1000.740108	2463.362347
1001.034948	2464.378140
1001.329752	2465.220013
1001.624521	2463.851339
1001.919254	2463.443006
1002.213951	2463.281689
1002.508613	2461.222378
1002.803239	2461.799590
1003.097829	2460.877059
1003.392384	2461.305557
1003.686903	2460.811524
1003.981386	2461.497121
1004.275834	2461.860084
1004.570246	2460.773715
1004.864623	2461.902933
1005.158964	2461.429065
1005.453270	2459.760443
1005.747540	2460.662810
1006.041775	2458.981585
1006.335974	2461.207254
1006.630138	2460.831688
1006.924266	2462.681792
1007.218359	2461.297995
1007.512416	2458.585854
1007.806438	2456.589557
1008.100425	2458.520319
1008.394376	2454.242900
1008.688292	2464.420990
1008.982172	2459.581482
1009.276017	2460.506534
1009.569827	2460.123406
1009.863602	2460.393108
1010.157341	2460.793880
1010.451045	2459.175669
1010.744714	2459.402521
1011.038347	2461.875207
1011.331945	2459.490741
1011.625508	2460.947635
1011.919036	2460.385546
1012.212528	2459.064764
1012.505986	2460.050309
1012.799408	2460.713221
1013.092795	2460.080556
1013.386147	2459.463015
1013.679464	2461.413942
1013.972745	2461.179528
1014.265992	2462.066771
1014.559204	2460.602316
1014.852380	2460.519137
1015.145521	2460.766153
1015.438628	2460.715742
1015.731699	2458.472428
1016.024736	2461.809672
1016.317737	2460.476287
1016.610703	2458.560648
1016.903635	2461.020732
1017.196531	2459.062243
1017.489393	2462.706998
1017.782219	2459.092490
1018.075011	2465.025928
1018.367768	2457.413786
1018.660490	2458.880762
1018.953177	2458.880762
1019.245829	2458.880762
