Dividing Wavelength (nm)	Counts (n)	Blue Motor Position (mm): 0.000000	Red Motor Position (mm): 19.000000	
326.493990	2055.527960
326.888308	2055.527960
327.282561	2055.527960
327.676750	2024.897909
328.070874	2029.447551
328.464933	2034.690351
328.858929	2046.562268
329.252859	2056.233722
329.646726	2067.122614
330.040528	2084.454101
330.434265	2099.885073
330.827938	2122.013218
331.221547	2142.243368
331.615091	2163.766574
332.008571	2183.306087
332.401986	2204.345342
332.795338	2225.462736
333.188625	2242.438821
333.581847	2261.118817
333.975006	2278.422578
334.368100	2297.977213
334.761129	2313.740901
335.154095	2329.340752
335.546996	2343.571929
335.939833	2362.922398
336.332606	2372.125025
336.725315	2384.831253
337.117960	2396.042779
337.510540	2403.564181
337.903056	2413.762435
338.295508	2420.608322
338.687896	2429.979827
339.080220	2433.979982
339.472480	2439.830241
339.864676	2442.950716
340.256807	2444.853751
340.648875	2447.734771
341.040879	2447.707044
341.432818	2451.107303
341.824694	2450.293156
342.216506	2450.701490
342.608253	2451.072014
342.999937	2449.476489
343.391557	2448.848866
343.783113	2449.398351
344.174605	2447.623865
344.566033	2445.927517
344.957397	2445.151179
345.348697	2442.698658
345.739934	2439.016095
346.131106	2436.724891
346.522215	2434.297575
346.913260	2435.396547
347.304241	2434.902513
347.695159	2430.131061
348.086012	2429.992430
348.476802	2426.745927
348.867528	2425.440268
349.258191	2420.943558
349.648789	2420.875503
350.039324	2419.776531
350.429796	2420.436923
350.820203	2420.923394
351.210548	2423.055802
351.600828	2418.327200
351.991045	2420.124371
352.381198	2418.801068
352.771288	2420.255441
353.161314	2421.873651
353.551276	2420.053795
353.941175	2419.910122
354.331010	2421.119999
354.720782	2416.535069
355.110490	2420.764597
355.500135	2418.806109
355.889717	2421.601429
356.279235	2421.450194
356.668689	2422.617222
357.058080	2420.358785
357.447408	2423.643096
357.836672	2422.360123
358.225873	2424.545463
358.615010	2422.312232
359.004084	2426.667789
359.393095	2423.950607
359.782043	2426.516554
360.170927	2423.426327
360.559748	2424.711821
360.948505	2426.871955
361.337199	2428.306164
361.725830	2425.984712
362.114398	2429.092584
362.502903	2430.030238
362.891344	2429.677358
363.279722	2429.221133
363.668037	2431.739189
364.056289	2431.267842
364.444478	2430.093253
364.832603	2432.276072
365.220665	2432.235743
365.608665	2432.197934
365.996601	2432.996957
366.384474	2432.417225
366.772284	2435.681372
367.160031	2434.892431
367.547715	2435.454520
367.935336	2436.344283
368.322893	2433.722883
368.710388	2431.288006
369.097820	2435.048707
369.485189	2431.275403
369.872495	2436.087185
370.259738	2438.126331
370.646918	2440.349480
371.034035	2440.276383
371.421090	2440.934254
371.808081	2441.871909
372.195010	2442.887701
372.581875	2441.957608
372.968678	2443.482557
373.355418	2447.669236
373.742096	2446.769390
374.128710	2450.729216
374.515262	2454.764660
374.901751	2454.613425
375.288177	2458.636266
375.674540	2460.965279
376.060841	2465.051134
376.447079	2470.848461
376.833254	2474.732670
377.219367	2480.693834
377.605417	2484.840183
377.991404	2489.752788
378.377329	2499.691423
378.763191	2505.254336
379.148991	2513.105933
379.534727	2519.215812
379.920402	2532.474046
380.306013	2539.511497
380.691563	2553.021789
381.077049	2561.420352
381.462474	2572.926785
381.847835	2588.050247
382.233134	2601.177411
382.618371	2614.213835
383.003545	2629.765795
383.388657	2644.271715
383.773706	2663.813748
384.158693	2676.666170
384.543618	2695.986392
384.928480	2710.489791
385.313280	2731.216495
385.698017	2752.580905
386.082692	2777.199380
386.467305	2785.597942
386.851856	2812.905873
387.236344	2841.650532
387.620770	2858.261134
388.005133	2877.077241
388.389435	2915.422778
388.773674	2923.193716
389.157851	2959.374077
389.541965	2987.160917
389.926018	2997.971672
390.310008	3031.727238
390.693936	3057.845456
391.077802	3086.083479
391.461606	3116.491719
391.845348	3134.506282
392.229027	3164.967455
392.612645	3204.674103
392.996200	3235.767940
393.379694	3270.907303
393.763125	3314.553613
394.146494	3341.022191
394.529801	3375.027294
394.913047	3420.717792
395.296230	3428.864297
395.679351	3455.736167
396.062410	3502.674351
396.445408	3479.457317
396.828343	3526.045140
397.211217	3554.842731
397.594028	3534.095863
397.976778	3578.773089
398.359466	3614.146865
398.742092	3622.857979
399.124656	3634.548415
399.507158	3697.502344
399.889598	3701.389074
400.271977	3767.944907
400.654294	3757.499637
401.036549	3815.067093
401.418742	3810.683810
401.800874	3882.197618
402.182944	3910.521341
402.564952	3998.043333
402.946898	3990.214422
403.328783	3981.692351
403.710606	4035.544477
404.092367	4105.303964
404.474067	4168.033562
404.855705	4156.204494
405.237282	4123.154690
405.618797	4223.440884
406.000250	4297.893685
406.381642	4381.072723
406.762972	4381.539030
407.144240	4347.135676
407.525447	4419.146038
407.906593	4429.177934
408.287677	4514.504504
408.668700	4540.005181
409.049661	4583.253239
409.430560	4620.131800
409.811399	4599.977267
410.192176	4651.432325
410.572891	4732.005087
410.953545	4837.859235
411.334138	4732.393255
411.714669	4838.267568
412.095139	4751.272377
412.475547	4859.480744
412.855894	4861.179613
413.236180	4963.383966
413.616405	4883.920258
413.996568	4986.139734
414.376670	4988.078058
414.756711	4973.952745
415.136691	5038.086304
415.516609	5120.627637
415.896466	5147.544878
416.276262	5215.386205
416.655997	5318.288758
417.035670	5399.612652
417.415283	5526.367424
417.794834	5585.895890
418.174324	5538.698087
418.553753	5526.024626
418.933121	5670.410834
419.312428	5667.391183
419.691674	5578.631587
420.070859	5776.164159
420.449983	5638.233149
420.829045	5799.303055
421.208047	5707.503644
421.586988	5835.387635
421.965867	5872.208222
422.344686	5925.326860
422.723444	6045.490324
423.102141	5673.594323
423.480777	5997.125494
423.859352	5795.590246
424.237866	6083.760243
424.616319	6048.641045
424.994712	6158.356717
425.373044	6046.475870
425.751314	6270.850066
426.129524	5996.117263
426.507673	6175.277350
426.885762	6169.590929
427.263789	6152.425800
427.641756	6175.153842
428.019662	6195.031112
428.397508	6175.121075
428.775292	6108.477021
429.153016	6186.292272
429.530679	6089.008085
429.908282	6070.239869
430.285824	5971.050126
430.663305	6115.600171
431.040726	5985.253577
431.418086	5929.024547
431.795385	5954.885666
432.172624	6022.323702
432.549802	5893.141614
432.926920	5915.441158
433.303977	5817.834337
433.680974	5780.781856
434.057910	5839.763356
434.434786	5805.594415
434.811601	5714.127720
435.188355	5839.060115
435.565050	5715.445982
435.941683	5647.723121
436.318257	5762.716881
436.694770	5670.678015
437.071222	5712.441454
437.447614	5532.981418
437.823946	5446.926402
438.200218	5447.511175
438.576429	5323.357638
438.952580	5327.849307
439.328670	5262.589049
439.704700	5221.906938
440.080670	5108.501141
440.456580	5158.050642
440.832429	5073.170214
441.208218	4906.562600
441.583947	4879.726018
441.959616	4857.960836
442.335224	4801.159635
442.710773	4765.508595
443.086261	4757.992235
443.461689	4598.079273
443.837057	4590.038632
444.212365	4588.173406
444.587612	4515.789998
444.962800	4422.591666
445.337927	4392.185947
445.712995	4211.546281
446.088002	4325.617510
446.462949	4276.856950
446.837837	4207.621743
447.212664	4153.472189
447.587431	4271.588944
447.962139	4425.520577
448.336786	4559.761462
448.711374	4452.437818
449.085901	4143.775529
449.460369	4053.279256
449.834776	3947.014254
450.209124	4036.212430
450.583412	3948.708081
450.957640	3939.066875
451.331808	3817.542299
451.705917	3678.003161
452.079965	3601.428034
452.453954	3577.492636
452.827883	3516.247658
453.201752	3462.677836
453.575562	3418.287956
453.949311	3412.447779
454.323001	3368.541850
454.696632	3316.799447
455.070202	3329.049451
455.443713	3291.520581
455.817164	3261.792897
456.190556	3246.387130
456.563888	3197.319059
456.937160	3174.880884
457.310373	3098.842640
457.683526	3066.334759
458.056619	3031.545756
458.429653	3002.198679
458.802628	2979.213538
459.175542	2952.192954
459.548398	2947.527366
459.921194	2945.793209
460.293930	2933.288627
460.666607	2940.958742
461.039224	2949.866461
461.411782	2933.303750
461.784280	2893.092987
462.156719	2866.150540
462.529099	2837.078206
462.901419	2797.638738
463.273680	2764.173039
463.645882	2750.471182
464.018024	2731.592061
464.390106	2722.487737
464.762130	2731.914695
465.134094	2748.459762
465.505999	2777.312806
465.877845	2793.005918
466.249631	2802.558905
466.621358	2779.898918
466.993026	2751.340782
467.364634	2732.406208
467.736184	2708.823690
468.107674	2688.706966
468.479105	2679.958043
468.850477	2668.358348
469.221790	2658.023983
469.593043	2646.525111
469.964238	2634.038173
470.335373	2633.067751
470.706449	2632.742596
471.077467	2634.648152
471.448425	2650.038795
471.819324	2663.055054
472.190164	2656.529281
472.560945	2638.091260
472.931667	2623.739095
473.302330	2616.731892
473.672934	2610.649739
474.043479	2608.214862
474.413965	2602.538523
474.784393	2601.104315
475.154761	2604.008019
475.525070	2600.927874
475.895321	2599.274376
476.265513	2601.353852
476.635645	2600.086002
477.005719	2599.728080
477.375734	2598.727411
477.745691	2600.151537
478.115588	2602.989706
478.485427	2603.879470
478.855207	2615.088475
479.224928	2622.332613
479.594591	2627.895527
479.964194	2623.658437
480.333739	2622.914867
480.703226	2623.234980
481.072653	2623.723972
481.442022	2624.064250
481.811333	2623.822274
482.180584	2615.368259
482.549777	2613.860954
482.918912	2612.272991
483.287988	2613.301386
483.657005	2610.352311
484.025964	2607.032712
484.394864	2605.880808
484.763706	2604.260077
485.132489	2601.447113
485.501213	2601.729418
485.869879	2600.670775
486.238487	2598.936618
486.607036	2601.845364
486.975527	2594.172728
487.343959	2597.535178
487.712333	2598.074581
488.080648	2597.086515
488.448905	2598.903851
488.817104	2597.683892
489.185244	2600.277565
489.553326	2604.930550
489.921350	2610.619492
490.289315	2620.898405
490.657222	2623.865124
491.025070	2622.907305
491.392861	2626.395783
491.760593	2621.873868
492.128267	2619.018055
492.495883	2613.802981
492.863440	2609.797784
493.230939	2604.723863
493.598380	2603.541713
493.965763	2600.907710
494.333088	2598.981989
494.700354	2597.696495
495.067563	2597.227667
495.434713	2594.999477
495.801805	2596.773963
496.168839	2594.883531
496.535815	2594.901175
496.902733	2594.840681
497.269593	2594.581062
497.636395	2595.884200
498.003139	2597.570466
498.369825	2597.003336
498.736453	2595.846391
499.103023	2595.168356
499.469535	2595.581731
499.835989	2596.456371
500.202385	2592.632656
500.568723	2590.054105
500.935003	2595.818665
501.301226	2590.540577
501.667390	2596.831937
502.033497	2600.854777
502.399546	2597.953593
502.765537	2596.090887
503.131470	2598.508120
503.497345	2597.983840
503.863163	2593.910588
504.228923	2598.871083
504.594625	2599.307143
504.960269	2599.418049
505.325856	2601.200097
505.691385	2599.324787
506.056856	2598.737493
506.422270	2600.879983
506.787625	2596.111052
507.152924	2599.786053
507.518164	2603.377875
507.883347	2597.177256
508.248472	2600.292689
508.613540	2603.299737
508.978550	2601.686568
509.343503	2600.237236
509.708398	2601.021136
510.073236	2604.592793
510.438016	2602.886362
510.802738	2604.360900
511.167403	2604.514655
511.532010	2606.957094
511.896561	2609.016406
512.261053	2609.180243
512.625488	2605.704367
512.989866	2609.107146
513.354186	2609.049173
513.718449	2604.761672
514.082655	2609.759976
514.446803	2609.757455
514.810894	2613.281222
515.174927	2612.724174
515.538904	2611.118567
515.902822	2613.664349
516.266684	2610.261571
516.630488	2611.920110
516.994235	2609.954060
517.357925	2609.518000
517.721558	2612.845162
518.085133	2612.358691
518.448651	2610.125459
518.812112	2606.889039
519.175516	2611.995728
519.538863	2609.197887
519.902152	2613.664349
520.265385	2615.574947
520.628560	2613.745008
520.991678	2612.835080
521.354739	2613.056890
521.717743	2613.697117
522.080690	2613.548403
522.443580	2614.501181
522.806413	2613.485388
523.169189	2615.915225
523.531908	2611.484050
523.894569	2609.528083
524.257174	2612.066304
524.619722	2612.799792
524.982213	2612.371293
525.344647	2613.366921
525.707025	2611.032867
526.069345	2612.159565
526.431608	2612.197374
526.793815	2610.493464
527.155964	2609.775099
527.518057	2609.013885
527.880093	2607.980448
528.242072	2609.397013
528.603995	2607.899790
528.965860	2606.137907
529.327669	2607.181426
529.689421	2605.759820
530.051117	2604.963318
530.412755	2607.171343
530.774337	2604.426435
531.135862	2602.851074
531.497331	2607.136055
531.858743	2603.322422
532.220098	2605.447269
532.581396	2601.764706
532.942638	2601.396702
533.303824	2602.929212
533.664953	2599.473501
534.026025	2600.403594
534.387040	2599.370158
534.747999	2600.917792
535.108902	2600.035590
535.469748	2600.476691
535.830537	2599.594489
536.191270	2598.261104
536.551947	2596.133737
536.912567	2595.581731
537.273131	2595.465784
537.633638	2591.931935
537.994089	2595.347317
538.354483	2595.992585
538.714821	2599.932246
539.075103	2596.673140
539.435328	2595.770774
539.795497	2593.472008
540.155609	2595.029724
540.515665	2594.412183
540.875665	2597.278079
541.235609	2597.310846
541.595496	2594.956627
541.955328	2596.960486
542.315102	2597.086515
542.674821	2594.825558
543.034483	2592.695670
543.394090	2590.898499
543.753640	2593.681216
544.113134	2595.009560
544.472571	2594.921339
544.831953	2597.262955
545.191278	2592.703232
545.550548	2593.963520
545.909761	2595.233891
546.268918	2595.813624
546.628019	2594.994436
546.987064	2592.100814
547.346053	2590.921184
547.704986	2595.591813
548.063863	2596.330342
548.422684	2596.988212
548.781449	2593.340938
549.140158	2591.957141
549.498811	2593.255238
549.857408	2593.230032
550.215949	2595.934611
550.574434	2594.223140
550.932864	2594.424786
551.291237	2594.563417
551.649555	2595.130547
552.007817	2594.006370
552.366022	2595.528798
552.724173	2592.587285
553.082267	2593.540063
553.440305	2594.777667
553.798288	2594.301277
554.156215	2595.659868
554.514086	2593.933273
554.871902	2589.169383
555.229661	2594.044179
555.587365	2588.635021
555.945014	2591.979826
556.302606	2593.434199
556.660143	2595.259097
557.017625	2594.805393
557.375050	2593.484611
557.732421	2590.744743
558.089735	2595.095259
558.446994	2590.442274
558.804197	2594.202975
559.161345	2593.159456
559.518437	2592.362954
559.875474	2593.744230
560.232455	2592.904878
560.589381	2593.020824
560.946251	2594.825557
561.303065	2594.691967
561.659825	2594.379415
562.016528	2595.405290
562.373177	2590.853128
562.729770	2594.268510
563.086307	2592.607450
563.442789	2593.386308
563.799216	2591.548807
564.155587	2592.307501
564.511904	2591.581575
564.868164	2590.091914
565.224370	2591.758015
565.580520	2592.920001
565.936615	2592.738520
566.292654	2593.918150
566.648638	2594.157605
567.004567	2589.917994
567.360441	2591.742892
567.716260	2592.065526
568.072023	2593.847574
568.427732	2595.072574
568.783385	2590.036461
569.138982	2589.905391
569.494525	2594.069384
569.850013	2591.233735
570.205445	2592.667944
570.560823	2591.263982
570.916145	2591.652151
571.271412	2588.796337
571.626625	2590.596029
571.981782	2589.245000
572.336884	2586.434557
572.691931	2587.578899
573.046923	2586.263158
573.401860	2584.718044
573.756743	2591.339600
574.111570	2589.915474
574.466342	2589.512181
574.821059	2589.169383
575.175722	2587.883889
575.530330	2586.535380
575.884882	2586.684094
576.239380	2586.951275
576.593823	2588.478745
576.948211	2585.834660
577.302544	2585.159145
577.656823	2583.407344
578.011047	2586.036306
578.365216	2587.974629
578.719330	2584.019844
579.073389	2581.917683
579.427394	2582.661253
579.781344	2585.156624
580.135239	2581.179154
580.489080	2583.805595
580.842866	2582.918352
581.196597	2584.788620
581.550273	2581.988259
581.903895	2580.664956
582.257463	2583.969433
582.610975	2582.504977
582.964434	2581.186716
583.317837	2581.728640
583.671186	2582.573033
584.024481	2579.669328
584.377721	2580.150759
584.730906	2580.690162
585.084037	2582.091603
585.437113	2579.447518
585.790135	2582.240317
586.143103	2581.148907
586.496016	2580.175964
586.848874	2578.000707
587.201679	2580.526325
587.554428	2581.068249
587.907124	2577.110943
588.259765	2576.745459
588.612352	2578.585480
588.964884	2576.286714
589.317362	2578.814853
589.669786	2577.113463
590.022155	2575.971642
590.374470	2574.161868
590.726731	2575.719584
591.078937	2571.162381
591.431090	2578.890470
591.783188	2575.318813
592.135232	2575.359142
592.487222	2575.664132
592.839157	2573.360324
593.191038	2574.988617
593.542866	2571.202711
593.894639	2571.467371
594.246358	2577.630182
594.598022	2572.349573
594.949633	2572.957032
595.301190	2572.868812
595.652692	2571.913513
596.004141	2570.776733
596.355535	2569.886969
596.706876	2568.782957
597.058162	2568.546022
597.409395	2568.871177
597.760573	2572.437793
598.111698	2570.141548
598.462768	2569.322360
598.813785	2569.254305
599.164748	2568.180539
599.515657	2567.976372
599.866511	2566.267421
600.217312	2568.704819
600.568060	2565.400342
600.918753	2569.549212
601.269392	2568.619119
601.619978	2566.393450
601.970510	2565.806155
602.320988	2567.018553
602.671412	2566.534602
603.021783	2567.447051
603.372100	2568.626681
603.722363	2566.040569
604.072572	2568.152812
604.422728	2566.466547
604.772830	2567.174829
605.122878	2566.559808
605.472872	2567.328584
605.822813	2567.381516
606.172701	2565.904458
606.522534	2563.630897
606.872314	2565.049982
607.222041	2565.493604
607.571714	2564.215671
607.921333	2562.206772
608.270899	2563.880435
608.620411	2559.227450
608.969870	2566.486711
609.319276	2564.888665
609.668627	2566.262380
610.017926	2566.136351
610.367171	2565.281875
610.716362	2567.653738
611.065500	2565.831361
611.414585	2567.071485
611.763616	2566.632905
612.112594	2564.422359
612.461518	2565.070147
612.810389	2565.770867
613.159207	2569.561815
613.507971	2565.473439
613.856682	2567.252967
614.205340	2563.076371
614.553945	2569.120714
614.902496	2567.023594
615.250994	2567.278172
615.599439	2566.693398
615.947830	2566.547205
616.296169	2564.553429
616.644454	2568.553584
616.992686	2566.108625
617.340864	2566.605178
617.688990	2568.989644
618.037063	2569.687844
618.385082	2569.471074
618.733048	2570.149109
619.080961	2570.716239
619.428821	2565.849005
619.776628	2568.440158
620.124382	2567.958728
620.472083	2566.234653
620.819731	2569.453430
621.167326	2569.239181
621.514868	2565.271793
621.862357	2570.118862
622.209793	2565.133161
622.557176	2564.044272
622.904506	2564.291289
623.251783	2565.223902
623.599007	2565.501166
623.946179	2562.693243
624.293297	2566.184242
624.640363	2561.768191
624.987376	2560.699467
625.334336	2556.447253
625.681243	2557.599157
626.028097	2554.415668
626.374899	2559.066133
626.721647	2557.422717
627.068343	2558.604867
627.414987	2559.232491
627.761577	2556.883313
628.108115	2557.238714
628.454600	2553.798127
628.801032	2555.839794
629.147412	2558.753581
629.493739	2554.972716
629.840014	2552.802499
630.186236	2555.464228
630.532405	2554.191337
630.878521	2553.188147
631.224585	2553.586398
631.570597	2553.621687
631.916556	2555.746533
632.262462	2554.990360
632.608316	2555.428940
632.954117	2552.787376
633.299866	2554.675288
633.645562	2554.173693
633.991206	2552.056408
634.336797	2549.619010
634.682336	2549.881150
635.027823	2551.953065
635.373257	2549.553475
635.718639	2549.195553
636.063968	2551.388455
636.409245	2549.200595
636.754470	2548.330996
637.099642	2544.124153
637.444762	2546.506098
637.789829	2547.161448
638.134845	2545.238248
638.479808	2545.896118
638.824719	2543.471323
639.169577	2545.641540
639.514383	2542.200953
639.859137	2542.190870
640.203839	2543.819163
640.548489	2542.142979
640.893086	2542.498381
641.237632	2542.778165
641.582125	2544.381252
641.926566	2541.603576
642.270955	2542.962167
642.615292	2538.788091
642.959576	2542.692465
643.303809	2536.093595
643.647990	2544.729091
643.992118	2541.129707
644.336195	2541.858154
644.680219	2542.500901
645.024192	2540.481919
645.368112	2542.591642
645.711981	2540.096271
646.055797	2545.666746
646.399562	2542.500901
646.743274	2544.149358
647.086935	2546.387631
647.430544	2548.474668
647.774101	2546.914431
648.117606	2547.060625
648.461059	2550.607077
648.804460	2547.892415
649.147810	2545.016437
649.491108	2545.119781
649.834354	2542.069882
650.177548	2542.916796
650.520690	2544.492157
650.863781	2542.029553
651.206820	2541.722043
651.549807	2540.045859
651.892742	2541.233051
652.235626	2539.133410
652.578458	2539.897145
652.921238	2539.740869
653.263967	2537.676517
653.606644	2535.995292
653.949269	2535.942360
654.291843	2535.347504
654.634365	2538.367155
654.976836	2534.288862
655.319255	2538.949408
655.661622	2535.788605
656.003938	2538.452855
656.346203	2536.078471
656.688416	2534.366999
657.030577	2538.263811
657.372687	2535.423121
657.714746	2535.057637
658.056753	2536.040663
658.398708	2532.262318
658.740612	2536.038142
659.082465	2533.285672
659.424266	2534.646783
659.766016	2527.445495
660.107715	2532.723583
660.449362	2528.713345
660.790958	2534.828265
661.132503	2533.583100
661.473996	2536.519572
661.815438	2533.588141
662.156829	2534.765251
662.498168	2534.757689
662.839456	2537.996630
663.180693	2532.128727
663.521879	2537.328677
663.863013	2534.014119
664.204097	2537.545447
664.545129	2538.818338
664.886110	2534.092257
665.227040	2534.828265
665.567918	2537.358924
665.908746	2533.290713
666.249522	2537.220292
666.590248	2535.339942
666.930922	2537.283307
667.271545	2537.729449
667.612118	2538.440252
667.952639	2532.786598
668.293109	2536.035621
668.633528	2537.159799
668.973896	2536.413708
669.314213	2537.096784
669.654480	2533.636032
669.994695	2534.175436
670.334859	2534.644263
670.674973	2536.476722
671.015035	2536.043183
671.355047	2535.166022
671.695008	2538.616692
672.034918	2534.810621
672.374777	2533.681403
672.714585	2534.782895
673.054342	2537.361445
673.394049	2535.523944
673.733705	2534.356917
674.073310	2537.966383
674.412864	2533.855322
674.752368	2533.416742
675.091820	2535.060158
675.431223	2531.712832
675.770574	2535.387833
676.109875	2529.555218
676.449125	2533.157122
676.788324	2527.657224
677.127473	2525.764270
677.466571	2528.264683
677.805619	2529.966072
678.144616	2528.166380
678.483562	2530.228212
678.822458	2529.018335
679.161303	2530.384488
679.500098	2530.676875
679.838842	2528.539426
680.177535	2527.289219
680.516179	2530.765095
680.854771	2531.060002
681.193314	2530.082019
681.531805	2532.232071
681.870247	2536.693492
682.208638	2537.880684
682.546978	2538.742721
682.885268	2535.690302
683.223508	2538.170550
683.561697	2535.231557
683.899836	2535.022349
684.237925	2535.617206
684.575963	2534.455220
684.913951	2534.553522
685.251889	2533.331042
685.589776	2533.116793
685.927614	2535.965045
686.265401	2532.292565
686.603137	2533.925898
686.940824	2534.485467
687.278460	2537.782381
687.616046	2535.523944
687.953582	2535.859181
688.291068	2537.535365
688.628504	2538.352032
688.965889	2535.801208
689.303224	2539.534182
689.640510	2537.605941
689.977745	2536.131403
690.314930	2534.843388
690.652065	2533.015970
690.989150	2532.975641
691.326185	2531.034797
691.663170	2526.885927
692.000105	2527.095135
692.336990	2526.903571
692.673825	2524.703108
693.010610	2524.889630
693.347345	2519.830832
693.684030	2518.399145
694.020665	2518.794875
694.357251	2515.351767
694.693786	2520.738240
695.030272	2521.065915
695.366707	2518.583147
695.703093	2520.526512
696.039429	2520.944927
696.375716	2519.873682
696.711952	2516.980060
697.048139	2516.670029
697.384276	2516.733043
697.720363	2517.474093
698.056400	2518.754546
698.392388	2517.027951
698.728326	2516.692714
699.064214	2516.977539
699.400053	2518.436953
699.735842	2514.978722
700.071581	2517.179185
700.407270	2515.538290
700.742910	2514.416633
701.078501	2513.990656
701.414042	2514.184740
701.749533	2513.607528
702.084974	2512.299348
702.420366	2512.064935
702.755709	2512.662312
703.091002	2510.514780
703.426246	2510.696262
703.761440	2512.490912
704.096584	2512.962260
704.431679	2512.405213
704.766725	2512.516118
705.101721	2509.849348
705.436668	2511.162568
705.771565	2505.980262
706.106413	2513.221880
706.441212	2513.138701
706.775961	2513.587363
707.110661	2511.220542
707.445311	2514.260357
707.779913	2511.200377
708.114465	2512.836231
708.448967	2510.487054
708.783421	2515.503002
709.117825	2515.840759
709.452180	2517.574916
709.786485	2515.906294
710.120742	2515.472755
710.454949	2515.495440
710.789107	2514.716582
711.123216	2516.226407
711.457275	2521.980884
711.791286	2521.877541
712.125247	2523.258817
712.459159	2521.300329
712.793023	2522.384177
713.126837	2521.854856
713.460602	2524.977850
713.794318	2520.894516
714.127985	2522.795031
714.461602	2520.430730
714.795171	2519.883764
715.128691	2516.632220
715.462162	2516.758249
715.795584	2514.535100
716.128957	2512.251458
716.462281	2513.221880
716.795556	2514.628362
717.128782	2511.835562
717.461960	2513.877230
717.795088	2511.903618
718.128167	2511.069307
718.461198	2510.108967
718.794180	2509.438494
719.127113	2507.653925
719.459997	2507.706857
719.792833	2507.913545
720.125619	2508.238699
720.458357	2506.736435
720.791046	2507.376662
721.123686	2505.607217
721.456278	2503.817607
721.788821	2506.375993
722.121315	2503.721825
722.453761	2504.992196
722.786158	2506.907834
723.118506	2506.794408
723.450805	2509.607372
723.783056	2505.909686
724.115259	2508.263905
724.447412	2506.817094
724.779518	2504.727535
725.111574	2503.444562
725.443582	2506.607886
725.775542	2506.872546
726.107453	2507.500170
726.439315	2506.711229
726.771129	2510.658453
727.102895	2503.157216
727.434612	2504.818276
727.766281	2507.043946
728.097901	2511.349091
728.429473	2511.543175
728.760996	2512.621982
729.092471	2511.172651
729.423897	2512.309431
729.755276	2512.082579
730.086606	2509.937568
730.417887	2512.604338
730.749120	2514.041067
731.080305	2513.776407
731.411442	2514.167096
731.742530	2514.761952
732.073570	2513.854544
732.404562	2516.170955
732.735506	2518.285719
733.066401	2515.639113
733.397249	2516.536438
733.728048	2515.613907
734.058798	2511.477640
734.389501	2510.315654
734.720156	2509.141066
735.050762	2507.565705
735.381320	2506.295334
735.711831	2505.024963
736.042293	2506.827176
736.372707	2506.547392
736.703073	2505.443379
737.033391	2504.036897
737.363661	2502.655621
737.693883	2505.400529
738.024056	2505.224089
738.354182	2505.012361
738.684260	2506.335663
739.014290	2506.098729
739.344272	2508.319358
739.674207	2507.059069
740.004093	2510.645850
740.333931	2508.004285
740.663722	2510.572753
740.993464	2508.200890
741.323159	2511.586025
741.652806	2510.363545
741.982405	2508.417660
742.311956	2509.768689
742.641460	2508.168123
742.970915	2508.894049
743.300323	2504.341887
743.629683	2503.437000
743.958996	2504.178050
744.288260	2500.893738
744.617477	2503.305930
744.946647	2501.392812
745.275768	2503.484891
745.604842	2501.816269
745.933869	2504.200735
746.262847	2501.196207
746.591778	2502.459016
746.920662	2501.740652
747.249498	2503.724346
747.578286	2503.051352
747.907027	2500.800477
748.235720	2504.450272
748.564365	2502.678306
748.892963	2502.627895
749.221514	2502.600168
749.550017	2502.527072
749.878473	2504.961949
750.206881	2506.459172
750.535242	2502.310302
750.863555	2502.401043
751.191821	2504.493122
751.520039	2502.942967
751.848210	2502.751403
752.176334	2500.510610
752.504411	2501.254180
752.832440	2501.382730
753.160421	2503.351300
753.488356	2501.627226
753.816243	2501.912051
754.144082	2500.452637
754.471875	2501.987668
754.799620	2500.031701
755.127318	2500.011536
755.454969	2500.261073
755.782572	2500.462719
756.110129	2500.823162
756.437638	2499.756958
756.765100	2499.958604
757.092515	2500.588748
757.419882	2501.720487
757.747203	2498.350476
758.074477	2502.267452
758.401703	2499.948522
758.728882	2501.997751
759.056014	2500.041783
759.383099	2501.360045
759.710138	2499.434324
760.037129	2501.675117
760.364073	2500.934067
760.690970	2498.531957
761.017820	2504.420025
761.344623	2503.426918
761.671379	2504.719974
761.998088	2504.762823
762.324751	2511.616272
762.651366	2518.154649
762.977935	2528.781401
763.304456	2535.261804
763.630931	2539.849254
763.957359	2538.341949
764.283740	2531.861546
764.610074	2528.544467
764.936362	2523.278982
765.262602	2516.937210
765.588796	2513.143742
765.914943	2510.764317
766.241044	2505.637464
766.567097	2500.417349
766.893104	2502.406084
767.219064	2499.121772
767.544978	2500.475322
767.870845	2495.033397
768.196665	2498.347955
768.522438	2497.248984
768.848165	2493.639518
769.173846	2497.624550
769.499479	2495.721514
769.825066	2496.631442
770.150607	2497.682523
770.476101	2494.264621
770.801548	2494.430979
771.126949	2492.434682
771.452303	2493.891575
771.777611	2494.894765
772.102872	2493.021976
772.428087	2491.265134
772.753256	2491.847387
773.078378	2489.944352
773.403453	2488.648775
773.728482	2490.231698
774.053465	2489.180617
774.378401	2490.559372
774.703291	2488.910915
775.028135	2489.823364
775.352932	2489.420072
775.677683	2487.123826
776.002388	2484.494864
776.327046	2485.341778
776.651658	2482.864051
776.976224	2481.757518
777.300743	2487.892602
777.625216	2491.418889
777.949643	2485.729947
778.274024	2486.075266
778.598359	2485.329175
778.922647	2488.701707
779.246889	2486.571820
779.571086	2485.127529
779.895236	2489.863693
780.219339	2487.549804
780.543397	2488.253045
780.867409	2486.415544
781.191374	2485.679536
781.515294	2488.726913
781.839167	2488.192551
782.162995	2485.135091
782.486776	2488.278250
782.810511	2487.731285
783.134201	2485.999649
783.457844	2484.381438
783.781441	2487.693477
784.104993	2486.967550
784.428498	2489.775473
784.751958	2483.453866
785.075372	2486.942345
785.398739	2486.844042
785.722061	2485.682056
786.045337	2487.721203
786.368568	2487.448981
786.691752	2487.078456
787.014891	2484.731799
787.337983	2490.098107
787.661030	2492.411997
787.984031	2493.132882
788.306987	2494.347800
788.629897	2495.986175
788.952760	2496.533140
789.275579	2493.480721
789.598351	2494.272182
789.921078	2491.764208
790.243759	2491.008035
790.566395	2491.711276
790.888984	2490.584578
791.211529	2490.420741
791.534027	2487.945534
791.856480	2486.150883
792.178888	2487.930411
792.501249	2482.735502
792.823566	2484.023517
793.145836	2484.444453
793.468062	2484.976295
793.790241	2488.742037
794.112375	2485.636686
794.434464	2486.995277
794.756507	2486.881851
795.078505	2487.312869
795.400457	2484.235245
795.722364	2489.316728
796.044226	2491.875114
796.366042	2489.074753
796.687812	2489.679691
797.009538	2491.272696
797.331218	2490.987871
797.652852	2489.387304
797.974442	2490.602222
798.295986	2488.880668
798.617484	2488.590802
798.938938	2490.085504
799.260346	2487.829588
799.581709	2487.776656
799.903026	2492.674137
800.224299	2488.517705
800.545526	2488.563076
800.866708	2486.644917
801.187845	2486.355050
801.508936	2485.840853
801.829983	2486.750781
802.150984	2485.467807
802.471940	2487.297746
802.792851	2488.152222
803.113717	2486.528970
803.434538	2485.787920
803.755314	2483.655512
804.076045	2482.054946
804.396731	2485.719865
804.717372	2487.224649
805.037967	2486.660040
805.358518	2484.749443
805.679024	2486.544093
805.999485	2487.524598
806.319901	2486.929742
806.640272	2486.904536
806.960598	2485.639206
807.280879	2487.832108
807.601115	2485.334217
807.921306	2486.352530
808.241453	2483.978146
808.561554	2484.562920
808.881611	2486.039978
809.201623	2481.402117
809.521590	2486.528970
809.841513	2484.023517
810.161390	2488.416882
810.481223	2483.577374
810.801011	2483.126191
811.120755	2488.104331
811.440453	2487.272540
811.760107	2484.925883
812.079716	2487.070894
812.399281	2482.508650
812.718801	2484.109216
813.038276	2485.240955
813.357707	2485.674494
813.677093	2486.420585
813.996434	2484.441932
814.315731	2484.522591
814.634983	2483.365646
814.954191	2486.995277
815.273354	2484.489823
815.592473	2486.715493
815.911547	2487.481748
816.230577	2485.994608
816.549562	2485.924032
816.868502	2484.699031
817.187399	2488.880668
817.506250	2488.522746
817.825058	2488.792448
818.143821	2489.775473
818.462539	2490.017448
818.781213	2493.959631
819.099843	2493.858808
819.418429	2496.918788
819.736970	2500.094715
820.055466	2505.095540
820.373919	2508.533607
820.692327	2514.328413
821.010691	2529.386339
821.329011	2556.790052
821.647286	2605.227978
821.965517	2662.180414
822.283704	2705.988041
822.601847	2728.925291
822.919945	2714.658826
823.237999	2688.308714
823.556010	2663.327277
823.873976	2637.204017
824.191897	2607.806529
824.509775	2585.433888
824.827609	2571.825293
825.145398	2556.527912
825.463144	2554.627397
825.780845	2550.400389
826.098502	2555.532284
826.416116	2566.486711
826.733685	2581.232086
827.051210	2586.419433
827.368692	2584.433219
827.686129	2576.148082
828.003522	2556.835422
828.320872	2545.966694
828.638177	2532.481608
828.955439	2524.080525
829.272656	2517.854700
829.589830	2511.858247
829.906960	2507.590911
830.224046	2502.968173
830.541088	2498.398367
830.858086	2498.564725
831.175041	2494.846874
831.491952	2497.637152
831.808819	2492.089363
832.125642	2494.614981
832.442421	2496.283603
832.759157	2502.413646
833.075849	2512.453104
833.392497	2525.176976
833.709101	2533.003367
834.025662	2535.856660
834.342179	2531.788449
834.658653	2524.904754
834.975083	2515.790348
835.291469	2513.244565
835.607811	2505.589573
835.924110	2504.079747
836.240366	2495.948366
836.556578	2495.981133
836.872746	2492.296050
837.188871	2490.304794
837.504952	2487.920328
837.820990	2484.515029
838.136984	2483.277426
838.452935	2487.809423
838.768842	2484.726757
839.084706	2487.794300
839.400526	2488.225318
839.716303	2493.868890
840.032037	2497.309478
840.347727	2496.976761
840.663373	2498.032883
840.978977	2490.191368
841.294537	2492.631287
841.610054	2491.421410
841.925527	2487.474186
842.240957	2482.291880
842.556344	2485.175420
842.871687	2480.691314
843.186987	2480.605614
843.502244	2482.022178
843.817458	2481.611324
844.132629	2481.339102
844.447756	2475.851806
844.762840	2476.116467
845.077881	2476.381127
845.392879	2476.698720
845.707833	2474.949440
846.022745	2475.332567
846.337613	2475.869450
846.652438	2476.378607
846.967221	2474.604121
847.281960	2477.333905
847.596656	2474.536065
847.911309	2476.360963
848.225919	2474.541106
848.540485	2476.086220
848.855009	2474.551188
849.169490	2475.861888
849.483928	2476.063535
849.798323	2475.173771
850.112675	2477.432208
850.426984	2476.706282
850.741251	2473.802577
851.055474	2474.921713
851.369654	2475.614872
851.683792	2473.759727
851.997887	2474.871302
852.311938	2477.394399
852.625947	2476.817187
852.939914	2473.638740
853.253837	2475.592187
853.567718	2474.468009
853.881555	2475.682928
854.195350	2474.558750
854.509103	2475.798874
854.822812	2475.451034
855.136479	2474.420118
855.450103	2474.301651
855.763685	2472.353245
856.077224	2473.663945
856.390720	2473.802577
856.704173	2470.485498
857.017584	2476.035808
857.330953	2477.452372
857.644278	2476.229893
857.957561	2477.313741
858.270802	2475.693010
858.584000	2477.109574
858.897155	2475.892135
859.210268	2475.821559
859.523339	2476.887763
859.836367	2478.178299
860.149352	2477.240644
860.462295	2475.952629
860.775195	2473.621096
861.088054	2473.154789
861.400869	2474.404995
861.713642	2477.026395
862.026373	2475.733339
862.339062	2476.597897
862.651708	2477.180150
862.964312	2474.334419
863.276873	2476.769296
863.589392	2475.587146
863.901869	2475.476240
864.214303	2473.104377
864.526696	2475.773668
864.839045	2477.069245
865.151353	2476.396251
865.463619	2475.309882
865.775842	2478.523618
866.088023	2474.725108
866.400162	2477.424646
866.712258	2478.511015
867.024313	2476.590335
867.336325	2477.734677
867.648296	2474.964563
867.960224	2478.536221
868.272110	2476.260140
868.583954	2478.833649
868.895755	2477.033957
869.207515	2478.936992
869.519233	2475.173771
869.830909	2475.955150
870.142542	2476.744090
870.454134	2477.384317
870.765684	2477.991776
871.077191	2478.342136
871.388657	2474.762917
871.700081	2473.129583
872.011463	2476.310551
872.322803	2474.631847
872.634101	2478.561426
872.945357	2477.875829
873.256571	2479.746097
873.567744	2482.266674
873.878874	2479.783906
874.189963	2481.132415
874.501010	2482.503609
874.812015	2480.298104
875.122979	2483.078300
875.433900	2479.569657
875.744780	2478.816005
876.055618	2480.025882
876.366415	2481.639051
876.677169	2481.845738
876.987882	2482.117960
877.298554	2480.270378
877.609183	2480.484627
877.919771	2481.578557
878.230317	2483.227014
878.540822	2484.031078
878.851285	2488.510143
879.161707	2489.205823
879.472087	2490.781183
879.782425	2499.613285
880.092722	2506.222238
880.402977	2528.027748
880.713191	2552.938610
881.023363	2577.940213
881.333494	2594.979313
881.643583	2604.648246
881.953631	2607.219234
882.263637	2595.806062
882.573602	2592.413365
882.883526	2581.935327
883.193408	2569.841599
883.503248	2561.410269
883.813048	2552.376522
884.122806	2544.333361
884.432522	2535.387833
884.742197	2528.189065
885.051831	2520.569361
885.361424	2513.657939
885.670975	2507.747187
885.980485	2504.959428
886.289954	2501.228975
886.599382	2497.964828
886.908768	2489.979640
887.218113	2488.124495
887.527417	2489.014259
887.836680	2482.579226
888.145901	2484.038640
888.455082	2482.483444
888.764221	2485.011583
889.073319	2481.634010
889.382376	2484.875472
889.691392	2483.259782
890.000366	2483.199288
890.309300	2482.354895
890.618193	2483.380769
890.927044	2483.882364
891.235855	2480.091417
891.544625	2482.803557
891.853353	2483.216932
892.162041	2482.488485
892.470687	2485.687097
892.779293	2487.443939
893.087858	2487.610298
893.396381	2488.250524
893.704864	2496.427276
894.013306	2500.903820
894.321707	2508.102588
894.630068	2514.467045
894.938387	2517.474093
895.246665	2514.368742
895.554903	2516.425533
895.863100	2508.039573
896.171256	2507.941271
896.479371	2502.441372
896.787446	2502.259891
897.095480	2496.686895
897.403473	2496.313850
897.711425	2493.069867
898.019336	2492.275885
898.327207	2488.366471
898.635038	2486.806233
898.942827	2485.240955
899.250576	2486.039978
899.558284	2482.649802
899.865952	2483.937817
900.173579	2484.046202
900.481165	2482.949751
900.788711	2479.995635
901.096216	2480.590491
901.403681	2482.039823
901.711105	2481.674339
902.018489	2480.217445
902.325832	2476.454224
902.633135	2475.929944
902.940397	2481.240800
903.247619	2482.828763
903.554800	2496.054230
903.861941	2508.304234
904.169041	2517.771521
904.476101	2525.139167
904.783121	2523.127747
905.090100	2521.219670
905.397039	2517.489216
905.703938	2509.095695
906.010796	2509.922444
906.317614	2500.848367
906.624391	2499.673779
906.931129	2495.615650
907.237826	2495.237563
907.544483	2491.302943
907.851099	2490.287150
908.157675	2483.153918
908.464211	2481.392034
908.770707	2479.310038
909.077163	2481.578557
909.383578	2478.546303
909.689954	2475.125880
909.996289	2474.452886
910.302584	2475.720736
910.608839	2474.377269
910.915054	2477.381796
911.221229	2477.487661
911.527363	2475.088071
911.833458	2473.668987
912.139513	2475.188894
912.445527	2478.062352
912.751502	2474.692341
913.057436	2479.173927
913.363331	2480.499750
913.669186	2481.260964
913.975000	2479.733495
914.280775	2485.508136
914.586510	2487.068373
914.892205	2494.393170
915.197859	2499.494818
915.503475	2508.405057
915.809050	2513.673063
916.114585	2520.171110
916.420081	2522.230422
916.725536	2523.432737
917.030952	2523.478107
917.336328	2514.525018
917.641665	2514.028464
917.946961	2509.473782
918.252218	2506.870026
918.557435	2500.525734
918.862612	2502.181753
919.167750	2500.770230
919.472848	2497.044817
919.777906	2499.139416
920.082925	2492.676657
920.387904	2490.168683
920.692843	2485.374546
920.997743	2485.412354
921.302603	2484.215080
921.607423	2482.349853
921.912204	2480.834987
922.216946	2481.041674
922.521647	2479.902373
922.826310	2480.063690
923.130932	2478.067393
923.435516	2478.780717
923.740059	2477.444811
924.044564	2474.699903
924.349028	2476.928093
924.653454	2474.591518
924.957840	2474.634368
925.262186	2474.876343
925.566493	2472.300313
925.870761	2473.532875
926.174989	2473.747124
926.479178	2473.001034
926.783328	2472.380972
927.087438	2471.435755
927.391509	2472.930457
927.695541	2473.401805
927.999533	2472.786785
928.303486	2473.245530
928.607400	2467.745631
928.911275	2468.423666
929.215110	2472.849799
929.518906	2469.691516
929.822663	2471.960035
930.126381	2470.167905
930.430060	2471.402988
930.733699	2469.585652
931.037299	2467.995168
931.340861	2468.980713
931.644383	2471.738225
931.947866	2470.281331
932.251309	2469.593214
932.554714	2469.270580
932.858080	2469.983903
933.161407	2465.900568
933.464694	2471.871815
933.767943	2468.998358
934.071153	2469.237812
934.374323	2468.479119
934.677455	2469.384006
934.980548	2469.981382
935.283602	2470.336784
935.586617	2468.897534
935.889593	2469.033646
936.192530	2467.901907
936.495428	2471.387864
936.798287	2469.000878
937.101108	2471.559264
937.403890	2469.565487
937.706632	2473.169912
938.009336	2470.324181
938.312002	2474.717547
938.614628	2472.259984
938.917216	2472.406177
939.219765	2473.409367
939.522275	2472.615385
939.824747	2474.911631
940.127179	2471.012298
940.429573	2473.449696
940.731929	2475.836683
941.034246	2473.623616
941.336524	2474.422639
941.638763	2474.967084
941.940964	2473.545478
942.243126	2473.116980
942.545250	2474.374748
942.847335	2474.823411
943.149381	2471.874336
943.451389	2473.293421
943.753359	2473.202680
944.055290	2473.540437
944.357182	2471.118163
944.659036	2469.565487
944.960851	2473.416929
945.262628	2473.545478
945.564367	2470.740076
945.866067	2472.587659
946.167729	2471.297124
946.469352	2470.568677
946.770937	2468.862246
947.072484	2472.557412
947.373992	2470.445169
947.675462	2472.030612
947.976893	2469.041207
948.278286	2469.588172
948.579641	2468.363172
948.880958	2465.497276
949.182236	2471.261836
949.483476	2468.610189
949.784678	2473.661425
950.085841	2468.857205
950.386967	2470.334263
950.688054	2470.364510
950.989103	2472.265025
951.290114	2471.690334
951.591087	2473.913482
951.892021	2469.688996
952.192917	2469.963738
952.493776	2472.310396
952.794596	2469.605817
953.095378	2471.294603
953.396122	2472.938019
953.696828	2468.874849
953.997496	2471.760910
954.298126	2470.661938
954.598718	2472.194449
954.899272	2467.377627
955.199788	2472.365848
955.500266	2469.837710
955.800706	2470.054479
956.101108	2471.879377
956.401472	2467.566670
956.701798	2469.363841
957.002087	2470.482977
957.302337	2468.542133
957.602550	2471.909624
957.902724	2465.799745
958.202861	2467.911989
958.502960	2470.573718
958.803022	2467.496094
959.103045	2466.298820
959.403031	2465.540126
959.702979	2467.433079
960.002889	2468.242184
960.302762	2466.127420
960.602596	2466.845785
960.902393	2466.548357
961.202153	2466.129941
961.501875	2465.756896
961.801559	2467.397791
962.101205	2467.475929
962.400814	2466.747482
962.700385	2465.681278
962.999918	2464.395784
963.299414	2463.687502
963.598873	2463.863942
963.898293	2458.018724
964.197677	2466.192955
964.497022	2467.054993
964.796331	2467.014663
965.095601	2463.581638
965.394835	2464.904941
965.694030	2465.295630
965.993189	2465.141875
966.292309	2466.024077
966.591393	2466.760085
966.890439	2464.184056
967.189447	2468.252267
967.488419	2465.981227
967.787353	2468.353090
968.086249	2465.124231
968.385108	2465.565332
968.683930	2464.211782
968.982714	2465.968624
969.281462	2466.780250
969.580172	2467.130610
969.878844	2466.026597
970.177480	2468.161526
970.476078	2467.896865
970.774639	2466.782770
971.073162	2466.419807
971.371649	2466.613892
971.670098	2467.009622
971.968510	2465.560291
972.266885	2466.984417
972.565223	2468.428707
972.863524	2466.591207
973.161788	2466.860908
973.460014	2467.841413
973.758204	2465.441823
974.056356	2468.025415
974.354471	2464.468881
974.652550	2467.138172
974.950591	2467.944756
975.248595	2469.860395
975.546563	2469.416773
975.844493	2466.021556
976.142386	2467.947277
976.440243	2467.828810
976.738062	2463.369909
977.035845	2468.012812
977.333590	2466.142544
977.631299	2467.380147
977.928971	2462.338993
978.226606	2463.359827
978.524204	2468.060703
978.821765	2459.964610
979.119290	2464.915023
979.416777	2466.205558
979.714228	2465.812348
980.011642	2462.807821
980.309020	2468.673203
980.606360	2466.959211
980.903664	2466.354272
981.200931	2466.583645
981.498162	2468.360652
981.795356	2468.932822
982.092513	2467.886783
982.389633	2469.038687
982.686717	2471.171095
982.983764	2473.225365
983.280775	2472.544809
983.577749	2473.306023
983.874686	2472.804429
984.171587	2471.755869
984.468451	2470.470374
984.765279	2470.911475
985.062070	2470.835858
985.358824	2471.168574
985.655543	2468.952987
985.952224	2469.787298
986.248869	2468.698409
986.545478	2468.209417
986.842050	2467.778398
987.138586	2467.561629
987.435086	2467.087760
987.731549	2466.528192
988.027975	2465.134313
988.324366	2466.220682
988.620719	2467.082719
988.917037	2464.970476
989.213318	2462.991823
989.509563	2464.151288
989.805772	2466.160188
990.101944	2465.525002
990.398080	2465.283027
990.694180	2465.404015
990.990244	2463.140537
991.286271	2466.170270
991.582262	2462.475104
991.878217	2466.553398
992.174136	2465.288068
992.470019	2465.280507
992.765865	2463.369909
993.061676	2460.377984
993.357450	2463.468212
993.653188	2458.442181
993.948890	2465.323356
994.244556	2468.234623
994.540186	2464.773871
994.835780	2467.992647
995.131337	2466.374437
995.426859	2467.284365
995.722345	2467.274283
996.017795	2468.605147
996.313208	2467.468367
996.608586	2467.848974
996.903928	2469.729325
997.199234	2469.227730
997.494504	2466.823100
997.789738	2469.343677
998.084936	2466.969293
998.380099	2467.070116
998.675225	2467.422997
998.970316	2467.153295
999.265371	2466.926443
999.560390	2465.406535
999.855373	2466.568521
1000.150320	2467.314612
1000.445232	2467.367544
1000.740108	2465.318315
1001.034948	2462.578448
1001.329752	2466.094653
1001.624521	2464.070630
1001.919254	2463.712708
1002.213951	2465.212451
1002.508613	2463.977368
1002.803239	2467.128089
1003.097829	2463.632049
1003.392384	2465.885445
1003.686903	2464.645321
1003.981386	2466.770167
1004.275834	2462.434775
1004.570246	2466.167750
1004.864623	2464.211782
1005.158964	2464.912502
1005.453270	2465.156998
1005.747540	2464.864611
1006.041775	2465.724128
1006.335974	2463.682461
1006.630138	2463.889148
1006.924266	2463.712708
1007.218359	2464.852008
1007.512416	2462.333952
1007.806438	2457.474280
1008.100425	2461.507203
1008.394376	2457.542335
1008.688292	2463.077522
1008.982172	2460.352779
1009.276017	2465.030969
1009.569827	2465.136834
1009.863602	2464.047944
1010.157341	2461.562656
1010.451045	2464.093315
1010.744714	2464.340331
1011.038347	2466.722277
1011.331945	2461.834878
1011.625508	2465.056175
1011.919036	2462.570886
1012.212528	2464.501648
1012.505986	2466.102215
1012.799408	2464.683130
1013.092795	2460.947635
1013.386147	2465.522482
1013.679464	2462.396967
1013.972745	2462.878397
1014.265992	2463.528706
1014.559204	2462.712039
1014.852380	2461.406380
1015.145521	2463.558952
1015.438628	2460.667851
1015.731699	2463.443006
1016.024736	2462.439816
1016.317737	2463.223716
1016.610703	2463.763119
1016.903635	2464.352934
1017.196531	2463.647173
1017.489393	2463.448047
1017.782219	2465.018367
1018.075011	2461.237501
1018.367768	2465.136834
1018.660490	2463.410238
1018.953177	2463.410238
1019.245829	2463.410238
