Dividing Wavelength (nm)	Counts (n)	Blue Motor Position (mm): 0.000000	Red Motor Position (mm): 18.500000	
326.493990	2052.170552
326.888308	2052.170552
327.282561	2052.170552
327.676750	2027.390760
328.070874	2030.682633
328.464933	2033.989630
328.858929	2045.377597
329.252859	2051.742054
329.646726	2064.118086
330.040528	2083.556776
330.434265	2098.733169
330.827938	2120.311828
331.221547	2140.698254
331.615091	2160.663744
332.008571	2182.665860
332.401986	2203.463140
332.795338	2221.684391
333.188625	2241.130642
333.581847	2262.253077
333.975006	2278.485592
334.368100	2296.439661
334.761129	2311.033802
335.154095	2328.647593
335.546996	2344.217197
335.939833	2360.744620
336.332606	2372.258615
336.725315	2384.528784
337.117960	2395.725186
337.510540	2406.263718
337.903056	2415.909966
338.295508	2421.349371
338.687896	2428.165011
339.080220	2432.243305
339.472480	2435.325970
339.864676	2441.995417
340.256807	2445.524225
340.648875	2443.759821
341.040879	2447.699482
341.432818	2448.531273
341.824694	2447.326437
342.216506	2451.850873
342.608253	2449.292487
342.999937	2448.889195
343.391557	2447.568413
343.783113	2445.229317
344.174605	2443.429625
344.566033	2442.005499
344.957397	2441.990376
345.348697	2439.144644
345.739934	2438.804367
346.131106	2439.936106
346.522215	2434.655497
346.913260	2431.489652
347.304241	2433.251536
347.695159	2429.115269
348.086012	2428.759867
348.476802	2426.350196
348.867528	2422.150915
349.258191	2418.947262
349.648789	2424.061512
350.039324	2417.780234
350.429796	2421.329207
350.820203	2419.700914
351.210548	2422.082859
351.600828	2418.443146
351.991045	2418.112951
352.381198	2419.461459
352.771288	2417.918866
353.161314	2420.699062
353.551276	2419.171593
353.941175	2418.054977
354.331010	2421.009093
354.720782	2417.538259
355.110490	2419.726120
355.500135	2418.301994
355.889717	2420.454567
356.279235	2417.187899
356.668689	2419.978177
357.058080	2421.523291
357.447408	2421.465318
357.836672	2420.900709
358.225873	2422.531522
358.615010	2418.624628
359.004084	2423.512026
359.393095	2422.491193
359.782043	2424.943714
360.170927	2425.084866
360.559748	2424.850453
360.948505	2426.120823
361.337199	2427.245001
361.725830	2428.399425
362.114398	2426.602254
362.502903	2427.643252
362.891344	2428.175094
363.279722	2427.925557
363.668037	2430.761206
364.056289	2428.147367
364.444478	2432.076947
364.832603	2430.201638
365.220665	2432.061823
365.608665	2431.524940
365.996601	2429.480752
366.384474	2433.117945
366.772284	2432.089550
367.160031	2432.076947
367.547715	2433.410332
367.935336	2433.611978
368.322893	2435.434355
368.710388	2431.691298
369.097820	2432.684406
369.485189	2429.939497
369.872495	2436.361927
370.259738	2436.671958
370.646918	2439.321085
371.034035	2439.479881
371.421090	2439.552978
371.808081	2440.142793
372.195010	2443.878288
372.581875	2442.547423
372.968678	2443.142279
373.355418	2444.546241
373.742096	2451.722323
374.128710	2448.732919
374.515262	2450.202415
374.901751	2457.423868
375.288177	2459.679785
375.674540	2461.141719
376.060841	2464.796556
376.447079	2471.425673
376.833254	2471.627319
377.219367	2477.096971
377.605417	2486.841522
377.991404	2489.830926
378.377329	2499.497338
378.763191	2502.317864
379.148991	2513.005110
379.534727	2518.557941
379.920402	2530.041689
380.306013	2537.036290
380.691563	2552.943651
381.077049	2561.712738
381.462474	2573.882084
381.847835	2587.893971
382.233134	2602.783019
382.618371	2610.914400
383.003545	2629.238994
383.388657	2642.310706
383.773706	2664.574962
384.158693	2675.002589
384.543618	2694.221988
384.928480	2709.499205
385.313280	2730.399828
385.698017	2747.529669
386.082692	2772.599327
386.467305	2788.574744
386.851856	2809.861016
387.236344	2841.577435
387.620770	2854.916328
388.005133	2877.339381
388.389435	2911.168044
388.773674	2926.384767
389.157851	2957.907102
389.541965	2986.543376
389.926018	2996.870180
390.310008	3030.252700
390.693936	3056.633058
391.077802	3086.592636
391.461606	3113.454424
391.845348	3134.150881
392.229027	3163.134995
392.612645	3203.975903
392.996200	3231.518247
393.379694	3270.798918
393.763125	3312.637974
394.146494	3338.592355
394.529801	3375.284393
394.913047	3422.126795
395.296230	3427.372115
395.679351	3447.302317
396.062410	3500.632683
396.445408	3481.705671
396.828343	3522.292001
397.211217	3557.648133
397.594028	3530.022610
397.976778	3575.897110
398.359466	3610.423973
398.742092	3621.534676
399.124656	3637.734424
399.507158	3697.857745
399.889598	3702.261193
400.271977	3765.721758
400.654294	3753.655757
401.036549	3814.971311
401.418742	3809.098367
401.800874	3883.105026
402.182944	3911.511928
402.564952	3995.558045
402.946898	3991.966222
403.328783	3979.426352
403.710606	4033.921225
404.092367	4107.728759
404.474067	4166.185979
404.855705	4151.657373
405.237282	4123.167293
405.618797	4223.171182
406.000250	4299.431237
406.381642	4385.115729
406.762972	4381.211355
407.144240	4345.459492
407.525447	4414.188063
407.906593	4432.570630
408.287677	4517.002396
408.668700	4537.892937
409.049661	4580.294082
409.430560	4614.586531
409.811399	4590.885546
410.192176	4640.964369
410.572891	4722.888160
410.953545	4831.454449
411.334138	4725.086103
411.714669	4830.403368
412.095139	4739.163525
412.475547	4845.579762
412.855894	4849.050597
413.236180	4943.032828
413.616405	4864.191702
413.996568	4955.761741
414.376670	4952.764775
414.756711	4940.870173
415.136691	5002.014328
415.516609	5078.838992
415.896466	5096.712403
416.276262	5168.160676
416.655997	5258.445221
417.035670	5336.963713
417.415283	5452.922854
417.794834	5503.778014
418.174324	5448.398418
418.553753	5433.980718
418.933121	5567.437705
419.312428	5559.172733
419.691674	5465.860975
420.070859	5656.257794
420.449983	5514.924005
420.829045	5668.101985
421.208047	5568.196398
421.586988	5681.123286
421.965867	5715.332556
422.344686	5756.977528
422.723444	5860.238003
423.102141	5503.868755
423.480777	5801.314476
423.859352	5609.685095
424.237866	5869.627152
424.616319	5831.526111
424.994712	5915.128606
425.373044	5809.198840
425.751314	6011.588564
426.129524	5747.096866
426.507673	5902.349281
426.885762	5888.493670
427.263789	5870.015320
427.641756	5878.585282
428.019662	5886.313371
428.397508	5863.749166
428.775292	5788.693947
429.153016	5851.826837
429.530679	5752.422845
429.908282	5726.420574
430.285824	5634.623683
430.663305	5750.378657
431.040726	5618.131548
431.418086	5564.191202
431.795385	5578.762657
432.172624	5626.746880
432.549802	5498.247868
432.926920	5503.200802
433.303977	5411.769395
433.680974	5369.746336
434.057910	5409.064816
434.434786	5370.936048
434.811601	5281.354745
435.188355	5377.681112
435.565050	5258.351960
435.941683	5196.991035
436.318257	5282.380619
436.694770	5187.821176
437.071222	5218.247060
437.447614	5051.367224
437.823946	4969.597188
438.200218	4963.998987
438.576429	4846.081357
438.952580	4838.446529
439.328670	4775.878248
439.704700	4735.773349
440.080670	4632.321310
440.456580	4657.486750
440.832429	4582.277776
441.208218	4436.356537
441.583947	4406.752361
441.959616	4380.130028
442.335224	4325.569619
442.710773	4285.681490
443.086261	4268.551649
443.461689	4138.689005
443.837057	4124.097385
444.212365	4111.776805
444.587612	4049.495870
444.962800	3965.301039
445.337927	3937.486473
445.712995	3787.174389
446.088002	3868.629353
446.462949	3821.111436
446.837837	3766.876183
447.212664	3713.641598
447.587431	3793.886685
447.962139	3902.979775
448.336786	3990.327847
448.711374	3901.535484
449.085901	3673.385464
449.460369	3598.274792
449.834776	3516.398892
450.209124	3567.586768
450.583412	3505.928416
450.957640	3493.875017
451.331808	3401.546284
451.705917	3296.319759
452.079965	3239.470667
452.453954	3217.319837
452.827883	3172.695543
453.201752	3132.094090
453.575562	3099.319029
453.949311	3083.845207
454.323001	3053.278171
454.696632	3020.467821
455.070202	3024.205836
455.443713	2997.104593
455.817164	2976.592138
456.190556	2963.414562
456.563888	2927.980292
456.937160	2910.454720
457.310373	2865.517875
457.683526	2839.341684
458.056619	2819.005669
458.429653	2802.513534
458.802628	2785.915535
459.175542	2764.951897
459.548398	2764.004160
459.921194	2764.667072
460.293930	2753.611821
460.666607	2761.143305
461.039224	2764.573810
461.411782	2754.995618
461.784280	2729.021073
462.156719	2716.808878
462.529099	2702.938143
462.901419	2677.480316
463.273680	2657.103972
463.645882	2649.761532
464.018024	2642.111581
464.390106	2635.399284
464.762130	2644.493526
465.134094	2657.794610
465.505999	2679.390913
465.877845	2692.979343
466.249631	2699.928574
466.621358	2688.951462
466.993026	2673.429749
467.364634	2662.346772
467.736184	2644.518732
468.107674	2634.648152
468.479105	2632.563635
468.850477	2623.393776
469.221790	2617.707355
469.593043	2605.820314
469.964238	2601.779829
470.335373	2594.722214
470.706449	2599.448296
471.077467	2601.547936
471.448425	2616.018568
471.819324	2625.415279
472.190164	2624.349075
472.560945	2611.390789
472.931667	2591.999991
473.302330	2591.329517
473.672934	2585.121336
474.043479	2584.796182
474.413965	2582.003383
474.784393	2580.649833
475.154761	2584.206367
475.525070	2581.101016
475.895321	2577.042887
476.265513	2578.691345
476.635645	2579.412230
477.005719	2577.675552
477.375734	2578.512384
477.745691	2579.820563
478.115588	2580.917014
478.485427	2586.633682
478.855207	2593.184662
479.224928	2602.057093
479.594591	2607.040273
479.964194	2601.739500
480.333739	2605.752258
480.703226	2604.305447
481.072653	2603.612289
481.442022	2604.935592
481.811333	2603.624892
482.180584	2599.491145
482.549777	2597.081474
482.918912	2593.154415
483.287988	2594.490321
483.657005	2594.681885
484.025964	2592.410845
484.394864	2592.695670
484.763706	2591.657192
485.132489	2589.597881
485.501213	2590.207861
485.869879	2589.509661
486.238487	2586.263158
486.607036	2589.096286
486.975527	2586.777355
487.343959	2589.275247
487.712333	2590.376739
488.080648	2588.274578
488.448905	2588.299784
488.817104	2586.764752
489.185244	2592.582244
489.553326	2595.332193
489.921350	2599.758327
490.289315	2610.402723
490.657222	2615.441356
491.025070	2616.731892
491.392861	2615.592591
491.760593	2609.684358
492.128267	2606.994903
492.495883	2604.249995
492.863440	2602.283945
493.230939	2596.627770
493.598380	2595.284302
493.965763	2596.340424
494.333088	2590.464959
494.700354	2591.972264
495.067563	2589.187027
495.434713	2588.428333
495.801805	2587.982191
496.168839	2590.618715
496.535815	2589.053436
496.902733	2589.340782
497.269593	2587.682242
497.636395	2587.851121
498.003139	2590.071749
498.369825	2588.899681
498.736453	2589.797007
499.103023	2589.454208
499.469535	2590.913622
499.835989	2588.839187
500.202385	2586.235431
500.568723	2584.957499
500.935003	2588.118302
501.301226	2583.699731
501.667390	2590.641400
502.033497	2592.584765
502.399546	2591.705083
502.765537	2589.197109
503.131470	2594.686926
503.497345	2594.399580
503.863163	2587.611666
504.228923	2591.011925
504.594625	2591.783221
504.960269	2590.550659
505.325856	2592.839343
505.691385	2590.495206
506.056856	2593.890423
506.422270	2594.644076
506.787625	2593.587954
507.152924	2595.243973
507.518164	2595.228850
507.883347	2592.060485
508.248472	2594.215578
508.613540	2594.487800
508.978550	2594.732296
509.343503	2594.908737
509.708398	2596.655496
510.073236	2597.943511
510.438016	2597.520054
510.802738	2596.665579
511.167403	2599.223964
511.532010	2598.369489
511.896561	2600.320415
512.261053	2600.388471
512.625488	2601.285796
512.989866	2600.242277
513.354186	2600.753954
513.718449	2601.978955
514.082655	2603.990375
514.446803	2601.058944
514.810894	2605.190170
515.174927	2604.897783
515.538904	2603.831579
515.902822	2605.636312
516.266684	2602.087340
516.630488	2602.828389
516.994235	2603.710591
517.357925	2603.687906
517.721558	2605.172526
518.085133	2604.597834
518.448651	2605.595983
518.812112	2601.431990
519.175516	2602.606578
519.538863	2600.552308
519.902152	2604.784357
520.265385	2607.884667
520.628560	2605.603544
520.991678	2605.895931
521.354739	2604.776795
521.717743	2607.534306
522.080690	2605.270828
522.443580	2604.504573
522.806413	2605.575818
523.169189	2604.113883
523.531908	2605.328802
523.894569	2606.178236
524.257174	2600.844695
524.619722	2601.941146
524.982213	2604.013060
525.344647	2602.397371
525.707025	2602.959459
526.069345	2602.238574
526.431608	2601.076588
526.793815	2603.040118
527.155964	2601.825200
527.518057	2601.555498
527.880093	2599.516351
528.242072	2600.454006
528.603995	2600.373347
528.965860	2596.282451
529.327669	2598.480394
529.689421	2598.583738
530.051117	2596.295054
530.412755	2595.896803
530.774337	2598.803028
531.135862	2596.453850
531.497331	2595.001998
531.858743	2594.129878
532.220098	2597.472163
532.581396	2593.900506
532.942638	2594.492841
533.303824	2592.352872
533.664953	2596.053078
534.026025	2594.671802
534.387040	2591.808427
534.747999	2593.527460
535.108902	2593.809765
535.469748	2591.873962
535.830537	2590.321287
536.191270	2590.906060
536.551947	2588.544280
536.912567	2586.426995
537.273131	2589.733992
537.633638	2586.948755
537.994089	2588.740885
538.354483	2589.723910
538.714821	2589.582757
539.075103	2590.969075
539.435328	2590.439754
539.795497	2587.972109
540.155609	2591.732810
540.515665	2588.831626
540.875665	2588.672829
541.235609	2588.771132
541.595496	2589.766760
541.955328	2589.849939
542.315102	2588.687953
542.674821	2587.805751
543.034483	2587.059660
543.394090	2587.654516
543.753640	2588.153590
544.113134	2588.909763
544.472571	2584.934814
544.831953	2586.492530
545.191278	2586.805082
545.550548	2589.819692
545.909761	2588.168714
546.268918	2584.649988
546.628019	2587.878847
546.987064	2587.704928
547.346053	2586.711820
547.704986	2587.762901
548.063863	2586.946234
548.422684	2586.021182
548.781449	2585.391038
549.140158	2587.127716
549.498811	2587.334403
549.857408	2584.713003
550.215949	2587.848601
550.574434	2586.878178
550.932864	2586.260637
551.291237	2588.672829
551.649555	2585.698548
552.007817	2584.992787
552.366022	2583.896336
552.724173	2585.554876
553.082267	2585.212077
553.440305	2588.904722
553.798288	2584.612180
554.156215	2587.152921
554.514086	2585.950606
554.871902	2581.292580
555.229661	2582.205029
555.587365	2581.554720
555.945014	2583.563620
556.302606	2586.101841
556.660143	2583.367015
557.017625	2588.022520
557.375050	2585.055801
557.732421	2584.531521
558.089735	2585.975812
558.446994	2587.248703
558.804197	2587.301635
559.161345	2585.413723
559.518437	2584.251737
559.875474	2586.280802
560.232455	2586.719382
560.589381	2583.482961
560.946251	2589.118971
561.303065	2586.976481
561.659825	2587.019331
562.016528	2583.399782
562.373177	2583.369535
562.729770	2586.386666
563.086307	2582.787282
563.442789	2588.657706
563.799216	2584.854155
564.155587	2585.859865
564.511904	2583.830801
564.868164	2585.897674
565.224370	2584.405492
565.580520	2586.495051
565.936615	2586.076635
566.292654	2585.007910
566.648638	2584.224011
567.004567	2588.781214
567.360441	2584.738209
567.716260	2587.798189
568.072023	2585.098651
568.427732	2584.158476
568.783385	2583.450194
569.138982	2584.836511
569.494525	2585.640575
569.850013	2584.934814
570.205445	2582.978846
570.560823	2581.985739
570.916145	2584.803744
571.271412	2582.608321
571.626625	2586.656368
571.981782	2583.311562
572.336884	2581.587487
572.691931	2579.069431
573.046923	2579.097158
573.401860	2571.827814
573.756743	2582.913311
574.111570	2581.920204
574.466342	2584.667632
574.821059	2580.740574
575.175722	2580.261664
575.530330	2578.555233
575.884882	2581.118660
576.239380	2577.320151
576.593823	2581.411047
576.948211	2577.869637
577.302544	2578.262847
577.656823	2576.148082
578.011047	2579.318968
578.365216	2581.484144
578.719330	2576.135480
579.073389	2575.840572
579.427394	2576.228741
579.781344	2576.916858
580.135239	2577.272260
580.489080	2575.470047
580.842866	2575.737228
581.196597	2576.679924
581.550273	2575.860737
581.903895	2574.668504
582.257463	2576.226220
582.610975	2577.426015
582.964434	2575.162537
583.317837	2572.256312
583.671186	2576.523648
584.024481	2574.706312
584.377721	2575.941395
584.730906	2573.793864
585.084037	2574.865109
585.437113	2572.273956
585.790135	2572.089954
586.143103	2572.667166
586.496016	2572.765468
586.848874	2572.203380
587.201679	2575.795202
587.554428	2573.262022
587.907124	2570.378482
588.259765	2570.098698
588.612352	2571.956363
588.964884	2568.873698
589.317362	2571.530386
589.669786	2570.343194
590.022155	2570.650704
590.374470	2567.406722
590.726731	2568.770354
591.078937	2563.630898
591.431090	2567.525189
591.783188	2567.905796
592.135232	2569.960066
592.487222	2570.915365
592.839157	2569.261866
593.191038	2568.687175
593.542866	2567.363872
593.894639	2569.294634
594.246358	2568.540981
594.598022	2562.945301
594.949633	2565.864129
595.301190	2565.566701
595.652692	2563.648542
596.004141	2563.885476
596.355535	2564.727348
596.706876	2563.434292
597.058162	2562.337842
597.409395	2563.759447
597.760573	2561.775753
598.111698	2562.897410
598.462768	2563.855229
598.813785	2562.819272
599.164748	2562.284909
599.515657	2560.938921
599.866511	2560.202913
600.217312	2559.960937
600.568060	2561.611915
600.918753	2561.034703
601.269392	2562.234498
601.619978	2559.804662
601.970510	2560.996895
602.320988	2561.795917
602.671412	2561.458160
603.021783	2560.144940
603.372100	2560.853222
603.722363	2562.602502
604.072572	2560.061761
604.422728	2563.565362
604.772830	2559.252655
605.122878	2560.487738
605.472872	2559.887841
605.822813	2560.381874
606.172701	2561.748027
606.522534	2559.504713
606.872314	2563.182235
607.222041	2557.485731
607.571714	2555.653272
607.921333	2555.103786
608.270899	2556.588406
608.620411	2558.819116
608.969870	2560.311298
609.319276	2560.061761
609.668627	2560.102090
610.017926	2563.613253
610.367171	2560.800290
610.716362	2560.835578
611.065500	2560.840619
611.414585	2561.284240
611.763616	2564.316494
612.112594	2561.722821
612.461518	2562.068140
612.810389	2561.624518
613.159207	2561.513613
613.507971	2559.106462
613.856682	2561.722821
614.205340	2560.901113
614.553945	2563.585527
614.902496	2560.601164
615.250994	2562.882286
615.599439	2562.642831
615.947830	2563.179714
616.296169	2561.894220
616.644454	2561.869014
616.992686	2562.529405
617.340864	2562.814231
617.688990	2561.208623
618.037063	2563.625856
618.385082	2563.908161
618.733048	2564.485373
619.080961	2565.307081
619.428821	2562.874724
619.776628	2564.802966
620.124382	2563.565363
620.472083	2563.603171
620.819731	2561.755588
621.167326	2562.557132
621.514868	2560.822975
621.862357	2558.524209
622.209793	2561.513613
622.557176	2560.621329
622.904506	2558.441030
623.251783	2561.536298
623.599007	2559.043448
623.946179	2554.140925
624.293297	2556.457336
624.640363	2556.550597
624.987376	2551.607746
625.334336	2550.793599
625.681243	2552.605894
626.028097	2548.096582
626.374899	2553.087324
626.721647	2554.718137
627.068343	2551.665719
627.414987	2552.447098
627.761577	2551.799309
628.108115	2552.762170
628.454600	2549.878630
628.801032	2548.399051
629.147412	2552.056408
629.493739	2550.813764
629.840014	2549.745039
630.186236	2550.808723
630.532405	2549.480379
630.878521	2548.426777
631.224585	2549.190512
631.570597	2550.380225
631.916556	2549.631613
632.262462	2548.008362
632.608316	2547.685728
632.954117	2550.145811
633.299866	2548.633465
633.645562	2548.557847
633.991206	2548.696479
634.336797	2544.688762
634.682336	2547.738660
635.027823	2544.673638
635.373257	2545.344112
635.718639	2545.840666
636.063968	2545.023999
636.409245	2543.436035
636.754470	2541.422094
637.099642	2541.414532
637.444762	2539.173740
637.789829	2537.159799
638.134845	2541.848072
638.479808	2541.480068
638.824719	2541.921168
639.169577	2541.580891
639.514383	2538.699871
639.859137	2541.157434
640.203839	2541.031405
640.548489	2540.267670
640.893086	2538.856147
641.237632	2534.445137
641.582125	2538.546116
641.926566	2538.566281
642.270955	2535.783564
642.615292	2534.258615
642.959576	2536.945550
643.303809	2530.863398
643.647990	2541.364121
643.992118	2535.738193
644.336195	2536.892618
644.680219	2536.486805
645.024192	2534.558563
645.368112	2537.421939
645.711981	2541.870757
646.055797	2539.508976
646.399562	2541.021323
646.743274	2541.507794
647.086935	2539.912269
647.430544	2542.936961
647.774101	2541.316230
648.117606	2543.010058
648.461059	2543.768751
648.804460	2542.871426
649.147810	2541.066693
649.491108	2539.705581
649.834354	2541.424615
650.177548	2542.604245
650.520690	2539.695499
650.863781	2537.454706
651.206820	2536.212062
651.549807	2536.509490
651.892742	2538.936805
652.235626	2536.025539
652.578458	2534.591331
652.921238	2533.058820
653.263967	2533.023532
653.606644	2533.492359
653.949269	2534.092257
654.291843	2534.621578
654.634365	2532.710980
654.976836	2533.462112
655.319255	2532.670651
655.661622	2530.994467
656.003938	2531.203675
656.346203	2532.577390
656.688416	2533.908254
657.030577	2530.064375
657.372687	2529.908099
657.714746	2530.820548
658.056753	2535.614685
658.398708	2529.502286
658.740612	2528.007584
659.082465	2531.097811
659.424266	2528.572193
659.766016	2527.937008
660.107715	2529.330887
660.449362	2526.545649
660.790958	2531.251566
661.132503	2531.223840
661.473996	2531.526309
661.815438	2530.704601
662.156829	2532.721063
662.498168	2530.528161
662.839456	2532.252235
663.180693	2529.361134
663.521879	2532.650487
663.863013	2530.681916
664.204097	2530.104704
664.545129	2532.085877
664.886110	2529.159488
665.227040	2533.807431
665.567918	2532.781557
665.908746	2532.784077
666.249522	2533.552853
666.590248	2531.884231
666.930922	2533.152081
667.271545	2532.574869
667.612118	2534.382123
667.952639	2531.496062
668.293109	2529.799714
668.633528	2532.567307
668.973896	2533.517565
669.314213	2534.281300
669.654480	2530.946577
669.994695	2531.682585
670.334859	2532.660569
670.674973	2528.448685
671.015035	2531.087729
671.355047	2533.333563
671.695008	2532.274921
672.034918	2527.009435
672.374777	2531.662420
672.714585	2529.971113
673.054342	2530.427338
673.394049	2530.079498
673.733705	2529.527492
674.073310	2530.240815
674.412864	2529.696370
674.752368	2530.079498
675.091820	2531.508665
675.431223	2530.984385
675.770574	2530.702081
676.109875	2528.118489
676.449125	2526.026410
676.788324	2523.208405
677.127473	2526.719569
677.466571	2521.953158
677.805619	2525.141688
678.144616	2527.944569
678.483562	2527.579086
678.822458	2525.303005
679.161303	2527.548839
679.500098	2523.364681
679.838842	2528.846936
680.177535	2524.710669
680.516179	2527.014477
680.854771	2525.613036
681.193314	2525.416431
681.531805	2532.625281
681.870247	2529.570342
682.208638	2531.004550
682.546978	2534.135106
682.885268	2535.612164
683.223508	2531.170908
683.561697	2531.589324
683.899836	2532.184180
684.237925	2529.809796
684.575963	2529.824920
684.913951	2529.691329
685.251889	2530.833151
685.589776	2529.892975
685.927614	2532.726104
686.265401	2528.804086
686.603137	2529.814837
686.940824	2529.983716
687.278460	2532.867256
687.616046	2531.995137
687.953582	2534.480425
688.291068	2532.930271
688.628504	2534.939170
688.965889	2532.378264
689.303224	2532.075795
689.640510	2532.617719
689.977745	2533.595703
690.314930	2530.455064
690.652065	2528.148736
690.989150	2531.375075
691.326185	2526.283509
691.663170	2525.960875
692.000105	2525.003056
692.336990	2523.150432
692.673825	2522.043899
693.010610	2521.204547
693.347345	2518.111799
693.684030	2517.998373
694.020665	2519.712365
694.357251	2513.221880
694.693786	2518.000893
695.030272	2514.509894
695.366707	2516.932169
695.703093	2516.838908
696.039429	2515.036695
696.375716	2517.607683
696.711952	2515.134998
697.048139	2515.855883
697.384276	2514.509894
697.720363	2514.827487
698.056400	2516.859072
698.392388	2514.711541
698.728326	2516.274298
699.064214	2513.181550
699.400053	2514.043588
699.735842	2511.918741
700.071581	2512.354801
700.407270	2512.891684
700.742910	2514.696417
701.078501	2510.739111
701.414042	2512.707682
701.749533	2513.433608
702.084974	2508.752897
702.420366	2512.415295
702.755709	2509.980418
703.091002	2511.359173
703.426246	2508.042094
703.761440	2510.303052
704.096584	2510.928155
704.431679	2507.744666
704.766725	2508.747856
705.101721	2508.362207
705.436668	2509.708195
705.771565	2506.794408
706.106413	2509.935047
706.441212	2506.176867
706.775961	2507.522855
707.110661	2509.824142
707.445311	2509.763648
707.779913	2509.816580
708.114465	2510.136693
708.448967	2510.184584
708.783421	2514.172137
709.117825	2511.470079
709.452180	2513.413443
709.786485	2509.743483
710.120742	2512.727847
710.454949	2509.158710
710.789107	2514.676252
711.123216	2512.727847
711.457275	2520.115658
711.791286	2517.315297
712.125247	2519.959382
712.459159	2518.147087
712.793023	2517.388393
713.126837	2517.690862
713.460602	2518.363857
713.794318	2517.958044
714.127985	2518.421830
714.461602	2517.159021
714.795171	2514.585512
715.128691	2514.346057
715.462162	2513.892353
715.795584	2512.216169
716.128957	2511.679287
716.462281	2511.545696
716.795556	2513.541993
717.128782	2510.270284
717.461960	2512.402692
717.795088	2508.931858
718.128167	2508.415139
718.461198	2508.221055
718.794180	2507.427073
719.127113	2504.881291
719.459997	2508.742814
719.792833	2503.898266
720.125619	2504.422546
720.458357	2503.542864
720.791046	2505.292145
721.123686	2506.179388
721.456278	2503.628564
721.788821	2505.070334
722.121315	2503.295848
722.453761	2505.521517
722.786158	2503.951198
723.118506	2501.687720
723.450805	2504.868688
723.783056	2502.516989
724.115259	2502.348111
724.447412	2501.226454
724.779518	2504.914058
725.111574	2502.108656
725.443582	2504.677124
725.775542	2501.332318
726.107453	2507.275839
726.439315	2504.656959
726.771129	2509.589728
727.102895	2500.452637
727.434612	2507.222907
727.766281	2502.058244
728.097901	2507.704337
728.429473	2508.369769
728.760996	2507.893380
729.092471	2509.511590
729.423897	2509.859430
729.755276	2506.917917
730.086606	2508.553771
730.417887	2512.163237
730.749120	2511.651560
731.080305	2509.993021
731.411442	2512.561488
731.742530	2514.328413
732.073570	2510.260202
732.404562	2511.828001
732.735506	2516.148269
733.066401	2511.707013
733.397249	2514.698938
733.728048	2511.643998
734.058798	2508.573936
734.389501	2505.183760
734.720156	2507.172495
735.050762	2504.268790
735.381320	2504.820797
735.711831	2502.627895
736.042293	2504.029336
736.372707	2502.743841
736.703073	2501.186125
737.033391	2501.544047
737.363661	2502.983296
737.693883	2505.342556
738.024056	2502.539675
738.354182	2501.811228
738.684260	2507.212824
739.014290	2504.480519
739.344272	2505.806342
739.674207	2506.817094
740.004093	2508.311796
740.333931	2506.774244
740.663722	2507.255674
740.993464	2506.403719
741.323159	2508.127794
741.652806	2505.768534
741.982405	2508.352125
742.311956	2503.058913
742.641460	2509.410767
742.970915	2503.888183
743.300323	2501.347442
743.629683	2499.862822
743.958996	2503.608399
744.288260	2496.177738
744.617477	2502.300220
744.946647	2502.310302
745.275768	2500.248470
745.604842	2499.835096
745.933869	2498.844509
746.262847	2499.827534
746.591778	2501.448265
746.920662	2499.149499
747.249498	2498.269817
747.578286	2496.495331
747.907027	2501.173522
748.235720	2501.493635
748.564365	2500.651763
748.892963	2502.948008
749.221514	2500.999602
749.550017	2501.140754
749.878473	2500.026659
750.206881	2499.688902
750.535242	2500.818121
750.863555	2501.425580
751.191821	2499.693943
751.520039	2499.023470
751.848210	2500.041783
752.176334	2499.089005
752.504411	2499.663696
752.832440	2498.269817
753.160421	2498.907523
753.488356	2498.816783
753.816243	2499.096567
754.144082	2497.344766
754.471875	2498.486587
754.799620	2494.365444
755.127318	2498.448778
755.454969	2498.620177
755.782572	2496.699498
756.110129	2497.165805
756.437638	2499.177225
756.765100	2498.426093
757.092515	2496.906185
757.419882	2500.442555
757.747203	2497.130517
758.074477	2498.116062
758.401703	2499.338542
758.728882	2498.708398
759.056014	2499.164622
759.383099	2498.728562
759.710138	2500.654283
760.037129	2495.706391
760.364073	2499.076402
760.690970	2495.179590
761.017820	2499.399036
761.344623	2500.624036
761.671379	2502.461537
761.998088	2504.775426
762.324751	2504.737618
762.651366	2513.804133
762.977935	2524.196472
763.304456	2530.414735
763.630931	2535.269366
763.957359	2534.724921
764.283740	2533.953625
764.610074	2525.234949
764.936362	2517.229597
765.262602	2513.463855
765.588796	2512.551406
765.914943	2502.862308
766.241044	2503.603358
766.567097	2500.508090
766.893104	2497.800990
767.219064	2495.678664
767.544978	2496.515496
767.870845	2494.090701
768.196665	2493.826040
768.522438	2494.650269
768.848165	2492.979126
769.173846	2492.631287
769.499479	2494.549446
769.825066	2492.119610
770.150607	2496.558346
770.476101	2490.292191
770.801548	2492.149857
771.126949	2489.672129
771.452303	2491.686070
771.777611	2491.749085
772.102872	2491.013076
772.428087	2489.379743
772.753256	2487.975781
773.078378	2488.636172
773.403453	2486.831439
773.728482	2489.518374
774.053465	2487.829588
774.378401	2487.940493
774.703291	2488.076604
775.028135	2488.404279
775.352932	2488.563076
775.677683	2488.071563
776.002388	2484.726758
776.327046	2482.813640
776.651658	2484.109216
776.976224	2481.661736
777.300743	2485.601398
777.625216	2485.482931
777.949643	2485.182982
778.274024	2485.349340
778.598359	2484.978815
778.922647	2487.464104
779.246889	2488.938642
779.571086	2484.242807
779.895236	2485.825729
780.219339	2485.190544
780.543397	2485.276243
780.867409	2488.222798
781.191374	2488.056440
781.515294	2487.350678
781.839167	2488.157263
782.162995	2486.569299
782.486776	2487.136429
782.810511	2486.171048
783.134201	2487.665750
783.457844	2484.167189
783.781441	2486.992756
784.104993	2486.539052
784.428498	2483.726088
784.751958	2484.182313
785.075372	2484.026037
785.398739	2485.651809
785.722061	2484.522591
786.045337	2488.406800
786.368568	2485.359422
786.691752	2487.451501
787.014891	2484.865389
787.337983	2487.847232
787.661030	2487.703559
787.984031	2489.460401
788.306987	2493.337048
788.629897	2490.322438
788.952760	2495.204796
789.275579	2489.901502
789.598351	2490.675319
789.921078	2489.750267
790.243759	2489.445278
790.566395	2486.806233
790.888984	2488.706748
791.211529	2486.581902
791.534027	2485.563589
791.856480	2484.464618
792.178888	2484.101654
792.501249	2483.458907
792.823566	2480.305666
793.145836	2480.731643
793.468062	2484.532673
793.790241	2482.133084
794.112375	2486.385297
794.434464	2482.690131
794.756507	2485.999649
795.078505	2483.607621
795.400457	2487.184320
795.722364	2485.513178
796.044226	2489.178096
796.366042	2488.240442
796.687812	2488.066522
797.009538	2487.683394
797.331218	2489.016779
797.652852	2489.480566
797.974442	2488.167345
798.295986	2486.357571
798.617484	2489.556183
798.938938	2488.552993
799.260346	2488.868065
799.581709	2488.608446
799.903026	2487.138950
800.224299	2488.225318
800.545526	2485.162817
800.866708	2482.226345
801.187845	2486.949906
801.508936	2485.785400
801.829983	2484.421768
802.150984	2485.445122
802.471940	2486.833960
802.792851	2485.341778
803.113717	2484.351192
803.434538	2484.923363
803.755314	2485.911429
804.076045	2482.932107
804.396731	2484.714155
804.717372	2481.409678
805.037967	2485.414875
805.358518	2482.604432
805.679024	2484.426809
805.999485	2482.977477
806.319901	2483.988228
806.640272	2481.064359
806.960598	2485.951758
807.280879	2482.911942
807.601115	2481.898670
807.921306	2486.460914
808.241453	2479.289873
808.561554	2481.122332
808.881611	2483.365646
809.201623	2479.660398
809.521590	2484.749443
809.841513	2483.647951
810.161390	2483.312714
810.481223	2485.379587
810.801011	2483.005203
811.120755	2484.580564
811.440453	2485.316573
811.760107	2484.013434
812.079716	2482.675008
812.399281	2483.688280
812.718801	2484.721716
813.038276	2482.538897
813.357707	2483.103506
813.677093	2481.215594
813.996434	2483.751294
814.315731	2481.374390
814.634983	2483.960502
814.954191	2483.479072
815.273354	2483.809268
815.592473	2484.199957
815.911547	2487.718682
816.230577	2483.592498
816.549562	2483.794144
816.868502	2486.705410
817.187399	2486.617190
817.506250	2484.734319
817.825058	2485.543424
818.143821	2488.416882
818.462539	2488.018631
818.781213	2489.362098
819.099843	2489.563745
819.418429	2494.972903
819.736970	2496.664210
820.055466	2502.277535
820.373919	2507.933709
820.692327	2514.484689
821.010691	2525.726462
821.329011	2554.876934
821.647286	2599.881835
821.965517	2655.871410
822.283704	2693.377595
822.601847	2718.056563
822.919945	2700.944367
823.237999	2680.205060
823.556010	2656.181441
823.873976	2628.462657
824.191897	2603.584562
824.509775	2581.617734
824.827609	2567.275652
825.145398	2551.206974
825.463144	2549.092210
825.780845	2545.805378
826.098502	2552.172355
826.416116	2560.964127
826.733685	2572.170612
827.051210	2582.815008
827.368692	2578.101530
827.686129	2566.340518
828.003522	2552.636141
828.320872	2540.565098
828.638177	2529.066226
828.955439	2519.001563
829.272656	2515.278670
829.589830	2507.076713
829.906960	2504.394819
830.224046	2497.750578
830.541088	2494.625063
830.858086	2493.526092
831.175041	2492.391832
831.491952	2490.284630
831.808819	2492.197747
832.125642	2492.381750
832.442421	2496.560866
832.759157	2499.409118
833.075849	2510.371107
833.392497	2521.408713
833.709101	2529.146885
834.025662	2531.927081
834.342179	2527.873993
834.658653	2520.181192
834.975083	2513.990656
835.291469	2511.870850
835.607811	2504.188132
835.924110	2499.101608
836.240366	2493.873931
836.556578	2493.954590
836.872746	2490.025010
837.188871	2485.747591
837.504952	2484.699031
837.820990	2481.956643
838.136984	2482.077631
838.452935	2481.024030
838.768842	2482.680049
839.084706	2481.840697
839.400526	2490.274547
839.716303	2492.137254
840.032037	2495.590444
840.347727	2497.024652
840.663373	2494.473828
840.978977	2485.238435
841.294537	2488.129536
841.610054	2486.828919
841.925527	2486.448312
842.240957	2484.716675
842.556344	2481.349184
842.871687	2481.087044
843.186987	2477.167547
843.502244	2478.357260
843.817458	2477.280973
844.132629	2476.537403
844.447756	2477.994297
844.762840	2476.373566
845.077881	2477.540593
845.392879	2476.421457
845.707833	2475.960191
846.022745	2474.430201
846.337613	2475.453555
846.652438	2473.553040
846.967221	2476.766776
847.281960	2474.435242
847.596656	2475.204018
847.911309	2472.910293
848.225919	2475.919862
848.540485	2473.933647
848.855009	2473.542958
849.169490	2473.598410
849.483928	2473.069089
849.798323	2476.045891
850.112675	2474.508339
850.426984	2473.111939
850.741251	2473.547999
851.055474	2472.489357
851.369654	2474.228555
851.683792	2474.455407
851.997887	2470.896352
852.311938	2474.425160
852.625947	2474.440283
852.939914	2473.689151
853.253837	2477.777527
853.567718	2473.706795
853.881555	2471.962556
854.195350	2474.561271
854.509103	2473.716877
854.822812	2473.064048
855.136479	2476.141672
855.450103	2474.808287
855.763685	2473.222844
856.077224	2470.898873
856.390720	2471.760910
856.704173	2470.228399
857.017584	2471.705457
857.330953	2474.004223
857.644278	2473.222844
857.957561	2478.238792
858.270802	2473.721919
858.584000	2476.476909
858.897155	2473.855509
859.210268	2474.803246
859.523339	2475.100674
859.836367	2472.968266
860.149352	2475.317444
860.462295	2472.275107
860.775195	2476.867599
861.088054	2474.168061
861.400869	2474.152937
861.713642	2476.030767
862.026373	2472.375931
862.339062	2473.409367
862.651708	2474.649491
862.964312	2475.821559
863.276873	2472.164202
863.589392	2472.534727
863.901869	2476.945737
864.214303	2474.284007
864.526696	2473.396764
864.839045	2474.001703
865.151353	2477.449852
865.463619	2473.298462
865.775842	2475.632516
866.088023	2474.659573
866.400162	2475.685448
866.712258	2476.507156
867.024313	2476.557568
867.336325	2475.738380
867.648296	2476.005561
867.960224	2474.793164
868.272110	2477.633854
868.583954	2475.186374
868.895755	2475.672845
869.207515	2477.543113
869.519233	2477.197794
869.830909	2476.529841
870.142542	2476.517238
870.454134	2475.264512
870.765684	2480.383803
871.077191	2473.817701
871.388657	2473.593369
871.700081	2471.092957
872.011463	2474.893987
872.322803	2471.075313
872.634101	2474.957001
872.945357	2478.500932
873.256571	2477.895994
873.567744	2476.020685
873.878874	2478.969760
874.189963	2474.503297
874.501010	2477.507825
874.812015	2475.060345
875.122979	2478.049749
875.433900	2479.045377
875.744780	2481.192909
876.055618	2479.461272
876.366415	2479.864565
876.677169	2481.734833
876.987882	2484.061325
877.298554	2480.219966
877.609183	2481.858341
877.919771	2481.273567
878.230317	2481.636530
878.540822	2483.811788
878.851285	2485.109885
879.161707	2486.067704
879.472087	2489.843529
879.782425	2497.869046
880.092722	2508.095026
880.402977	2523.646986
880.713191	2545.737322
881.023363	2568.120045
881.333494	2591.435382
881.643583	2596.887389
881.953631	2596.731114
882.263637	2592.735999
882.573602	2586.558065
882.883526	2579.024061
883.193408	2564.765157
883.503248	2556.532953
883.813048	2550.922149
884.122806	2540.123997
884.432522	2530.485311
884.742197	2522.734537
885.051831	2517.622807
885.361424	2512.049811
885.670975	2503.598317
885.980485	2502.267452
886.289954	2500.787874
886.599382	2493.581544
886.908768	2490.458549
887.218113	2485.734988
887.527417	2487.943014
887.836680	2483.731130
888.145901	2485.989567
888.455082	2484.273054
888.764221	2483.017806
889.073319	2480.852631
889.382376	2480.938330
889.691392	2480.477065
890.000366	2480.532518
890.309300	2480.066211
890.618193	2479.851962
890.927044	2480.822384
891.235855	2480.015799
891.544625	2480.104019
891.853353	2483.436222
892.162041	2481.220635
892.470687	2483.504278
892.779293	2484.734319
893.087858	2489.498210
893.396381	2490.415700
893.704864	2491.481904
894.013306	2498.284941
894.321707	2505.355159
894.630068	2511.212980
894.938387	2509.987979
895.246665	2512.707682
895.554903	2509.105777
895.863100	2507.076713
896.171256	2504.488081
896.479371	2504.702330
896.787446	2496.391988
897.095480	2499.046155
897.403473	2493.132882
897.711425	2493.155567
898.019336	2487.295225
898.327207	2486.886892
898.635038	2484.368836
898.942827	2486.725575
899.250576	2485.951758
899.558284	2483.799185
899.865952	2483.584936
900.173579	2479.698207
900.481165	2478.949595
900.788711	2478.931951
901.096216	2481.288691
901.403681	2478.901704
901.711105	2479.988073
902.018489	2477.553196
902.325832	2478.367342
902.633135	2478.057311
902.940397	2481.112250
903.247619	2479.115953
903.554800	2493.311843
903.861941	2504.840961
904.169041	2515.782786
904.476101	2519.624145
904.783121	2520.879392
905.090100	2517.905112
905.397039	2511.785151
905.703938	2509.400685
906.010796	2506.010509
906.317614	2498.839468
906.624391	2498.612616
906.931129	2493.664723
907.237826	2489.412510
907.544483	2489.689773
907.851099	2482.307004
908.157675	2482.876654
908.464211	2479.670480
908.770707	2478.770634
909.077163	2474.757876
909.383578	2477.096971
909.689954	2476.688638
909.996289	2475.229224
910.302584	2475.907259
910.608839	2474.702423
910.915054	2474.709985
911.221229	2475.889615
911.527363	2473.797536
911.833458	2473.996662
912.139513	2475.055304
912.445527	2471.854171
912.751502	2474.220993
913.057436	2474.384830
913.363331	2475.967753
913.669186	2478.372383
913.975000	2477.797692
914.280775	2482.123002
914.586510	2483.650471
914.892205	2487.610297
915.197859	2498.191679
915.503475	2504.367093
915.809050	2512.382527
916.114585	2517.327899
916.420081	2518.419309
916.725536	2519.611542
917.030952	2516.276819
917.336328	2517.320338
917.641665	2511.578463
917.946961	2507.361538
918.252218	2506.524707
918.557435	2498.579848
918.862612	2500.056906
919.167750	2497.611947
919.472848	2496.034066
919.777906	2494.282265
920.082925	2489.140288
920.387904	2490.176245
920.692843	2484.840183
920.997743	2481.543269
921.302603	2484.719196
921.607423	2481.152579
921.912204	2478.460603
922.216946	2481.334061
922.521647	2478.664770
922.826310	2480.116622
923.130932	2477.064204
923.435516	2472.514562
923.740059	2475.360294
924.044564	2474.011785
924.349028	2473.182515
924.653454	2474.896508
924.957840	2473.953812
925.262186	2474.321816
925.566493	2475.619913
925.870761	2471.319809
926.174989	2470.488018
926.479178	2474.533544
926.783328	2470.031794
927.087438	2470.654377
927.391509	2472.267546
927.695541	2470.699747
927.999533	2469.411732
928.303486	2470.737556
928.607400	2471.614716
928.911275	2470.339304
929.215110	2469.699078
929.518906	2469.875518
929.822663	2470.094808
930.126381	2470.029273
930.430060	2469.845271
930.733699	2468.756382
931.037299	2469.467185
931.340861	2470.926599
931.644383	2469.825107
931.947866	2470.956846
932.251309	2470.167905
932.554714	2468.862246
932.858080	2468.196814
933.161407	2465.353603
933.464694	2468.857205
933.767943	2466.757565
934.071153	2467.954839
934.374323	2469.255456
934.677455	2470.450210
934.980548	2471.029943
935.283602	2468.060703
935.586617	2470.150261
935.889593	2467.322174
936.192530	2468.431228
936.495428	2467.682616
936.798287	2471.312247
937.101108	2468.496763
937.403890	2468.438789
937.706632	2473.227886
938.009336	2471.821404
938.312002	2470.392237
938.614628	2471.584469
938.917216	2472.607824
939.219765	2473.089254
939.522275	2473.071610
939.824747	2471.521455
940.127179	2470.775364
940.429573	2471.387864
940.731929	2473.179995
941.034246	2475.216621
941.336524	2473.737042
941.638763	2475.004892
941.940964	2470.442648
942.243126	2471.337453
942.545250	2471.730663
942.847335	2473.696713
943.149381	2472.829634
943.451389	2469.830148
943.753359	2472.035653
944.055290	2469.762092
944.357182	2469.852833
944.659036	2472.532206
944.960851	2472.290231
945.262628	2470.598924
945.564367	2472.116311
945.866067	2469.293265
946.167729	2469.762092
946.469352	2469.850313
946.770937	2467.508697
947.072484	2470.130097
947.373992	2471.869295
947.675462	2468.290075
947.976893	2468.738738
948.278286	2468.153964
948.579641	2466.813017
948.880958	2463.682461
949.182236	2469.210086
949.483476	2470.414922
949.784678	2471.118163
950.085841	2468.663121
950.386967	2468.549695
950.688054	2469.704119
950.989103	2472.643112
951.290114	2470.717391
951.591087	2471.297124
951.892021	2470.820735
952.192917	2473.273256
952.493776	2468.050621
952.794596	2470.951805
953.095378	2470.339304
953.396122	2470.266208
953.696828	2472.262505
953.997496	2470.571198
954.298126	2469.762092
954.598718	2471.284521
954.899272	2470.755200
955.199788	2469.368882
955.500266	2470.674541
955.800706	2470.762761
956.101108	2471.513893
956.401472	2468.693368
956.701798	2470.460292
957.002087	2464.363017
957.302337	2468.605148
957.602550	2470.399798
957.902724	2464.665486
958.202861	2467.483491
958.502960	2466.336628
958.803022	2467.523820
959.103045	2463.445527
959.403031	2468.259828
959.702979	2465.593058
960.002889	2465.177163
960.302762	2464.993161
960.602596	2466.500466
960.902393	2465.930815
961.202153	2466.656742
961.501875	2465.444344
961.801559	2464.388222
962.101205	2468.406022
962.400814	2462.772533
962.700385	2464.476443
962.999918	2463.238839
963.299414	2461.902933
963.598873	2462.550722
963.898293	2459.803293
964.197677	2466.591207
964.497022	2464.978037
964.796331	2466.114817
965.095601	2464.660445
965.394835	2465.688840
965.694030	2464.297482
965.993189	2462.943932
966.292309	2463.077522
966.591393	2467.536423
966.890439	2464.554580
967.189447	2464.942749
967.488419	2462.273458
967.787353	2465.421659
968.086249	2463.906792
968.385108	2467.564149
968.683930	2465.744293
968.982714	2466.339149
969.281462	2464.325208
969.580172	2464.473922
969.878844	2465.726649
970.177480	2465.149437
970.476078	2464.032821
970.774639	2466.581124
971.073162	2466.588686
971.371649	2463.556432
971.670098	2468.794191
971.968510	2465.739252
972.266885	2464.849488
972.565223	2463.407718
972.863524	2465.643470
973.161788	2464.889817
973.460014	2465.842595
973.758204	2468.829479
974.056356	2466.334108
974.354471	2466.087091
974.652550	2463.538788
974.950591	2467.163377
975.248595	2467.155816
975.546563	2466.044241
975.844493	2466.024077
976.142386	2466.571042
976.440243	2468.579942
976.738062	2463.861422
977.035845	2467.869139
977.333590	2467.758234
977.631299	2465.923254
977.928971	2466.356793
978.226606	2460.148612
978.524204	2459.687346
978.821765	2460.942594
979.119290	2465.797225
979.416777	2463.576597
979.714228	2468.779067
980.011642	2462.729683
980.309020	2465.129272
980.606360	2463.221195
980.903664	2470.263687
981.200931	2464.879735
981.498162	2470.722432
981.795356	2468.370734
982.092513	2467.901907
982.389633	2469.066413
982.686717	2471.894500
982.983764	2473.089254
983.280775	2470.850982
983.577749	2471.075313
983.874686	2472.070941
984.171587	2472.696044
984.468451	2471.218986
984.765279	2471.488687
985.062070	2471.597072
985.358824	2470.467854
985.655543	2470.732514
985.952224	2467.193624
986.248869	2468.237143
986.545478	2466.790332
986.842050	2467.286886
987.138586	2466.634056
987.435086	2464.108438
987.731549	2464.189097
988.027975	2464.060547
988.324366	2463.488376
988.620719	2466.225723
988.917037	2464.552060
989.213318	2465.255301
989.509563	2463.637090
989.805772	2464.967955
990.101944	2464.103397
990.398080	2465.724128
990.694180	2465.048613
990.990244	2463.347224
991.286271	2464.511731
991.582262	2462.880917
991.878217	2465.043572
992.174136	2464.625157
992.470019	2463.695064
992.765865	2460.998046
993.061676	2460.526698
993.357450	2462.147429
993.653188	2458.323714
993.948890	2463.722790
994.244556	2465.973665
994.540186	2466.860908
994.835780	2462.270938
995.131337	2467.730507
995.426859	2463.644652
995.722345	2466.775209
996.017795	2464.925105
996.313208	2468.615230
996.608586	2466.795373
996.903928	2468.436269
997.199234	2470.130097
997.494504	2469.298306
997.789738	2465.414097
998.084936	2468.491722
998.380099	2466.361834
998.675225	2469.033646
998.970316	2466.013994
999.265371	2467.833851
999.560390	2464.912502
999.855373	2466.077009
1000.150320	2466.064406
1000.445232	2465.164560
1000.740108	2463.616926
1001.034948	2466.250929
1001.329752	2464.484004
1001.624521	2463.569035
1001.919254	2463.818572
1002.213951	2465.187245
1002.508613	2463.044755
1002.803239	2463.768160
1003.097829	2461.721452
1003.392384	2463.952163
1003.686903	2463.720269
1003.981386	2466.089612
1004.275834	2461.930660
1004.570246	2464.872173
1004.864623	2465.494756
1005.158964	2464.912502
1005.453270	2462.323870
1005.747540	2462.825465
1006.041775	2463.760599
1006.335974	2462.540639
1006.630138	2462.482666
1006.924266	2465.870322
1007.218359	2464.272276
1007.512416	2461.928139
1007.806438	2458.182562
1008.100425	2462.606174
1008.394376	2458.023766
1008.688292	2464.839406
1008.982172	2464.025259
1009.276017	2463.747996
1009.569827	2460.730865
1009.863602	2461.665999
1010.157341	2461.774384
1010.451045	2463.795887
1010.744714	2462.482666
1011.038347	2461.189610
1011.331945	2462.865794
1011.625508	2462.021401
1011.919036	2466.029118
1012.212528	2463.795887
1012.505986	2459.788169
1012.799408	2461.650876
1013.092795	2463.198510
1013.386147	2463.503500
1013.679464	2463.805969
1013.972745	2463.506020
1014.265992	2462.759930
1014.559204	2464.350414
1014.852380	2460.897223
1015.145521	2463.654734
1015.438628	2463.851339
1015.731699	2465.585496
1016.024736	2461.938222
1016.317737	2463.541308
1016.610703	2461.189610
1016.903635	2463.737913
1017.196531	2461.842440
1017.489393	2464.776391
1017.782219	2461.532409
1018.075011	2461.970989
1018.367768	2460.763633
1018.660490	2463.377471
1018.953177	2463.377471
1019.245829	2463.377471
