Dividing Wavelength (nm)	Counts (n)	Blue Motor Position (mm): 0.000000	Red Motor Position (mm): 12.500000	
326.493990	2052.919163
326.888308	2052.919163
327.282561	2052.919163
327.676750	2023.766170
328.070874	2028.885462
328.464933	2032.873015
328.858929	2041.798378
329.252859	2055.200285
329.646726	2064.279403
330.040528	2084.000397
330.434265	2096.613364
330.827938	2120.952055
331.221547	2141.323358
331.615091	2161.974444
332.008571	2181.448422
332.401986	2203.367358
332.795338	2221.419730
333.188625	2240.732391
333.581847	2257.907602
333.975006	2279.660181
334.368100	2296.719445
334.761129	2314.121508
335.154095	2327.780515
335.546996	2343.554285
335.939833	2355.562314
336.332606	2373.944881
336.725315	2381.735984
337.117960	2395.599158
337.510540	2400.849519
337.903056	2411.309913
338.295508	2420.026068
338.687896	2426.047727
339.080220	2431.681216
339.472480	2437.841506
339.864676	2437.433173
340.256807	2443.061621
340.648875	2446.318206
341.040879	2443.837959
341.432818	2447.712085
341.824694	2449.390790
342.216506	2447.974225
342.608253	2446.920624
342.999937	2445.614965
343.391557	2444.904163
343.783113	2443.076744
344.174605	2443.051539
344.566033	2443.172526
344.957397	2441.579522
345.348697	2436.016608
345.739934	2433.586772
346.131106	2436.697164
346.522215	2428.442275
346.913260	2428.835485
347.304241	2430.453695
347.695159	2428.717018
348.086012	2427.809610
348.476802	2426.435896
348.867528	2420.855338
349.258191	2417.356778
349.648789	2417.613876
350.039324	2412.522311
350.429796	2416.560275
350.820203	2417.618918
351.210548	2418.785945
351.600828	2420.499937
351.991045	2417.137487
352.381198	2415.128588
352.771288	2415.078176
353.161314	2417.432395
353.551276	2417.989442
353.941175	2415.138670
354.331010	2416.081366
354.720782	2418.450708
355.110490	2419.232087
355.500135	2417.981881
355.889717	2419.469021
356.279235	2418.203691
356.668689	2419.534556
357.058080	2418.412899
357.447408	2417.553382
357.836672	2419.050605
358.225873	2421.336768
358.615010	2420.575554
359.004084	2420.701583
359.393095	2420.323497
359.782043	2422.917170
360.170927	2423.012952
360.559748	2421.016655
360.948505	2424.621080
361.337199	2425.140319
361.725830	2426.622418
362.114398	2424.464804
362.502903	2423.262489
362.891344	2425.425144
363.279722	2426.955134
363.668037	2426.458581
364.056289	2429.059816
364.444478	2428.676688
364.832603	2428.404466
365.220665	2427.199630
365.608665	2428.553180
365.996601	2430.874632
366.384474	2429.634508
366.772284	2428.767429
367.160031	2426.808941
367.547715	2429.899168
367.935336	2427.562593
368.322893	2429.581576
368.710388	2425.725093
369.097820	2429.959662
369.485189	2429.145516
369.872495	2432.472677
370.259738	2433.485949
370.646918	2435.225147
371.034035	2432.722214
371.421090	2435.625919
371.808081	2438.622885
372.195010	2439.363935
372.581875	2437.292020
372.968678	2440.288986
373.355418	2443.038936
373.742096	2441.808894
374.128710	2443.782506
374.515262	2446.981118
374.901751	2451.891202
375.288177	2453.602674
375.674540	2459.848663
376.060841	2461.426544
376.447079	2466.480301
376.833254	2470.291413
377.219367	2476.618062
377.605417	2483.007724
377.991404	2484.081490
378.377329	2495.212357
378.763191	2499.809890
379.148991	2508.881446
379.534727	2516.475944
379.920402	2526.785104
380.306013	2532.947915
380.691563	2549.651778
381.077049	2557.072356
381.462474	2566.433779
381.847835	2583.137642
382.233134	2595.841350
382.618371	2604.910386
383.003545	2624.318828
383.388657	2637.572022
383.773706	2659.369971
384.158693	2671.012516
384.543618	2686.332582
384.928480	2701.148533
385.313280	2724.242059
385.698017	2744.946078
386.082692	2766.779315
386.467305	2781.338167
386.851856	2805.263484
387.236344	2834.413956
387.620770	2850.946420
388.005133	2867.267155
388.389435	2903.155130
388.773674	2916.615010
389.157851	2950.804116
389.541965	2976.876963
389.926018	2987.672594
390.310008	3025.239273
390.693936	3044.960267
391.077802	3074.985379
391.461606	3105.617950
391.845348	3122.964561
392.229027	3148.124960
392.612645	3189.182637
392.996200	3216.656926
393.379694	3250.679673
393.763125	3294.646096
394.146494	3313.363900
394.529801	3348.682224
394.913047	3387.902401
395.296230	3388.492216
395.679351	3405.826224
396.062410	3446.077317
396.445408	3424.125612
396.828343	3460.172383
397.211217	3483.908656
397.594028	3451.869602
397.976778	3487.455107
398.359466	3510.586442
398.742092	3506.992099
399.124656	3514.135414
399.507158	3556.009758
399.889598	3546.050959
400.271977	3592.666509
400.654294	3569.179773
401.036549	3604.568673
401.418742	3588.568051
401.800874	3631.130513
402.182944	3638.782984
402.564952	3690.061601
402.946898	3660.621262
403.328783	3639.319867
403.710606	3657.372239
404.092367	3689.653267
404.474067	3712.235116
404.855705	3675.694312
405.237282	3635.894403
405.618797	3675.482584
406.000250	3703.723128
406.381642	3735.888210
406.762972	3706.331925
407.144240	3654.718071
407.525447	3663.585461
407.906593	3647.282369
408.287677	3667.953621
408.668700	3651.010303
409.049661	3643.546874
409.430560	3628.657827
409.811399	3585.641661
410.192176	3579.335177
410.572891	3588.489913
410.953545	3605.513889
411.334138	3519.400899
411.714669	3533.241387
412.095139	3460.406796
412.475547	3475.946153
412.855894	3445.018674
413.236180	3445.913479
413.616405	3382.573902
413.996568	3384.310579
414.376670	3351.767410
414.756711	3312.882470
415.136691	3303.238743
415.516609	3295.850932
415.896466	3270.869494
416.276262	3257.954058
416.655997	3255.241917
417.035670	3242.477716
417.415283	3244.098447
417.794834	3225.904922
418.174324	3179.359949
418.553753	3147.341060
418.933121	3143.295534
419.312428	3115.302007
419.691674	3065.374419
420.070859	3069.535892
420.449983	3015.807274
420.829045	3021.057636
421.208047	2979.037098
421.586988	2969.411015
421.965867	2952.634055
422.344686	2930.122782
422.723444	2922.908891
423.102141	2851.652181
423.480777	2870.604399
423.859352	2827.931032
424.237866	2833.703153
424.616319	2812.701706
424.994712	2798.715025
425.373044	2770.371137
425.751314	2768.165632
426.129524	2725.280537
426.507673	2727.377657
426.885762	2707.918803
427.263789	2695.948583
427.641756	2683.532221
428.019662	2670.447906
428.397508	2654.593477
428.775292	2640.735346
429.153016	2631.769653
429.530679	2618.269443
429.908282	2608.300562
430.285824	2592.131061
430.663305	2588.299784
431.040726	2577.352918
431.418086	2567.144582
431.795385	2562.915054
432.172624	2560.026473
432.549802	2549.213197
432.926920	2542.006868
433.303977	2534.976979
433.680974	2529.978675
434.057910	2529.093953
434.434786	2522.991636
434.811601	2519.419978
435.188355	2520.148425
435.565050	2515.538290
435.941683	2511.591066
436.318257	2511.417147
436.694770	2510.108967
437.071222	2507.568226
437.447614	2504.634274
437.823946	2502.078409
438.200218	2501.138234
438.576429	2498.965497
438.952580	2501.385250
439.328670	2499.323418
439.704700	2499.215034
440.080670	2497.642194
440.456580	2496.969200
440.832429	2494.826709
441.208218	2494.925012
441.583947	2495.492142
441.959616	2494.390649
442.335224	2493.468118
442.710773	2493.049702
443.086261	2492.031389
443.461689	2490.151039
443.837057	2491.497027
444.212365	2492.543067
444.587612	2492.341420
444.962800	2487.678353
445.337927	2487.748929
445.712995	2484.036119
446.088002	2491.761688
446.462949	2487.055771
446.837837	2490.201451
447.212664	2491.491986
447.587431	2496.586072
447.962139	2499.209992
448.336786	2498.937770
448.711374	2500.432472
449.085901	2493.775629
449.460369	2490.219095
449.834776	2493.027017
450.209124	2496.825527
450.583412	2495.673623
450.957640	2493.700011
451.331808	2493.304281
451.705917	2489.997284
452.079965	2491.867552
452.453954	2492.933756
452.827883	2494.042810
453.201752	2494.073057
453.575562	2489.120123
453.949311	2493.826040
454.323001	2492.351503
454.696632	2492.716986
455.070202	2494.549446
455.443713	2495.464415
455.817164	2493.311842
456.190556	2499.162102
456.563888	2499.278048
456.937160	2499.393995
457.310373	2495.260248
457.683526	2490.594661
458.056619	2495.663541
458.429653	2493.400063
458.802628	2494.347800
459.175542	2494.133551
459.548398	2499.199910
459.921194	2497.064982
460.293930	2498.741165
460.666607	2503.777278
461.039224	2507.689213
461.411782	2506.141579
461.784280	2506.393637
462.156719	2504.651918
462.529099	2503.893224
462.901419	2504.346928
463.273680	2501.125631
463.645882	2498.030363
464.018024	2498.657986
464.390106	2497.180928
464.762130	2504.775426
465.134094	2509.720798
465.505999	2516.271778
465.877845	2523.730165
466.249631	2524.060360
466.621358	2522.079187
466.993026	2521.617921
467.364634	2521.103724
467.736184	2515.064421
468.107674	2513.912518
468.479105	2517.900070
468.850477	2512.178361
469.221790	2511.555778
469.593043	2509.239368
469.964238	2508.851199
470.335373	2511.021416
470.706449	2512.647188
471.077467	2512.006962
471.448425	2519.858559
471.819324	2523.616739
472.190164	2519.208250
472.560945	2519.954341
472.931667	2513.680625
473.302330	2511.228103
473.672934	2510.101405
474.043479	2512.823628
474.413965	2510.411436
474.784393	2510.958402
475.154761	2511.230624
475.525070	2513.446211
475.895321	2512.861437
476.265513	2510.295490
476.635645	2514.625841
477.005719	2514.978722
477.375734	2512.760614
477.745691	2514.698938
478.115588	2516.533918
478.485427	2521.060874
478.855207	2522.704290
479.224928	2526.354085
479.594591	2528.728469
479.964194	2527.654703
480.333739	2529.255269
480.703226	2531.244005
481.072653	2533.184849
481.442022	2530.719725
481.811333	2529.613191
482.180584	2528.804086
482.549777	2530.744930
482.918912	2524.488858
483.287988	2530.679395
483.657005	2530.412214
484.025964	2528.332738
484.394864	2531.569159
484.763706	2528.390712
485.132489	2529.111597
485.501213	2527.689991
485.869879	2528.867101
486.238487	2526.775022
486.607036	2528.902389
486.975527	2528.063037
487.343959	2527.745444
487.712333	2531.017153
488.080648	2527.962213
488.448905	2531.876669
488.817104	2530.301309
489.185244	2528.486493
489.553326	2531.851464
489.921350	2537.668955
490.289315	2541.901004
490.657222	2546.412837
491.025070	2544.020809
491.392861	2543.584749
491.760593	2542.107691
492.128267	2541.878319
492.495883	2536.575025
492.863440	2536.118800
493.230939	2534.281300
493.598380	2535.380271
493.965763	2533.731814
494.333088	2531.775846
494.700354	2529.920702
495.067563	2530.082019
495.434713	2531.740558
495.801805	2529.744261
496.168839	2530.815507
496.535815	2530.384488
496.902733	2529.771988
497.269593	2531.349869
497.636395	2527.382481
498.003139	2530.187883
498.369825	2528.587317
498.736453	2530.661751
499.103023	2528.415917
499.469535	2529.736700
499.835989	2525.764270
500.202385	2530.402132
500.568723	2528.262162
500.935003	2530.059333
501.301226	2524.730834
501.667390	2530.024045
502.033497	2532.653007
502.399546	2533.154602
502.765537	2530.891124
503.131470	2530.921371
503.497345	2532.660569
503.863163	2533.078985
504.228923	2533.726773
504.594625	2532.811803
504.960269	2532.900024
505.325856	2530.008922
505.691385	2531.307019
506.056856	2532.320291
506.422270	2532.746268
506.787625	2529.855167
507.152924	2531.065044
507.518164	2528.486493
507.883347	2531.891793
508.248472	2532.494211
508.613540	2531.140661
508.978550	2534.399767
509.343503	2531.899355
509.708398	2532.854653
510.073236	2529.225022
510.438016	2530.623943
510.802738	2528.259642
511.167403	2534.185518
511.532010	2528.299971
511.896561	2535.433203
512.261053	2532.058151
512.625488	2533.149561
512.989866	2529.557739
513.354186	2531.654859
513.718449	2531.806093
514.082655	2533.421783
514.446803	2531.299457
514.810894	2531.425486
515.174927	2528.995650
515.538904	2531.894313
515.902822	2530.734848
516.266684	2530.349200
516.630488	2533.570497
516.994235	2532.083357
517.357925	2529.958510
517.721558	2530.044210
518.085133	2531.165867
518.448651	2528.768798
518.812112	2526.013807
519.175516	2527.533715
519.538863	2526.132275
519.902152	2530.457585
520.265385	2530.472708
520.628560	2531.974972
520.991678	2532.310209
521.354739	2531.738038
521.717743	2531.806093
522.080690	2529.477080
522.443580	2533.681403
522.806413	2531.140661
523.169189	2533.139478
523.531908	2531.985054
523.894569	2531.536392
524.257174	2530.954138
524.619722	2531.821217
524.982213	2533.630991
525.344647	2532.345497
525.707025	2531.690147
526.069345	2531.052441
526.431608	2532.075795
526.793815	2529.708973
527.155964	2530.147554
527.518057	2530.820548
527.880093	2529.850126
528.242072	2529.570342
528.603995	2531.496062
528.965860	2531.357431
529.327669	2527.689991
529.689421	2528.695701
530.051117	2533.053779
530.412755	2531.891793
530.774337	2529.731658
531.135862	2527.485824
531.497331	2528.857018
531.858743	2528.978006
532.220098	2530.419776
532.581396	2524.955165
532.942638	2529.648479
533.303824	2528.859539
533.664953	2526.333921
534.026025	2526.452388
534.387040	2526.391894
534.747999	2526.974147
535.108902	2526.916174
535.469748	2529.973634
535.830537	2528.214271
536.191270	2530.394570
536.551947	2523.843591
536.912567	2522.149763
537.273131	2527.190917
537.633638	2521.108765
537.994089	2525.565145
538.354483	2526.064219
538.714821	2527.385001
539.075103	2525.373581
539.435328	2527.105217
539.795497	2526.336441
540.155609	2527.881555
540.515665	2525.315608
540.875665	2526.782583
541.235609	2526.568334
541.595496	2527.233767
541.955328	2530.472708
542.315102	2527.511030
542.674821	2526.021369
543.034483	2524.650175
543.394090	2525.650844
543.753640	2526.701925
544.113134	2524.589682
544.472571	2525.224867
544.831953	2526.349044
545.191278	2524.491379
545.550548	2523.871317
545.909761	2526.245701
546.268918	2524.521626
546.628019	2524.413241
546.987064	2524.035155
547.346053	2521.149094
547.704986	2524.761081
548.063863	2526.220495
548.422684	2523.672192
548.781449	2523.135309
549.140158	2526.265865
549.498811	2525.953314
549.857408	2523.672192
550.215949	2524.977850
550.574434	2525.534898
550.932864	2524.574558
551.291237	2524.735875
551.649555	2525.436595
552.007817	2526.696884
552.366022	2525.555063
552.724173	2523.682274
553.082267	2524.501461
553.440305	2527.395084
553.798288	2523.170597
554.156215	2523.541122
554.514086	2521.184382
554.871902	2520.831501
555.229661	2525.507172
555.587365	2523.248735
555.945014	2523.140350
556.302606	2525.499610
556.660143	2526.538088
557.017625	2524.186389
557.375050	2524.314939
557.732421	2523.548683
558.089735	2527.077491
558.446994	2524.372912
558.804197	2527.231246
559.161345	2524.120854
559.518437	2525.721421
559.875474	2525.134126
560.232455	2525.222346
560.589381	2525.239990
560.946251	2528.105886
561.303065	2524.398118
561.659825	2523.170597
562.016528	2525.005577
562.373177	2524.524147
562.729770	2524.040196
563.086307	2524.781245
563.442789	2523.210926
563.799216	2523.808303
564.155587	2524.440968
564.511904	2526.512882
564.868164	2523.740247
565.224370	2520.980215
565.580520	2524.745957
565.936615	2526.422141
566.292654	2524.108251
566.648638	2524.894671
567.004567	2523.795700
567.360441	2524.108251
567.716260	2520.249248
568.072023	2523.891482
568.427732	2526.396935
568.783385	2524.133457
569.138982	2522.711852
569.494525	2526.154960
569.850013	2524.060360
570.205445	2526.873324
570.560823	2523.951976
570.916145	2524.042716
571.271412	2523.200844
571.626625	2525.562624
571.981782	2526.684281
572.336884	2523.369722
572.691931	2520.498785
573.046923	2521.461646
573.401860	2518.326048
573.756743	2522.890813
574.111570	2525.277799
574.466342	2523.150432
574.821059	2524.614887
575.175722	2525.300484
575.530330	2523.130267
575.884882	2524.942562
576.239380	2523.939373
576.593823	2523.634383
576.948211	2521.716224
577.302544	2523.031965
577.656823	2522.409383
578.011047	2519.122550
578.365216	2520.632376
578.719330	2522.510206
579.073389	2523.155473
579.427394	2520.256810
579.781344	2521.333096
580.135239	2520.513909
580.489080	2519.924094
580.842866	2522.321162
581.196597	2519.949299
581.550273	2523.558766
581.903895	2519.523322
582.257463	2521.317973
582.610975	2521.474248
582.964434	2521.633045
583.317837	2520.143384
583.671186	2521.323014
584.024481	2520.551717
584.377721	2522.452232
584.730906	2520.345030
585.084037	2519.321676
585.437113	2521.383508
585.790135	2519.293949
586.143103	2519.654392
586.496016	2519.074659
586.848874	2518.983918
587.201679	2519.072139
587.554428	2520.176151
587.907124	2519.351923
588.259765	2518.333610
588.612352	2520.198837
588.964884	2517.703465
589.317362	2518.797396
589.669786	2518.701614
590.022155	2520.846625
590.374470	2518.200019
590.726731	2517.700945
591.078937	2516.009638
591.431090	2519.346882
591.783188	2517.524504
592.135232	2517.340502
592.487222	2517.532066
592.839157	2519.296470
593.191038	2517.597601
593.542866	2515.170286
593.894639	2518.999042
594.246358	2521.207067
594.598022	2515.775224
594.949633	2518.230266
595.301190	2515.911335
595.652692	2518.767149
596.004141	2515.155162
596.355535	2516.193640
596.706876	2515.429905
597.058162	2518.217663
597.409395	2516.589370
597.760573	2517.650533
598.111698	2515.024092
598.462768	2513.400841
598.813785	2515.659278
599.164748	2513.668022
599.515657	2514.134328
599.866511	2515.001407
600.217312	2514.482168
600.568060	2515.765142
600.918753	2518.555420
601.269392	2513.688186
601.619978	2514.134328
601.970510	2514.623320
602.320988	2513.862106
602.671412	2514.766993
603.021783	2512.800943
603.372100	2514.903104
603.722363	2515.999555
604.072572	2516.312107
604.422728	2513.917559
604.772830	2513.632734
605.122878	2515.523166
605.472872	2517.035513
605.822813	2516.128105
606.172701	2513.794051
606.522534	2514.441839
606.872314	2515.530728
607.222041	2514.222549
607.571714	2513.410923
607.921333	2511.273474
608.270899	2513.441170
608.620411	2511.790192
608.969870	2516.738084
609.319276	2515.402179
609.668627	2516.826305
610.017926	2517.035513
610.367171	2515.729854
610.716362	2513.683145
611.065500	2514.640964
611.414585	2517.615245
611.763616	2517.126253
612.112594	2515.528207
612.461518	2514.398989
612.810389	2517.816891
613.159207	2518.366377
613.507971	2514.109123
613.856682	2518.202540
614.205340	2516.591891
614.553945	2518.593229
614.902496	2517.093486
615.250994	2513.950326
615.599439	2516.990142
615.947830	2518.016017
616.296169	2516.133146
616.644454	2517.753877
616.992686	2514.814884
617.340864	2516.700276
617.688990	2515.460152
618.037063	2517.199350
618.385082	2516.133146
618.733048	2517.648013
619.080961	2515.934020
619.428821	2515.923938
619.776628	2519.230935
620.124382	2516.881757
620.472083	2512.737929
620.819731	2519.155318
621.167326	2514.736746
621.514868	2514.424195
621.862357	2516.624658
622.209793	2517.494258
622.557176	2514.517456
622.904506	2515.132477
623.251783	2515.495440
623.599007	2514.991325
623.946179	2515.737415
624.293297	2516.667508
624.640363	2515.737415
624.987376	2510.965963
625.334336	2510.817249
625.681243	2510.514780
626.028097	2509.156189
626.374899	2513.599966
626.721647	2512.460665
627.068343	2513.829339
627.414987	2514.890502
627.761577	2512.359842
628.108115	2511.422188
628.454600	2511.376817
628.801032	2511.596108
629.147412	2511.409585
629.493739	2510.847496
629.840014	2510.439163
630.186236	2510.749194
630.532405	2511.356653
630.878521	2509.625016
631.224585	2510.434122
631.570597	2509.304903
631.916556	2511.918741
632.262462	2508.014368
632.608316	2511.212980
632.954117	2507.835407
633.299866	2510.787002
633.645562	2511.951509
633.991206	2508.397495
634.336797	2509.728360
634.682336	2510.938237
635.027823	2510.020747
635.373257	2509.582167
635.718639	2509.594769
636.063968	2511.155007
636.409245	2509.075531
636.754470	2507.230468
637.099642	2507.837927
637.444762	2507.114522
637.789829	2508.594100
638.134845	2507.500170
638.479808	2505.350118
638.824719	2508.324399
639.169577	2508.362207
639.514383	2507.293483
639.859137	2505.256857
640.203839	2505.279542
640.548489	2505.604696
640.893086	2505.186280
641.237632	2507.679131
641.582125	2506.842299
641.926566	2505.589573
642.270955	2503.119407
642.615292	2500.820641
642.959576	2504.268790
643.303809	2498.841988
643.647990	2503.810045
643.992118	2502.713594
644.336195	2506.073523
644.680219	2503.890704
645.024192	2501.954901
645.368112	2505.823986
645.711981	2504.672083
646.055797	2506.759120
646.399562	2506.746517
646.743274	2507.263236
647.086935	2507.220386
647.430544	2507.124604
647.774101	2507.769872
648.117606	2507.817763
648.461059	2510.671056
648.804460	2510.882784
649.147810	2507.537979
649.491108	2507.026302
649.834354	2506.665859
650.177548	2507.356497
650.520690	2501.576814
650.863781	2506.151661
651.206820	2506.088647
651.549807	2506.176867
651.892742	2504.876249
652.235626	2504.788029
652.578458	2503.973883
652.921238	2501.569253
653.263967	2505.579490
653.606644	2504.667042
653.949269	2503.058913
654.291843	2502.448934
654.634365	2505.360200
654.976836	2502.953049
655.319255	2503.263080
655.661622	2501.619664
656.003938	2506.156702
656.346203	2501.130672
656.688416	2503.585714
657.030577	2501.627226
657.372687	2502.214520
657.714746	2501.385250
658.056753	2503.709222
658.398708	2500.240908
658.740612	2503.999089
659.082465	2501.685199
659.424266	2499.610764
659.766016	2498.421052
660.107715	2499.736793
660.449362	2494.962820
660.790958	2503.290807
661.132503	2500.903820
661.473996	2503.953718
661.815438	2502.937926
662.156829	2502.290138
662.498168	2505.524038
662.839456	2503.827689
663.180693	2501.738131
663.521879	2501.176043
663.863013	2500.281238
664.204097	2502.292658
664.545129	2502.249808
664.886110	2501.702843
665.227040	2500.797956
665.567918	2502.519510
665.908746	2500.278717
666.249522	2503.137051
666.590248	2501.730569
666.930922	2504.495642
667.271545	2502.688389
667.612118	2500.409787
667.952639	2504.011692
668.293109	2500.780312
668.633528	2503.091681
668.973896	2502.547236
669.314213	2501.012205
669.654480	2504.409943
669.994695	2501.216372
670.334859	2504.084788
670.674973	2501.342401
671.015035	2500.656804
671.355047	2504.684686
671.695008	2503.058913
672.034918	2502.030518
672.374777	2504.077227
672.714585	2502.668224
673.054342	2503.333656
673.394049	2502.622854
673.733705	2504.414984
674.073310	2501.649911
674.412864	2501.639829
674.752368	2501.536485
675.091820	2501.642349
675.431223	2502.373317
675.770574	2500.823162
676.109875	2502.201917
676.449125	2498.645383
676.788324	2499.535147
677.127473	2496.200424
677.466571	2498.073212
677.805619	2497.516165
678.144616	2499.532626
678.483562	2499.973727
678.822458	2499.031032
679.161303	2498.695795
679.500098	2496.860815
679.838842	2498.438696
680.177535	2499.003305
680.516179	2500.888697
680.854771	2498.514313
681.193314	2500.051865
681.531805	2503.028667
681.870247	2502.776609
682.208638	2502.847185
682.546978	2501.050014
682.885268	2501.579335
683.223508	2501.549088
683.561697	2503.431959
683.899836	2502.874911
684.237925	2504.316681
684.575963	2499.139416
684.913951	2499.729231
685.251889	2502.522031
685.589776	2502.287617
685.927614	2502.388440
686.265401	2503.610920
686.603137	2502.010353
686.940824	2501.801146
687.278460	2505.133348
687.616046	2503.805004
687.953582	2501.884325
688.291068	2505.569408
688.628504	2505.498832
688.965889	2505.032525
689.303224	2505.269459
689.640510	2502.305261
689.977745	2502.315343
690.314930	2503.525220
690.652065	2503.772237
690.989150	2501.478512
691.326185	2499.116731
691.663170	2497.523727
692.000105	2500.379540
692.336990	2497.599344
692.673825	2502.423728
693.010610	2495.827378
693.347345	2498.504231
693.684030	2492.699342
694.020665	2496.596154
694.357251	2491.744044
694.693786	2497.947183
695.030272	2495.114055
695.366707	2495.494662
695.703093	2493.745382
696.039429	2494.241935
696.375716	2493.664723
696.711952	2492.928715
697.048139	2495.671103
697.384276	2491.590288
697.720363	2491.464260
698.056400	2491.237408
698.392388	2492.623725
698.728326	2495.282934
699.064214	2494.183962
699.400053	2495.658500
699.735842	2493.415186
700.071581	2493.485762
700.407270	2492.870742
700.742910	2490.261944
701.078501	2490.450988
701.414042	2492.510299
701.749533	2491.292860
702.084974	2491.434013
702.420366	2491.650782
702.755709	2491.650782
703.091002	2491.764208
703.426246	2494.287306
703.761440	2492.432161
704.096584	2489.195740
704.431679	2492.233036
704.766725	2492.162459
705.101721	2489.510813
705.436668	2490.352685
705.771565	2490.350165
706.106413	2491.663385
706.441212	2491.018117
706.775961	2491.822182
707.110661	2490.256903
707.445311	2490.569455
707.779913	2494.861997
708.114465	2488.991574
708.448967	2491.171873
708.783421	2494.965341
709.117825	2492.066678
709.452180	2493.148005
709.786485	2491.244969
710.120742	2492.240597
710.454949	2490.876965
710.789107	2491.827223
711.123216	2491.565083
711.457275	2496.916267
711.791286	2495.051041
712.125247	2498.831906
712.459159	2496.573469
712.793023	2497.896772
713.126837	2494.309991
713.460602	2496.374343
713.794318	2494.105824
714.127985	2496.228150
714.461602	2494.584734
714.795171	2495.945845
715.128691	2494.267141
715.462162	2493.813437
715.795584	2492.908550
716.128957	2490.201451
716.462281	2494.428458
716.795556	2491.343272
717.128782	2491.277737
717.461960	2488.779845
717.795088	2492.212871
718.128167	2493.120279
718.461198	2489.735144
718.794180	2488.621049
719.127113	2490.019969
719.459997	2488.331183
719.792833	2489.956955
720.125619	2489.238590
720.458357	2488.106851
720.791046	2489.777994
721.123686	2488.873107
721.456278	2489.591471
721.788821	2489.236070
722.121315	2488.888230
722.453761	2489.478045
722.786158	2487.930411
723.118506	2487.141470
723.450805	2488.552993
723.783056	2487.496872
724.115259	2487.832108
724.447412	2488.421923
724.779518	2488.366471
725.111574	2486.899495
725.443582	2488.724393
725.775542	2487.494351
726.107453	2488.512664
726.439315	2486.518888
726.771129	2490.115751
727.102895	2484.966212
727.434612	2489.140288
727.766281	2482.846407
728.097901	2492.409476
728.429473	2488.699187
728.760996	2493.442913
729.092471	2490.327479
729.423897	2492.623725
729.755276	2489.586430
730.086606	2491.565083
730.417887	2490.584578
730.749120	2496.623881
731.080305	2492.346462
731.411442	2493.011894
731.742530	2493.389980
732.073570	2492.832933
732.404562	2494.040289
732.735506	2495.371154
733.066401	2490.183807
733.397249	2493.400063
733.728048	2491.663385
734.058798	2490.103148
734.389501	2490.352685
734.720156	2490.929897
735.050762	2486.569299
735.381320	2490.302274
735.711831	2488.341265
736.042293	2486.886892
736.372707	2488.852942
736.703073	2488.139619
737.033391	2488.263127
737.363661	2488.099289
737.693883	2486.082828
738.024056	2488.006028
738.354182	2487.017962
738.684260	2491.335710
739.014290	2488.018631
739.344272	2487.559886
739.674207	2487.779176
740.004093	2490.309835
740.333931	2489.722541
740.663722	2488.842860
740.993464	2493.649600
741.323159	2489.064670
741.652806	2487.564927
741.982405	2488.094248
742.311956	2489.876296
742.641460	2488.963847
742.970915	2487.968219
743.300323	2485.616521
743.629683	2484.288177
743.958996	2484.547797
744.288260	2479.229379
744.617477	2486.687766
744.946647	2488.076604
745.275768	2488.121975
745.604842	2485.109885
745.933869	2485.445122
746.262847	2488.053919
746.591778	2483.900008
746.920662	2487.297746
747.249498	2488.668940
747.578286	2486.619711
747.907027	2488.121975
748.235720	2487.953096
748.564365	2487.857314
748.892963	2485.578713
749.221514	2486.166007
749.550017	2485.858497
749.878473	2487.786738
750.206881	2486.045019
750.535242	2485.656850
750.863555	2488.099289
751.191821	2485.795482
751.520039	2487.431337
751.848210	2485.510657
752.176334	2481.870944
752.504411	2484.053763
752.832440	2484.144504
753.160421	2484.941007
753.488356	2486.138281
753.816243	2486.478558
754.144082	2486.032416
754.471875	2484.552838
754.799620	2483.194247
755.127318	2486.894454
755.454969	2485.273723
755.782572	2481.944041
756.110129	2485.644248
756.437638	2485.150214
756.765100	2486.571820
757.092515	2485.525780
757.419882	2481.865903
757.747203	2481.634010
758.074477	2487.522077
758.401703	2486.203816
758.728882	2486.090390
759.056014	2481.127374
759.383099	2482.962354
759.710138	2481.775162
760.037129	2484.315903
760.364073	2486.614670
760.690970	2481.989411
761.017820	2486.372694
761.344623	2485.634165
761.671379	2489.752788
761.998088	2487.267499
762.324751	2488.857983
762.651366	2492.553149
762.977935	2498.950373
763.304456	2501.107987
763.630931	2504.881291
763.957359	2502.338028
764.283740	2503.373986
764.610074	2500.218223
764.936362	2496.644045
765.262602	2492.502737
765.588796	2490.387973
765.914943	2491.307984
766.241044	2486.365132
766.567097	2485.596357
766.893104	2486.241624
767.219064	2485.230873
767.544978	2483.148876
767.870845	2484.116778
768.196665	2482.133084
768.522438	2479.483958
768.848165	2479.612507
769.173846	2482.392703
769.499479	2481.903711
769.825066	2482.916983
770.150607	2482.170893
770.476101	2481.054277
770.801548	2484.091572
771.126949	2480.802219
771.452303	2480.527476
771.777611	2481.195429
772.102872	2479.670480
772.428087	2476.988586
772.753256	2482.702734
773.078378	2479.993114
773.403453	2477.608648
773.728482	2479.882209
774.053465	2479.249544
774.378401	2481.029071
774.703291	2476.025726
775.028135	2479.176447
775.352932	2479.005048
775.677683	2475.998000
776.002388	2476.005561
776.327046	2473.772330
776.651658	2478.896663
776.976224	2473.500108
777.300743	2479.254585
777.625216	2478.848772
777.949643	2477.520428
778.274024	2478.763072
778.598359	2478.521097
778.922647	2477.018833
779.246889	2478.213587
779.571086	2476.008082
779.895236	2478.110243
780.219339	2476.965901
780.543397	2478.851293
780.867409	2478.879019
781.191374	2479.922538
781.515294	2480.335913
781.839167	2477.540593
782.162995	2477.820377
782.486776	2476.353401
782.810511	2477.648977
783.134201	2479.284832
783.457844	2477.172588
783.781441	2481.906232
784.104993	2477.349029
784.428498	2478.954636
784.751958	2477.235603
785.075372	2477.583442
785.398739	2479.468834
785.722061	2476.456745
786.045337	2478.158134
786.368568	2481.119812
786.691752	2478.405151
787.014891	2478.107723
787.337983	2480.068731
787.661030	2481.145018
787.984031	2480.966057
788.306987	2481.853300
788.629897	2479.922538
788.952760	2485.679536
789.275579	2482.682570
789.598351	2481.775162
789.921078	2480.098978
790.243759	2478.848772
790.566395	2480.446818
790.888984	2476.711323
791.211529	2477.873309
791.534027	2477.139821
791.856480	2477.956488
792.178888	2477.311220
792.501249	2474.157978
792.823566	2476.015644
793.145836	2471.491208
793.468062	2479.332723
793.790241	2476.015644
794.112375	2479.431025
794.434464	2475.854327
794.756507	2478.148052
795.078505	2477.757362
795.400457	2480.207363
795.722364	2477.477578
796.044226	2480.943372
796.366042	2481.661736
796.687812	2481.938999
797.009538	2478.397589
797.331218	2479.413381
797.652852	2478.586632
797.974442	2481.225676
798.295986	2480.618217
798.617484	2476.895325
798.938938	2479.582260
799.260346	2477.407002
799.581709	2476.867599
799.903026	2479.446149
800.224299	2476.625623
800.545526	2476.534882
800.866708	2475.811477
801.187845	2479.078145
801.508936	2476.381127
801.829983	2476.315592
802.150984	2477.374235
802.471940	2474.412557
802.792851	2474.994810
803.113717	2476.159317
803.434538	2476.156796
803.755314	2477.580922
804.076045	2473.547999
804.396731	2477.076807
804.717372	2477.197794
805.037967	2478.498412
805.358518	2475.700572
805.679024	2478.435398
805.999485	2475.660242
806.319901	2476.613020
806.640272	2480.038484
806.960598	2477.853144
807.280879	2476.028247
807.601115	2478.800881
807.921306	2477.822897
808.241453	2477.679224
808.561554	2473.787454
808.881611	2477.379276
809.201623	2472.655715
809.521590	2475.682928
809.841513	2475.075468
810.161390	2476.144193
810.481223	2478.442959
810.801011	2477.792650
811.120755	2475.695530
811.440453	2476.882722
811.760107	2475.695530
812.079716	2476.335757
812.399281	2474.757876
812.718801	2477.507825
813.038276	2474.818370
813.357707	2477.071765
813.677093	2472.640591
813.996434	2475.922382
814.315731	2475.806436
814.634983	2474.921713
814.954191	2477.152424
815.273354	2475.803915
815.592473	2476.040849
815.911547	2477.520428
816.230577	2478.253916
816.549562	2476.199646
816.868502	2477.938844
817.187399	2478.861375
817.506250	2477.664101
817.825058	2478.347177
818.143821	2479.627630
818.462539	2481.868423
818.781213	2480.701396
819.099843	2481.875985
819.418429	2482.382621
819.736970	2484.121819
820.055466	2484.865389
820.373919	2489.019300
820.692327	2492.994250
821.010691	2498.300064
821.329011	2514.426715
821.647286	2537.976466
821.965517	2570.771692
822.283704	2596.998295
822.601847	2607.723350
822.919945	2597.257914
823.237999	2584.256778
823.556010	2573.375448
823.873976	2554.619835
824.191897	2540.134079
824.509775	2528.010104
824.827609	2521.353261
825.145398	2509.435973
825.463144	2511.714575
825.780845	2510.056035
826.098502	2513.307579
826.416116	2516.901922
826.733685	2528.463808
827.051210	2530.850795
827.368692	2528.352903
827.686129	2519.755215
828.003522	2515.152642
828.320872	2507.540499
828.638177	2502.237205
828.955439	2497.180928
829.272656	2493.861328
829.589830	2490.730772
829.906960	2487.456542
830.224046	2485.180461
830.541088	2484.046202
830.858086	2482.753146
831.175041	2483.007724
831.491952	2478.241313
831.808819	2482.067549
832.125642	2482.680049
832.442421	2483.259782
832.759157	2484.144504
833.075849	2489.296563
833.392497	2494.962820
833.709101	2501.347442
834.025662	2502.307782
834.342179	2500.026659
834.658653	2496.538181
834.975083	2493.702532
835.291469	2490.887048
835.607811	2483.297590
835.924110	2483.544607
836.240366	2482.579226
836.556578	2482.044864
836.872746	2481.306335
837.188871	2477.454893
837.504952	2480.252733
837.820990	2478.402630
838.136984	2474.435242
838.452935	2474.866261
838.768842	2478.478247
839.084706	2475.287197
839.400526	2479.897332
839.716303	2484.452015
840.032037	2483.048053
840.347727	2481.782724
840.663373	2481.560913
840.978977	2474.778040
841.294537	2478.773155
841.610054	2476.854996
841.925527	2479.531848
842.240957	2474.591518
842.556344	2475.713174
842.871687	2475.332567
843.186987	2472.867443
843.502244	2473.928606
843.817458	2473.321147
844.132629	2471.644963
844.447756	2470.319140
844.762840	2473.885756
845.077881	2470.024232
845.392879	2474.266363
845.707833	2471.007257
846.022745	2472.348204
846.337613	2471.949953
846.652438	2470.190590
846.967221	2472.401136
847.281960	2469.570528
847.596656	2472.955663
847.911309	2470.228399
848.225919	2471.743266
848.540485	2468.700929
848.855009	2471.728142
849.169490	2471.498770
849.483928	2468.867287
849.798323	2472.741414
850.112675	2473.013637
850.426984	2470.891311
850.741251	2472.212093
851.055474	2468.983234
851.369654	2470.140179
851.683792	2471.173615
851.997887	2471.700416
852.311938	2466.369396
852.625947	2470.992134
852.939914	2469.046248
853.253837	2471.876856
853.567718	2469.021043
853.881555	2472.945581
854.195350	2469.081537
854.509103	2471.700416
854.822812	2472.469192
855.136479	2471.954994
855.450103	2472.227217
855.763685	2467.692699
856.077224	2467.581793
856.390720	2466.182873
856.704173	2464.781432
857.017584	2472.254943
857.330953	2469.391567
857.644278	2472.333081
857.957561	2470.757720
858.270802	2472.811990
858.584000	2469.051290
858.897155	2471.869295
859.210268	2470.941722
859.523339	2471.985241
859.836367	2469.915847
860.149352	2471.287041
860.462295	2470.104891
860.775195	2470.818214
861.088054	2467.889304
861.400869	2473.157309
861.713642	2469.250415
862.026373	2470.437607
862.339062	2470.515745
862.651708	2471.539099
862.964312	2470.525827
863.276873	2472.499439
863.589392	2468.453913
863.901869	2470.629171
864.214303	2470.823255
864.526696	2471.949953
864.839045	2471.178657
865.151353	2472.305354
865.463619	2470.992134
865.775842	2468.368213
866.088023	2471.647484
866.400162	2470.977010
866.712258	2472.476754
867.024313	2472.038173
867.336325	2471.864253
867.648296	2473.986579
867.960224	2472.529686
868.272110	2469.820066
868.583954	2471.309727
868.895755	2470.883749
869.207515	2471.743266
869.519233	2471.244192
869.830909	2469.431897
870.142542	2471.735704
870.454134	2471.380303
870.765684	2472.708647
871.077191	2470.268728
871.388657	2469.890642
871.700081	2467.211268
872.011463	2472.449027
872.322803	2468.416104
872.634101	2472.194449
872.945357	2473.338791
873.256571	2473.931127
873.567744	2471.778554
873.878874	2473.182515
874.189963	2474.213431
874.501010	2472.355766
874.812015	2473.822742
875.122979	2474.155458
875.433900	2467.271762
875.744780	2473.676548
876.055618	2474.523462
876.366415	2473.820221
876.677169	2474.142855
876.987882	2472.627988
877.298554	2474.485653
877.609183	2472.020529
877.919771	2475.377938
878.230317	2476.580253
878.540822	2477.840541
878.851285	2478.601756
879.161707	2474.286528
879.472087	2478.168216
879.782425	2481.253403
880.092722	2489.452839
880.402977	2495.499703
880.713191	2509.017557
881.023363	2524.231760
881.333494	2535.667617
881.643583	2537.948739
881.953631	2541.187681
882.263637	2533.762061
882.573602	2534.309026
882.883526	2528.158818
883.193408	2519.997190
883.503248	2515.266068
883.813048	2512.158196
884.122806	2507.212824
884.432522	2501.859119
884.742197	2497.929539
885.051831	2493.367295
885.361424	2488.910915
885.670975	2487.448981
885.980485	2485.112406
886.289954	2484.436891
886.599382	2482.707775
886.908768	2477.855665
887.218113	2473.583287
887.527417	2473.056486
887.836680	2472.549850
888.145901	2475.912300
888.455082	2476.481950
888.764221	2477.447331
889.073319	2471.919706
889.382376	2475.554378
889.691392	2473.585808
890.000366	2476.383648
890.309300	2471.523976
890.618193	2476.542444
890.927044	2477.485140
891.235855	2475.839203
891.544625	2473.822742
891.853353	2476.504636
892.162041	2475.945067
892.470687	2472.917855
892.779293	2475.849286
893.087858	2477.326344
893.396381	2478.904225
893.704864	2477.149903
894.013306	2484.058805
894.321707	2490.871924
894.630068	2489.228508
894.938387	2492.684219
895.246665	2490.992912
895.554903	2488.240442
895.863100	2489.175576
896.171256	2489.447798
896.479371	2484.305821
896.787446	2484.615852
897.095480	2483.224494
897.403473	2481.424802
897.711425	2478.349698
898.019336	2479.622589
898.327207	2476.484471
898.635038	2477.432208
898.942827	2476.118987
899.250576	2476.923051
899.558284	2473.800057
899.865952	2474.057155
900.173579	2474.468009
900.481165	2475.750983
900.788711	2475.042701
901.096216	2470.982052
901.403681	2470.941722
901.711105	2475.055304
902.018489	2470.644294
902.325832	2470.805611
902.633135	2468.501804
902.940397	2472.391054
903.247619	2470.162864
903.554800	2480.890439
903.861941	2485.654330
904.169041	2495.237563
904.476101	2500.079592
904.783121	2494.214209
905.090100	2493.642038
905.397039	2489.190699
905.703938	2486.912098
906.010796	2486.962509
906.317614	2484.056284
906.624391	2483.746253
906.931129	2481.175265
907.237826	2478.654688
907.544483	2479.206694
907.851099	2475.380458
908.157675	2474.616723
908.464211	2472.748976
908.770707	2471.531537
909.077163	2473.311065
909.383578	2469.595734
909.689954	2471.977679
909.996289	2469.441979
910.302584	2469.754531
910.608839	2470.982052
910.915054	2471.133286
911.221229	2468.262349
911.527363	2471.702937
911.833458	2469.109263
912.139513	2470.992134
912.445527	2470.329222
912.751502	2472.554892
913.057436	2470.193111
913.363331	2469.666310
913.669186	2469.661269
913.975000	2471.801239
914.280775	2472.063379
914.586510	2475.264512
914.892205	2479.274750
915.197859	2485.409834
915.503475	2485.966881
915.809050	2491.706235
916.114585	2494.471308
916.420081	2493.997439
916.725536	2497.067502
917.030952	2495.560197
917.336328	2493.417707
917.641665	2484.812457
917.946961	2485.072077
918.252218	2489.296563
918.557435	2482.412868
918.862612	2485.840853
919.167750	2485.170379
919.472848	2481.354226
919.777906	2481.515542
920.082925	2478.742908
920.387904	2477.737198
920.692843	2478.211066
920.997743	2474.820890
921.302603	2475.420787
921.607423	2474.815849
921.912204	2474.755355
922.216946	2469.862915
922.521647	2473.185036
922.826310	2471.342494
923.130932	2470.583800
923.435516	2469.205045
923.740059	2470.256125
924.044564	2470.724953
924.349028	2471.728142
924.653454	2469.895683
924.957840	2470.062041
925.262186	2468.854685
925.566493	2471.493729
925.870761	2468.055662
926.174989	2468.194293
926.479178	2468.053141
926.783328	2470.377113
927.087438	2466.114817
927.391509	2468.711012
927.695541	2466.555918
927.999533	2466.558439
928.303486	2468.010291
928.607400	2468.642956
928.911275	2465.368727
929.215110	2470.122535
929.518906	2468.007771
929.822663	2466.349231
930.126381	2465.005764
930.430060	2466.502986
930.733699	2467.291927
931.037299	2466.956690
931.340861	2467.637246
931.644383	2466.608851
931.947866	2468.128758
932.251309	2468.501804
932.554714	2466.823100
932.858080	2466.898717
933.161407	2464.219344
933.464694	2465.368727
933.767943	2461.068622
934.071153	2468.191773
934.374323	2466.576083
934.677455	2467.851495
934.980548	2468.572380
935.283602	2467.100363
935.586617	2466.550877
935.889593	2463.697584
936.192530	2467.488532
936.495428	2467.748151
936.798287	2467.604478
937.101108	2467.914509
937.403890	2466.409725
937.706632	2468.315281
938.009336	2466.571042
938.312002	2466.815538
938.614628	2468.978193
938.917216	2468.257308
939.219765	2468.075826
939.522275	2470.790488
939.824747	2467.390229
940.127179	2468.968111
940.429573	2468.040538
940.731929	2469.363841
941.034246	2469.255456
941.336524	2469.724284
941.638763	2469.875518
941.940964	2470.361990
942.243126	2468.496763
942.545250	2468.103553
942.847335	2466.999540
943.149381	2469.144551
943.451389	2466.253449
943.753359	2469.210086
944.055290	2468.055662
944.357182	2466.863429
944.659036	2467.450723
944.960851	2469.648666
945.262628	2466.129941
945.564367	2469.416773
945.866067	2465.915692
946.167729	2466.422328
946.469352	2467.836372
946.770937	2465.688840
947.072484	2465.872842
947.373992	2467.843933
947.675462	2466.797894
947.976893	2465.991309
948.278286	2462.117182
948.579641	2466.366875
948.880958	2464.335290
949.182236	2469.996506
949.483476	2466.636577
949.784678	2467.808645
950.085841	2465.961062
950.386967	2465.671196
950.688054	2471.183698
950.989103	2464.484004
951.290114	2465.981227
951.591087	2467.009622
951.892021	2466.644139
952.192917	2468.426187
952.493776	2467.370065
952.794596	2468.496763
953.095378	2468.267390
953.396122	2468.854685
953.696828	2467.024746
953.997496	2467.168419
954.298126	2466.692030
954.598718	2467.808645
954.899272	2468.562298
955.199788	2466.296299
955.500266	2467.944756
955.800706	2466.248408
956.101108	2466.815538
956.401472	2466.641618
956.701798	2467.380147
957.002087	2466.049283
957.302337	2465.207410
957.602550	2466.288737
957.902724	2462.631380
958.202861	2466.999540
958.502960	2462.954014
958.803022	2463.747996
959.103045	2463.720269
959.403031	2465.580455
959.702979	2466.124900
960.002889	2465.550208
960.302762	2465.320836
960.602596	2463.662296
960.902393	2463.677420
961.202153	2465.691361
961.501875	2463.921916
961.801559	2466.099694
962.101205	2466.107256
962.400814	2466.288737
962.700385	2463.808490
962.999918	2463.195989
963.299414	2462.848150
963.598873	2462.891000
963.898293	2460.720783
964.197677	2461.945783
964.497022	2464.685650
964.796331	2464.380661
965.095601	2465.056175
965.394835	2465.479632
965.694030	2465.378809
965.993189	2464.806638
966.292309	2464.158850
966.591393	2464.408387
966.890439	2465.353603
967.189447	2466.039200
967.488419	2462.954014
967.787353	2462.449899
968.086249	2464.874694
968.385108	2466.961731
968.683930	2466.245887
968.982714	2464.138685
969.281462	2465.005764
969.580172	2464.904941
969.878844	2464.698253
970.177480	2463.989971
970.476078	2467.196145
970.774639	2464.110959
971.073162	2462.724642
971.371649	2463.027111
971.670098	2464.720938
971.968510	2461.340845
972.266885	2463.969807
972.565223	2464.436113
972.863524	2463.349745
973.161788	2466.185394
973.460014	2464.879735
973.758204	2463.490897
974.056356	2463.740434
974.354471	2464.852008
974.652550	2463.354786
974.950591	2466.228243
975.248595	2462.724642
975.546563	2465.860239
975.844493	2466.944087
976.142386	2463.001905
976.440243	2467.957359
976.738062	2464.637759
977.035845	2461.456791
977.333590	2466.185394
977.631299	2464.020218
977.928971	2462.618777
978.226606	2458.943776
978.524204	2463.049796
978.821765	2454.174845
979.119290	2464.279838
979.416777	2463.715228
979.714228	2467.128089
980.011642	2462.296143
980.309020	2465.023408
980.606360	2464.040383
980.903664	2463.080043
981.200931	2462.654065
981.498162	2467.163377
981.795356	2465.204889
982.092513	2467.337297
982.389633	2466.747482
982.686717	2467.957359
982.983764	2470.493060
983.280775	2470.087247
983.577749	2468.050621
983.874686	2468.065744
984.171587	2465.953501
984.468451	2467.223871
984.765279	2465.923254
985.062070	2467.647328
985.358824	2465.779581
985.655543	2465.419138
985.952224	2465.739252
986.248869	2466.129941
986.545478	2467.027266
986.842050	2465.192286
987.138586	2464.244549
987.435086	2465.651031
987.731549	2461.056020
988.027975	2464.935188
988.324366	2462.873356
988.620719	2464.806638
988.917037	2464.869653
989.213318	2464.005095
989.509563	2463.339662
989.805772	2463.816051
990.101944	2464.854529
990.398080	2460.998046
990.694180	2463.662296
990.990244	2463.511062
991.286271	2462.134827
991.582262	2465.341000
991.878217	2463.816051
992.174136	2464.257152
992.470019	2462.535598
992.765865	2461.174487
993.061676	2460.950155
993.357450	2462.888479
993.653188	2457.300360
993.948890	2464.025259
994.244556	2462.883438
994.540186	2465.235136
994.835780	2466.324025
995.131337	2463.919395
995.426859	2463.324539
995.722345	2466.523151
996.017795	2464.403346
996.313208	2466.152626
996.608586	2465.217492
996.903928	2462.505351
997.199234	2465.933336
997.494504	2466.870991
997.789738	2464.768829
998.084936	2466.041721
998.380099	2466.346711
998.675225	2466.631536
998.970316	2467.233954
999.265371	2464.846967
999.560390	2464.378140
999.855373	2463.677420
1000.150320	2466.750003
1000.445232	2465.209930
1000.740108	2466.001392
1001.034948	2461.056020
1001.329752	2462.281020
1001.624521	2463.195989
1001.919254	2462.124744
1002.213951	2462.626339
1002.508613	2462.507872
1002.803239	2464.625157
1003.097829	2463.627008
1003.392384	2459.611729
1003.686903	2460.090639
1003.981386	2462.659107
1004.275834	2465.880404
1004.570246	2462.248253
1004.864623	2464.242029
1005.158964	2462.162553
1005.453270	2464.955352
1005.747540	2460.897223
1006.041775	2462.361678
1006.335974	2463.937039
1006.630138	2460.781277
1006.924266	2463.979889
1007.218359	2459.483180
1007.512416	2461.673561
1007.806438	2458.797583
1008.100425	2463.397636
1008.394376	2458.273303
1008.688292	2462.908644
1008.982172	2463.004426
1009.276017	2459.941925
1009.569827	2460.625001
1009.863602	2462.137347
1010.157341	2460.816565
1010.451045	2462.270938
1010.744714	2463.599282
1011.038347	2464.529375
1011.331945	2461.136678
1011.625508	2461.466874
1011.919036	2460.551904
1012.212528	2461.018211
1012.505986	2464.839406
1012.799408	2461.413942
1013.092795	2462.704477
1013.386147	2461.459312
1013.679464	2461.960907
1013.972745	2461.817234
1014.265992	2463.148098
1014.559204	2463.800928
1014.852380	2461.199693
1015.145521	2461.421503
1015.438628	2461.590382
1015.731699	2464.952832
1016.024736	2460.521657
1016.317737	2462.180197
1016.610703	2459.047120
1016.903635	2462.182717
1017.196531	2462.291102
1017.489393	2460.972841
1017.782219	2462.573407
1018.075011	2462.341514
1018.367768	2463.339662
1018.660490	2457.111317
1018.953177	2457.111317
1019.245829	2457.111317
