Dividing Wavelength (nm)	Counts (n)	Blue Motor Position (mm): 0.000000	Red Motor Position (mm): 39.000000	
326.493990	2052.785573
326.888308	2052.785573
327.282561	2052.785573
327.676750	2028.497293
328.070874	2028.401511
328.464933	2033.911492
328.858929	2043.910621
329.252859	2055.780018
329.646726	2066.739486
330.040528	2085.472414
330.434265	2098.783581
330.827938	2121.718310
331.221547	2139.720271
331.615091	2162.405463
332.008571	2181.748370
332.401986	2203.339632
332.795338	2224.202447
333.188625	2241.521331
333.581847	2263.435227
333.975006	2276.688421
334.368100	2296.361523
334.761129	2316.831129
335.154095	2329.244970
335.546996	2357.140195
335.939833	2400.791546
336.332606	2417.394586
336.725315	2429.730290
337.117960	2439.764706
337.510540	2447.205449
337.903056	2458.177521
338.295508	2464.620115
338.687896	2474.911631
339.080220	2475.093112
339.472480	2484.996459
339.864676	2486.382777
340.256807	2488.426964
340.648875	2492.648931
341.040879	2491.166832
341.432818	2491.244969
341.824694	2494.120948
342.216506	2494.499034
342.608253	2494.002481
342.999937	2492.439723
343.391557	2493.541215
343.783113	2492.207830
344.174605	2490.529126
344.566033	2486.186172
344.957397	2487.612818
345.348697	2487.333034
345.739934	2484.820019
346.131106	2481.298773
346.522215	2479.012610
346.913260	2480.502271
347.304241	2473.598410
347.695159	2476.726446
348.086012	2476.325675
348.476802	2472.587659
348.867528	2471.218986
349.258191	2467.090281
349.648789	2467.266721
350.039324	2462.850670
350.429796	2470.014150
350.820203	2465.351083
351.210548	2467.377627
351.600828	2465.474591
351.991045	2466.525672
352.381198	2465.214972
352.771288	2465.048613
353.161314	2465.940898
353.551276	2466.215641
353.941175	2463.445527
354.331010	2464.267235
354.720782	2465.222533
355.110490	2467.712863
355.500135	2463.059878
355.889717	2466.255970
356.279235	2466.472739
356.668689	2468.660600
357.058080	2466.916361
357.447408	2467.612040
357.836672	2467.745631
358.225873	2467.985086
358.615010	2468.148923
359.004084	2467.175980
359.393095	2470.966928
359.782043	2469.817545
360.170927	2469.925930
360.559748	2471.027422
360.948505	2471.692854
361.337199	2473.374079
361.725830	2475.544296
362.114398	2472.668317
362.502903	2477.349029
362.891344	2475.730818
363.279722	2475.443473
363.668037	2475.884574
364.056289	2479.287352
364.444478	2475.125880
364.832603	2480.010758
365.220665	2481.392034
365.608665	2477.953967
365.996601	2479.400778
366.384474	2479.620069
366.772284	2481.497898
367.160031	2480.199801
367.547715	2482.949751
367.935336	2482.216263
368.322893	2481.331540
368.710388	2478.752990
369.097820	2481.346664
369.485189	2479.557054
369.872495	2483.700883
370.259738	2484.366315
370.646918	2487.025524
371.034035	2487.569968
371.421090	2489.523415
371.808081	2488.552993
372.195010	2491.996101
372.581875	2491.078611
372.968678	2494.594816
373.355418	2494.209168
373.742096	2497.657317
374.128710	2500.936588
374.515262	2500.543378
374.901751	2503.565549
375.288177	2507.167454
375.674540	2508.883967
376.060841	2516.002076
376.447079	2517.932838
376.833254	2523.185720
377.219367	2531.281813
377.605417	2534.608975
377.991404	2541.200283
378.377329	2546.133052
378.763191	2552.845349
379.148991	2562.098387
379.534727	2572.518452
379.920402	2578.772003
380.306013	2589.534867
380.691563	2607.012547
381.077049	2612.066304
381.462474	2624.281019
381.847835	2639.583442
382.233134	2651.183137
382.618371	2660.796617
383.003545	2676.577949
383.388657	2694.905064
383.773706	2713.547251
384.158693	2724.287429
384.543618	2746.218969
384.928480	2757.826226
385.313280	2782.661470
385.698017	2799.388019
386.082692	2826.005311
386.467305	2838.409070
386.851856	2865.855632
387.236344	2890.136350
387.620770	2907.961870
388.005133	2927.342586
388.389435	2962.958338
388.773674	2979.284114
389.157851	3009.072293
389.541965	3036.647404
389.926018	3050.550906
390.310008	3084.878643
390.693936	3109.436624
391.077802	3137.465440
391.461606	3168.760923
391.845348	3187.461083
392.229027	3216.140207
392.612645	3257.649068
392.996200	3288.944551
393.379694	3323.589881
393.763125	3371.193497
394.146494	3396.885737
394.529801	3432.342693
394.913047	3477.813901
395.296230	3484.596773
395.679351	3506.130062
396.062410	3559.563772
396.445408	3536.319012
396.828343	3577.976586
397.211217	3612.178295
397.594028	3584.857761
397.976778	3635.138230
398.359466	3666.269875
398.742092	3679.570960
399.124656	3692.262065
399.507158	3753.421343
399.889598	3758.107096
400.271977	3821.786951
400.654294	3810.973676
401.036549	3874.875342
401.418742	3873.657903
401.800874	3941.781536
402.182944	3970.233808
402.564952	4059.429464
402.946898	4048.646436
403.328783	4047.784398
403.710606	4098.316925
404.092367	4168.958613
404.474067	4229.722161
404.855705	4214.359245
405.237282	4184.813042
405.618797	4283.876757
406.000250	4365.046895
406.381642	4447.134524
406.762972	4448.969504
407.144240	4415.632353
407.525447	4477.711642
407.906593	4498.261906
408.287677	4582.272735
408.668700	4607.228967
409.049661	4649.287314
409.430560	4687.844579
409.811399	4668.529398
410.192176	4718.414136
410.572891	4801.688956
410.953545	4909.887241
411.334138	4807.902178
411.714669	4917.627933
412.095139	4825.674766
412.475547	4939.957724
412.855894	4948.993992
413.236180	5047.344383
413.616405	4974.766891
413.996568	5083.179425
414.376670	5082.261935
414.756711	5078.241615
415.136691	5147.350793
415.516609	5236.223815
415.896466	5272.348723
416.276262	5351.522565
416.655997	5469.460359
417.035670	5559.651643
417.415283	5706.165217
417.794834	5777.605929
418.174324	5735.603035
418.553753	5737.057408
418.933121	5907.662657
419.312428	5917.737403
419.691674	5833.988714
420.070859	6072.304221
420.449983	5946.832423
420.829045	6148.990254
421.208047	6069.040074
421.586988	6229.419343
421.965867	6301.250744
422.344686	6388.871039
422.723444	6556.522172
423.102141	6168.219735
423.480777	6563.005096
423.859352	6375.466611
424.237866	6747.970071
424.616319	6745.462097
424.994712	6907.562920
425.373044	6820.708880
425.751314	7143.867006
426.129524	6857.088367
426.507673	7127.052238
426.885762	7175.588467
427.263789	7214.284364
427.641756	7304.649567
428.019662	7387.029583
428.397508	7429.448372
428.775292	7399.942498
429.153016	7582.459994
429.530679	7513.222266
429.908282	7562.688588
430.285824	7507.228334
430.663305	7791.330121
431.040726	7673.258736
431.418086	7679.537493
431.795385	7814.597567
432.172624	8006.872216
432.549802	7882.471662
432.926920	8022.696397
433.303977	7965.191956
433.680974	8005.427925
434.057910	8211.744708
434.434786	8262.060464
434.811601	8221.645534
435.188355	8557.865290
435.565050	8446.720450
435.941683	8463.540260
436.318257	8795.739696
436.694770	8748.365452
437.071222	8978.547058
437.447614	8755.970033
437.823946	8720.354281
438.200218	8877.096357
438.576429	8752.756297
438.952580	8924.518491
439.328670	8927.442361
439.704700	9004.284669
440.080670	8898.450685
440.456580	9170.357920
440.832429	9149.575764
441.208218	8882.961740
441.583947	8994.910643
441.959616	9121.209191
442.335224	9146.291452
442.710773	9237.122962
443.086261	9421.364532
443.461689	9129.373340
443.837057	9303.018404
444.212365	9527.932004
444.587612	9499.572993
444.962800	9400.620184
445.337927	9527.465697
445.712995	9066.545439
446.088002	9748.732022
446.462949	9807.048089
446.837837	9789.948496
447.212664	9812.961363
447.587431	10654.680300
447.962139	11671.163438
448.336786	12632.395530
448.711374	12408.132239
449.085901	11181.369972
449.460369	11106.158477
449.834776	10868.989832
450.209124	11802.414920
450.583412	11616.502207
450.957640	11936.484406
451.331808	11520.165757
451.705917	10950.152409
452.079965	10827.256640
452.453954	11022.364417
452.827883	10971.272323
453.201752	10939.117323
453.575562	10942.038672
453.949311	11295.463886
454.323001	11363.784123
454.696632	11274.626277
455.070202	11875.463759
455.443713	11934.956937
455.817164	12104.750560
456.190556	12417.791090
456.563888	12287.351234
456.937160	12557.441134
457.310373	12032.624251
457.683526	12049.519678
458.056619	12063.680279
458.429653	12132.701237
458.802628	12275.459152
459.175542	12329.588542
459.548398	12889.348183
459.921194	13462.023260
460.293930	13749.663936
460.666607	14612.270894
461.039224	15426.684422
461.411782	15787.676407
461.784280	15450.304748
462.156719	15404.909158
462.529099	15312.610672
462.901419	14660.262679
463.273680	14260.778963
463.645882	14477.286438
464.018024	14357.077604
464.390106	14729.802876
464.762130	15800.793490
465.134094	17354.953494
465.505999	19662.861781
465.877845	21963.646917
466.249631	23256.904524
466.621358	22786.464047
466.993026	21982.102581
467.364634	21224.707024
467.736184	20418.029147
468.107674	19795.968407
468.479105	19650.576489
468.850477	19373.882678
469.221790	18938.498384
469.593043	18264.034850
469.964238	17871.079428
470.335373	17929.607224
470.706449	18659.490684
471.077467	19510.583646
471.448425	22027.503212
471.819324	23933.422329
472.190164	23853.333518
472.560945	22082.688723
472.931667	20484.882409
473.302330	20141.181581
473.672934	19571.132945
474.043479	20013.847076
474.413965	19794.957655
474.784393	19602.231823
475.154761	20294.490631
475.525070	20411.200904
475.895321	20249.205946
476.265513	20784.579005
476.635645	21384.982949
477.005719	21452.965429
477.375734	21830.263027
477.745691	22466.232311
478.115588	23114.607875
478.485427	24329.324305
478.855207	26161.251887
479.224928	27992.962698
479.594591	29460.450145
479.964194	29114.334604
480.333739	29575.852239
480.703226	29806.517795
481.072653	30238.814381
481.442022	30771.805495
481.811333	31203.666021
482.180584	30760.525913
482.549777	30532.572498
482.918912	30286.904468
483.287988	30243.119526
483.657005	30092.106722
484.025964	29708.832836
484.394864	29911.840101
484.763706	29835.259933
485.132489	29274.179510
485.501213	29375.138698
485.869879	29554.785257
486.238487	29471.777618
486.607036	29747.122920
486.975527	29428.673232
487.343959	29782.920153
487.712333	30142.745112
488.080648	30101.405130
488.448905	30547.559848
488.817104	30417.422462
489.185244	31270.151279
489.553326	32215.584395
489.921350	34130.776714
490.289315	36685.351179
490.657222	37633.226733
491.025070	38230.787466
491.392861	37957.264541
491.760593	37178.207146
492.128267	36166.046798
492.495883	35168.238614
492.863440	34254.317751
493.230939	33263.927625
493.598380	32683.932793
493.965763	32503.046110
494.333088	31996.702536
494.700354	31804.758082
495.067563	31770.357249
495.434713	31641.046611
495.801805	31933.322629
496.168839	31773.192898
496.535815	31606.822218
496.902733	31735.913565
497.269593	31552.047561
497.636395	31705.336446
498.003139	31990.632987
498.369825	31735.043966
498.736453	32153.840342
499.103023	31986.887409
499.469535	32086.374580
499.835989	32187.434592
500.202385	32069.350604
500.568723	32121.645013
500.935003	32408.922727
501.301226	32259.545777
501.667390	33033.188972
502.033497	33240.093050
502.399546	33039.374468
502.765537	32625.105048
503.131470	33120.549648
503.497345	33545.040008
503.863163	32471.876656
504.228923	33260.688684
504.594625	33663.988553
504.960269	33147.847496
505.325856	33814.053621
505.691385	33466.793738
506.056856	33802.746313
506.422270	34287.097854
506.787625	33811.575894
507.152924	34276.085453
507.518164	34447.507369
507.883347	34018.941237
508.248472	34174.102911
508.613540	34887.141355
508.978550	35107.154953
509.343503	34925.842293
509.708398	35298.010517
510.073236	35904.388228
510.438016	35984.792111
510.802738	35661.770096
511.167403	36217.310291
511.532010	36471.510474
511.896561	37013.953751
512.261053	37773.325440
512.625488	37545.740029
512.989866	37474.821077
513.354186	37506.197218
513.718449	37480.222673
514.082655	38371.723004
514.446803	38056.666012
514.810894	38696.383394
515.174927	38703.993016
515.538904	38716.530366
515.902822	39357.071976
516.266684	39043.247547
516.630488	39397.267617
516.994235	39409.925954
517.357925	39992.181744
517.721558	40245.633315
518.085133	40627.420060
518.448651	40820.123207
518.812112	40704.917718
519.175516	40880.690150
519.538863	41317.972438
519.902152	41377.412683
520.265385	41924.995416
520.628560	41954.811321
520.991678	41897.221179
521.354739	42125.149389
521.717743	42500.609486
522.080690	42393.210224
522.443580	43100.625261
522.806413	43102.452679
523.169189	43240.267743
523.531908	43469.161333
523.894569	43310.347343
524.257174	43519.303170
524.619722	43867.525913
524.982213	44034.299885
525.344647	44074.412346
525.707025	44172.379610
526.069345	44624.203105
526.431608	44535.980393
526.793815	44932.767091
527.155964	44467.612264
527.518057	44714.711982
527.880093	44578.227782
528.242072	45217.269650
528.603995	44938.413183
528.965860	44837.907699
529.327669	45056.592953
529.689421	45140.258463
530.051117	45108.370644
530.412755	45366.167690
530.774337	45424.113233
531.135862	45366.525612
531.497331	45521.213418
531.858743	45502.354461
532.220098	45921.486074
532.581396	45643.758827
532.942638	45386.614610
533.303824	45660.172824
533.664953	45724.046763
534.026025	45371.783536
534.387040	45953.550333
534.747999	46024.504574
535.108902	46362.818929
535.469748	45655.383728
535.830537	45928.601663
536.191270	46189.614965
536.551947	45918.484067
536.912567	46178.990733
537.273131	46319.845613
537.633638	45958.175592
537.994089	46133.005328
538.354483	45879.362193
538.714821	46527.931841
539.075103	46827.331009
539.435328	46680.756940
539.795497	46429.054649
540.155609	46574.202072
540.515665	47158.910383
540.875665	46434.299970
541.235609	46700.336782
541.595496	46859.150772
541.955328	47422.446782
542.315102	46851.503342
542.674821	46743.025273
543.034483	46646.935839
543.394090	46654.968918
543.753640	46629.236348
544.113134	47705.063949
544.472571	46790.853220
544.831953	47936.876368
545.191278	47180.766305
545.550548	46875.736168
545.909761	47522.604427
546.268918	47638.528280
546.628019	48050.675375
546.987064	47472.765059
547.346053	46784.536654
547.704986	47711.783807
548.063863	47342.179010
548.422684	47548.989826
548.781449	47084.152592
549.140158	47628.045201
549.498811	47383.138385
549.857408	46762.438756
550.215949	47603.144421
550.574434	47435.062270
550.932864	47382.828354
551.291237	48086.336497
551.649555	47819.296495
552.007817	47998.217128
552.366022	47705.290801
552.724173	47768.426212
553.082267	48146.328748
553.440305	48504.575826
553.798288	47727.648318
554.156215	48118.836816
554.514086	48316.351744
554.871902	47894.346673
555.229661	48074.666226
555.587365	47734.746263
555.945014	47833.941047
556.302606	47852.404273
556.660143	47946.366340
557.017625	48158.608999
557.375050	47838.994804
557.732421	48208.037512
558.089735	48288.201941
558.446994	48125.818814
558.804197	48587.689329
559.161345	48430.937171
559.518437	47759.510931
559.875474	47993.402826
560.232455	48213.408862
560.589381	48223.934791
560.946251	48037.696924
561.303065	48670.142442
561.659825	48318.330397
562.016528	48100.978528
562.373177	47667.091458
562.729770	48291.675296
563.086307	47783.121175
563.442789	48325.904731
563.799216	48131.054052
564.155587	48026.066982
564.511904	47950.686609
564.868164	47971.239393
565.224370	48275.475548
565.580520	47977.901278
565.936615	48153.761930
566.292654	47764.773896
566.648638	48112.331207
567.004567	48002.184516
567.360441	48052.124706
567.716260	47736.424967
568.072023	48081.524716
568.427732	47969.061614
568.783385	47477.342427
569.138982	47852.134572
569.494525	47966.397365
569.850013	47534.209163
570.205445	47623.727452
570.560823	47358.713995
570.916145	47192.623099
571.271412	47394.463337
571.626625	46994.236051
571.981782	47032.430353
572.336884	46595.692510
572.691931	46866.069756
573.046923	46486.301992
573.401860	46259.651716
573.756743	46232.121974
574.111570	46334.084352
574.466342	46221.933802
574.821059	46330.603435
575.175722	45762.682167
575.530330	45803.049206
575.884882	45422.850424
576.239380	45262.715652
576.593823	45301.247711
576.948211	45196.351382
577.302544	44695.845463
577.656823	44621.206139
578.011047	44841.509604
578.365216	44614.435870
578.719330	44271.859219
579.073389	44210.054673
579.427394	44178.809601
579.781344	44035.345925
580.135239	43725.677926
580.489080	43733.779060
580.842866	43177.840614
581.196597	43591.666413
581.550273	43518.730999
581.903895	43385.470618
582.257463	43750.792955
582.610975	43123.272644
582.964434	43372.875295
583.317837	42806.398317
583.671186	42728.540216
584.024481	42922.531378
584.377721	42391.133268
584.730906	42514.303780
585.084037	42597.278652
585.437113	42266.369752
585.790135	42321.051148
586.143103	41805.880513
586.496016	41896.364183
586.848874	41935.060080
587.201679	41895.986097
587.554428	41316.634011
587.907124	41483.203817
588.259765	41197.017513
588.612352	41273.136415
588.964884	40703.675074
589.317362	40876.954655
589.669786	40805.766001
590.022155	40606.935332
590.374470	40975.370581
590.726731	40490.081386
591.078937	39798.533380
591.431090	40051.755579
591.783188	39495.859983
592.135232	39255.762428
592.487222	39412.116335
592.839157	39471.511210
593.191038	39060.977285
593.542866	38798.610433
593.894639	38154.968513
594.246358	38341.655042
594.598022	38268.240719
594.949633	37774.489947
595.301190	37680.570730
595.652692	37537.719553
596.004141	37909.192098
596.355535	36817.484862
596.706876	36740.347647
597.058162	36400.614207
597.409395	36766.475947
597.760573	36880.229583
598.111698	36433.041429
598.462768	36259.731601
598.813785	36200.588784
599.164748	35751.227892
599.515657	35900.188947
599.866511	35381.746603
600.217312	35869.566457
600.568060	34881.528030
600.918753	35499.780179
601.269392	35327.213921
601.619978	34982.169625
601.970510	35071.851752
602.320988	35089.193322
602.671412	35215.542281
603.021783	34995.022047
603.372100	34539.130340
603.722363	34521.224162
604.072572	34450.751352
604.422728	34348.236967
604.772830	34061.148297
605.122878	34116.671566
605.472872	33901.744492
605.822813	34005.645193
606.172701	33674.219575
606.522534	33832.148842
606.872314	33904.539812
607.222041	33670.095911
607.571714	33814.822397
607.921333	33285.314720
608.270899	33350.116232
608.620411	33529.102400
608.969870	33263.151287
609.319276	33150.531910
609.668627	33058.455235
610.017926	33263.965434
610.367171	33263.239508
610.716362	33185.908207
611.065500	32991.854031
611.414585	33029.100597
611.763616	33038.630898
612.112594	32856.017620
612.461518	32828.729855
612.810389	33005.031608
613.159207	32712.871536
613.507971	32573.118149
613.856682	32834.128930
614.205340	32584.296908
614.553945	32993.111799
614.902496	32359.791642
615.250994	32559.239852
615.599439	32494.486231
615.947830	32448.432770
616.296169	32310.864723
616.644454	32203.941850
616.992686	32175.976049
617.340864	32366.778681
617.688990	31882.875803
618.037063	32246.544641
618.385082	31971.968114
618.733048	32084.035485
619.080961	31866.618081
619.428821	31758.618922
619.776628	31654.506492
620.124382	31414.741653
620.472083	31365.948325
620.819731	31336.202997
621.167326	30897.998178
621.514868	30784.443668
621.862357	30272.093558
622.209793	30231.229965
622.557176	29805.156683
622.904506	29526.085968
623.251783	29169.205043
623.599007	28818.076075
623.946179	28649.827565
624.293297	28345.785494
624.640363	27858.300876
624.987376	27628.867883
625.334336	27382.463844
625.681243	26998.416141
626.028097	26804.311554
626.374899	26583.055311
626.721647	26433.028052
627.068343	26158.388511
627.414987	25856.897264
627.761577	25581.952734
628.108115	25668.244685
628.454600	25072.960033
628.801032	25094.531130
629.147412	24898.987293
629.493739	24721.185797
629.840014	24330.468647
630.186236	24471.779751
630.532405	24008.074256
630.878521	24038.086765
631.224585	23792.267501
631.570597	23464.302635
631.916556	23456.955153
632.262462	23273.681484
632.608316	23119.018884
632.954117	22922.592845
633.299866	22796.132980
633.645562	22642.201348
633.991206	22228.536866
634.336797	21892.110423
634.682336	21718.203218
635.027823	21486.476499
635.373257	21310.759520
635.718639	21015.055518
636.063968	20870.243332
636.409245	20397.252032
636.754470	20254.088304
637.099642	20038.402536
637.444762	19636.060486
637.789829	19601.256360
638.134845	19305.708633
638.479808	19152.462598
638.824719	19025.087763
639.169577	18655.997164
639.514383	18615.703221
639.859137	18307.179565
640.203839	18283.372716
640.548489	18050.960400
640.893086	17938.895550
641.237632	17696.995783
641.582125	17641.265827
641.926566	17438.593798
642.270955	17352.054831
642.615292	17232.103096
642.959576	17067.597643
643.303809	16976.188921
643.647990	16925.303514
643.992118	16820.444993
644.336195	16632.631765
644.680219	16579.084629
645.024192	16568.631797
645.368112	16721.358594
645.711981	16624.694469
646.055797	16840.962489
646.399562	16655.448028
646.743274	16939.237263
647.086935	17031.233279
647.430544	16922.137669
647.774101	16847.200917
648.117606	16893.967701
648.461059	16860.207094
648.804460	16607.673013
649.147810	16290.317255
649.491108	16070.827937
649.834354	15937.476815
650.177548	15494.361912
650.520690	15196.999370
650.863781	15093.761581
651.206820	14936.172591
651.549807	14685.017265
651.892742	14362.280075
652.235626	14243.273556
652.578458	14097.488428
652.921238	13746.911466
653.263967	13765.614147
653.606644	13563.872211
653.949269	13451.545221
654.291843	13224.116086
654.634365	13269.327674
654.976836	13021.242411
655.319255	12962.046662
655.661622	12831.687465
656.003938	12695.334336
656.346203	12552.354610
656.688416	12561.116135
657.030577	12407.867579
657.372687	12261.432142
657.714746	12236.027247
658.056753	12226.628016
658.398708	11935.297214
658.740612	11887.058413
659.082465	11883.327959
659.424266	11774.088676
659.766016	11699.068745
660.107715	11576.790517
660.449362	11532.461131
660.790958	11454.509769
661.132503	11365.624145
661.473996	11326.630820
661.815438	11277.981164
662.156829	11239.847356
662.498168	11112.906061
662.839456	11038.216326
663.180693	11003.515543
663.521879	10950.099477
663.863013	10877.753878
664.204097	10799.752105
664.545129	10843.461429
664.886110	10763.707855
665.227040	10729.778369
665.567918	10656.041412
665.908746	10615.598755
666.249522	10571.062681
666.590248	10516.156954
666.930922	10481.191511
667.271545	10430.338872
667.612118	10365.600374
667.952639	10258.400237
668.293109	10203.131547
668.633528	10091.046533
668.973896	10023.401810
669.314213	9943.582700
669.654480	9835.306277
669.994695	9759.820040
670.334859	9680.273153
670.674973	9566.655627
671.015035	9551.375890
671.355047	9477.291093
671.695008	9389.945541
672.034918	9312.878901
672.374777	9277.003530
672.714585	9195.278864
673.054342	9167.630656
673.394049	9076.446265
673.733705	9076.179084
674.073310	8955.269530
674.412864	8912.276049
674.752368	8791.237945
675.091820	8783.275443
675.431223	8638.755644
675.770574	8541.496663
676.109875	8447.837066
676.449125	8343.064245
676.788324	8264.931402
677.127473	8106.808049
677.466571	8030.568159
677.805619	7932.628622
678.144616	7863.320319
678.483562	7799.282541
678.822458	7682.259717
679.161303	7624.601519
679.500098	7559.830254
679.838842	7492.608988
680.177535	7458.520706
680.516179	7457.230171
680.854771	7421.768174
681.193314	7503.649115
681.531805	7646.086917
681.870247	7754.191941
682.208638	7863.645473
682.546978	7890.918115
682.885268	7879.225159
683.223508	7759.633866
683.561697	7669.974425
683.899836	7594.531037
684.237925	7483.156825
684.575963	7407.768890
684.913951	7298.774102
685.251889	7284.174921
685.589776	7242.489620
685.927614	7198.316509
686.265401	7190.112031
686.603137	7174.701224
686.940824	7216.625980
687.278460	7244.135556
687.616046	7256.892196
687.953582	7334.770461
688.291068	7301.256871
688.628504	7319.014335
688.965889	7291.676158
689.303224	7212.222532
689.640510	7125.582741
689.977745	6985.509241
690.314930	6828.578121
690.652065	6721.786318
690.989150	6573.220994
691.326185	6407.422485
691.663170	6270.182113
692.000105	6129.508715
692.336990	5998.012737
692.673825	5905.366412
693.010610	5796.147293
693.347345	5687.487743
693.684030	5569.391152
694.020665	5513.252863
694.357251	5392.124018
694.693786	5361.304924
695.030272	5310.013704
695.366707	5215.643304
695.703093	5153.390095
696.039429	5132.963340
696.375716	5077.366975
696.711952	5057.782092
697.048139	5017.578890
697.384276	4975.071881
697.720363	4975.238239
698.056400	4939.766160
698.392388	4898.562289
698.728326	4876.734093
699.064214	4838.844781
699.400053	4817.266122
699.735842	4749.066872
700.071581	4700.167679
700.407270	4653.267305
700.742910	4609.076550
701.078501	4561.989652
701.414042	4516.757900
701.749533	4460.848983
702.084974	4407.518616
702.420366	4413.343670
702.755709	4348.847147
703.091002	4301.462822
703.426246	4283.594452
703.761440	4259.500257
704.096584	4219.619689
704.431679	4196.057336
704.766725	4175.991023
705.101721	4148.642763
705.436668	4144.687978
705.771565	4104.583079
706.106413	4117.110346
706.441212	4107.151547
706.775961	4102.261627
707.110661	4096.083693
707.445311	4114.287300
707.779913	4087.307045
708.114465	4095.733333
708.448967	4109.382257
708.783421	4155.261798
709.117825	4174.450951
709.452180	4183.850182
709.786485	4210.144840
710.120742	4267.036782
710.454949	4271.122637
710.789107	4319.200122
711.123216	4375.164491
711.457275	4400.604674
711.791286	4442.559677
712.125247	4458.832521
712.459159	4427.279939
712.793023	4478.631653
713.126837	4382.164133
713.460602	4381.730594
713.794318	4332.796113
714.127985	4289.595946
714.461602	4192.767983
714.795171	4169.828213
715.128691	4069.801638
715.462162	4006.555322
715.795584	3952.057928
716.128957	3914.415632
716.462281	3863.822612
716.795556	3830.248528
717.128782	3775.627626
717.461960	3718.355077
717.795088	3707.612378
718.128167	3670.867408
718.461198	3628.496510
718.794180	3608.266359
719.127113	3575.254363
719.459997	3553.882392
719.792833	3516.141793
720.125619	3509.210207
720.458357	3480.692399
720.791046	3462.619863
721.123686	3442.624126
721.456278	3419.981784
721.788821	3409.286976
722.121315	3386.352246
722.453761	3383.980383
722.786158	3370.301213
723.118506	3373.754403
723.450805	3356.705221
723.783056	3358.867876
724.115259	3347.769775
724.447412	3339.396419
724.779518	3344.886235
725.111574	3344.089733
725.443582	3352.090044
725.775542	3342.597552
726.107453	3369.008157
726.439315	3359.513143
726.771129	3377.673900
727.102895	3389.951630
727.434612	3408.934095
727.766281	3410.519538
728.097901	3429.864966
728.429473	3428.914708
728.760996	3427.228442
729.092471	3420.697628
729.423897	3407.414187
729.755276	3388.313255
730.086606	3381.537944
730.417887	3400.626273
730.749120	3423.253493
731.080305	3425.882454
731.411442	3435.982406
731.742530	3431.601643
732.073570	3429.081066
732.404562	3439.856533
732.735506	3432.506530
733.066401	3417.655291
733.397249	3387.257133
733.728048	3341.778364
734.058798	3297.292702
734.389501	3250.699837
734.720156	3215.668859
735.050762	3184.464117
735.381320	3155.432112
735.711831	3136.754637
736.042293	3114.019033
736.372707	3107.954525
736.703073	3092.258893
737.033391	3097.489090
737.363661	3093.080601
737.693883	3092.523553
738.024056	3098.978751
738.354182	3107.480657
738.684260	3122.175620
739.014290	3133.399749
739.344272	3143.514824
739.674207	3156.878923
740.004093	3164.198679
740.333931	3161.698266
740.663722	3160.662309
740.993464	3156.233656
741.323159	3143.502222
741.652806	3124.746609
741.982405	3115.337295
742.311956	3090.396186
742.641460	3079.308168
742.970915	3058.236145
743.300323	3036.004657
743.629683	3020.750125
743.958996	3007.328053
744.288260	2988.703510
744.617477	2972.891931
744.946647	2966.262814
745.275768	2954.068263
745.604842	2943.799433
745.933869	2935.237033
746.262847	2930.024480
746.591778	2924.080959
746.920662	2913.963363
747.249498	2912.680390
747.578286	2913.116450
747.907027	2919.778334
748.235720	2923.838984
748.564365	2926.231011
748.892963	2921.613314
749.221514	2923.332348
749.550017	2914.031419
749.878473	2911.672159
750.206881	2901.315108
750.535242	2894.915364
750.863555	2888.772718
751.191821	2881.894063
751.520039	2880.963970
751.848210	2875.098588
752.176334	2874.213865
752.504411	2869.568442
752.832440	2861.605940
753.160421	2861.774818
753.488356	2856.305166
753.816243	2857.666278
754.144082	2847.465503
754.471875	2844.735718
754.799620	2837.892352
755.127318	2840.339832
755.454969	2834.401353
755.782572	2831.316167
756.110129	2830.935560
756.437638	2828.780466
756.765100	2827.704180
757.092515	2826.832060
757.419882	2826.012873
757.747203	2826.438850
758.074477	2827.888182
758.401703	2826.396001
758.728882	2832.546208
759.056014	2832.858760
759.383099	2837.395798
759.710138	2835.182732
760.037129	2835.112156
760.364073	2837.279852
760.690970	2833.093173
761.017820	2835.560818
761.344623	2835.868329
761.671379	2844.229082
761.998088	2856.189220
762.324751	2888.054353
762.651366	2959.409365
762.977935	3067.453895
763.304456	3150.128818
763.630931	3193.041640
763.957359	3173.403826
764.283740	3124.613018
764.610074	3067.718556
764.936362	3001.659276
765.262602	2948.709516
765.588796	2900.740417
765.914943	2864.360930
766.241044	2829.745847
766.567097	2805.150058
766.893104	2786.074332
767.219064	2771.802825
767.544978	2755.293046
767.870845	2744.840214
768.196665	2737.714543
768.522438	2729.658779
768.848165	2723.211143
769.173846	2716.662684
769.499479	2711.828218
769.825066	2707.205480
770.150607	2702.799511
770.476101	2698.186855
770.801548	2692.162677
771.126949	2688.517922
771.452303	2684.396779
771.777611	2680.527693
772.102872	2681.004082
772.428087	2675.116015
772.753256	2671.337670
773.078378	2668.229799
773.403453	2662.921464
773.728482	2659.455670
774.053465	2657.214877
774.378401	2655.054743
774.703291	2650.694145
775.028135	2648.362611
775.352932	2647.271202
775.677683	2645.058135
776.002388	2639.112094
776.327046	2638.025725
776.651658	2637.698050
776.976224	2631.361320
777.300743	2636.372227
777.625216	2634.643111
777.949643	2632.072123
778.274024	2630.065743
778.598359	2627.290588
778.922647	2631.457102
779.246889	2628.757564
779.571086	2627.610702
779.895236	2625.337141
780.219339	2627.887965
780.543397	2624.651544
780.867409	2626.557100
781.191374	2628.381998
781.515294	2626.766308
781.839167	2630.232102
782.162995	2628.039200
782.486776	2623.088787
782.810511	2625.649693
783.134201	2626.935187
783.457844	2621.894033
783.781441	2620.295987
784.104993	2621.407562
784.428498	2619.519650
784.751958	2617.004114
785.075372	2618.576954
785.398739	2614.665018
785.722061	2615.186778
786.045337	2617.709875
786.368568	2619.184413
786.691752	2619.416306
787.014891	2624.338993
787.337983	2628.066926
787.661030	2640.758031
787.984031	2654.348982
788.306987	2661.421720
788.629897	2666.747699
788.952760	2666.104952
789.275579	2662.182935
789.598351	2657.739157
789.921078	2651.505771
790.243759	2639.775006
790.566395	2636.972124
790.888984	2629.203706
791.211529	2624.351596
791.534027	2617.619135
791.856480	2615.310286
792.178888	2612.630913
792.501249	2606.306785
792.823566	2606.400047
793.145836	2601.568101
793.468062	2606.586569
793.790241	2603.745879
794.112375	2606.377362
794.434464	2608.534975
794.756507	2606.354676
795.078505	2608.968515
795.400457	2613.256016
795.722364	2624.593571
796.044226	2624.979219
796.366042	2632.500621
796.687812	2630.469036
797.009538	2632.203193
797.331218	2630.731176
797.652852	2631.021042
797.974442	2628.518109
798.295986	2626.337810
798.617484	2621.384877
798.938938	2618.284567
799.260346	2617.452777
799.581709	2614.095368
799.903026	2611.466406
800.224299	2606.979779
800.545526	2603.561877
800.866708	2602.341918
801.187845	2601.008533
801.508936	2599.261773
801.829983	2597.820003
802.150984	2595.735486
802.471940	2593.535022
802.792851	2592.589806
803.113717	2593.774477
803.434538	2592.436051
803.755314	2591.947059
804.076045	2589.494537
804.396731	2588.698035
804.717372	2587.999835
805.037967	2588.350195
805.358518	2587.888930
805.679024	2589.345823
805.999485	2592.191555
806.319901	2591.014445
806.640272	2589.857500
806.960598	2593.071236
807.280879	2590.722058
807.601115	2594.870928
807.921306	2593.971082
808.241453	2591.468149
808.561554	2588.587130
808.881611	2590.522933
809.201623	2588.284660
809.521590	2594.565938
809.841513	2591.175762
810.161390	2593.663572
810.481223	2587.866245
810.801011	2589.890268
811.120755	2588.970257
811.440453	2588.206523
811.760107	2588.914805
812.079716	2586.621080
812.399281	2583.518249
812.718801	2584.559248
813.038276	2583.621593
813.357707	2580.773341
813.677093	2583.533373
813.996434	2579.596232
814.315731	2582.361305
814.634983	2582.847776
814.954191	2581.103537
815.273354	2583.067066
815.592473	2586.200143
815.911547	2586.585792
816.230577	2590.228025
816.549562	2593.098962
816.868502	2593.121647
817.187399	2595.085177
817.506250	2599.622215
817.825058	2601.537854
818.143821	2604.270159
818.462539	2609.863319
818.781213	2618.710544
819.099843	2626.859570
819.418429	2645.723567
819.736970	2660.952893
820.055466	2683.431398
820.373919	2709.663042
820.692327	2745.455234
821.010691	2810.324802
821.329011	2952.331585
821.647286	3202.453475
821.965517	3526.438350
822.283704	3760.589864
822.601847	3890.303793
822.919945	3798.970689
823.237999	3658.130933
823.556010	3504.259794
823.873976	3354.814788
824.191897	3221.183882
824.509775	3118.064559
824.827609	3021.871782
825.145398	2957.579427
825.463144	2920.968047
825.780845	2912.635019
826.098502	2926.057092
826.416116	2983.937099
826.733685	3050.742470
827.051210	3085.791092
827.368692	3073.518403
827.686129	3009.137827
828.003522	2940.371448
828.320872	2868.928216
828.638177	2814.398054
828.955439	2768.861312
829.272656	2729.462174
829.589830	2704.286652
829.906960	2678.453259
830.224046	2654.119609
830.541088	2642.066210
830.858086	2630.751340
831.175041	2621.193313
831.491952	2616.946141
831.808819	2616.933538
832.125642	2619.804475
832.442421	2634.287710
832.759157	2660.287461
833.075849	2708.586756
833.392497	2762.955600
833.709101	2806.627116
834.025662	2816.124650
834.342179	2796.817030
834.658653	2759.396545
834.975083	2726.762636
835.291469	2696.432534
835.607811	2672.053514
835.924110	2650.220277
836.240366	2633.082874
836.556578	2616.048815
836.872746	2601.920982
837.188871	2594.523088
837.504952	2583.654361
837.820990	2575.245716
838.136984	2573.133473
838.452935	2568.851012
838.768842	2565.685168
839.084706	2573.486353
839.400526	2590.522933
839.716303	2621.838580
840.032037	2643.830614
840.347727	2646.809936
840.663373	2634.829634
840.978977	2613.853393
841.294537	2602.430138
841.610054	2589.237438
841.925527	2581.577405
842.240957	2571.628688
842.556344	2565.110476
842.871687	2557.974723
843.186987	2549.157745
843.502244	2542.916796
843.817458	2544.860161
844.132629	2539.551826
844.447756	2536.370858
844.762840	2534.190559
845.077881	2535.166022
845.392879	2533.202493
845.707833	2535.208872
846.022745	2532.716022
846.337613	2533.895652
846.652438	2529.560259
846.967221	2529.666123
847.281960	2528.796524
847.596656	2527.846267
847.911309	2525.555063
848.225919	2525.504651
848.540485	2524.398118
848.855009	2528.166380
849.169490	2526.026410
849.483928	2525.310567
849.798323	2524.388035
850.112675	2524.738396
850.426984	2525.343334
850.741251	2522.348889
851.055474	2526.472553
851.369654	2523.402490
851.683792	2523.231091
851.997887	2523.157994
852.311938	2526.210412
852.625947	2525.154291
852.939914	2523.278982
853.253837	2526.170083
853.567718	2524.647655
853.881555	2523.299146
854.195350	2524.103210
854.509103	2525.103879
854.822812	2522.812675
855.136479	2526.041534
855.450103	2526.409538
855.763685	2521.509537
856.077224	2520.397962
856.390720	2523.682274
856.704173	2518.739422
857.017584	2522.646317
857.330953	2522.444671
857.644278	2526.033972
857.957561	2529.393901
858.270802	2527.821061
858.584000	2526.742254
858.897155	2524.803931
859.210268	2527.170752
859.523339	2526.901051
859.836367	2524.569517
860.149352	2528.531864
860.462295	2524.748478
860.775195	2524.317459
861.088054	2520.803775
861.400869	2523.720082
861.713642	2524.269568
862.026373	2524.899713
862.339062	2522.936183
862.651708	2524.204033
862.964312	2524.783766
863.276873	2525.996163
863.589392	2525.872655
863.901869	2527.664785
864.214303	2527.707635
864.526696	2528.224353
864.839045	2529.885414
865.151353	2529.860208
865.463619	2532.884900
865.775842	2531.327184
866.088023	2532.151412
866.400162	2533.000847
866.712258	2534.624098
867.024313	2531.228881
867.336325	2532.600075
867.648296	2533.840199
867.960224	2533.719211
868.272110	2534.203162
868.583954	2534.372041
868.895755	2532.658048
869.207515	2532.849612
869.519233	2535.594520
869.830909	2534.026722
870.142542	2534.233409
870.454134	2534.218285
870.765684	2535.748276
871.077191	2536.464119
871.388657	2535.481094
871.700081	2536.706095
872.011463	2537.706764
872.322803	2537.507638
872.634101	2543.604914
872.945357	2541.117104
873.256571	2542.914276
873.567744	2544.159441
873.878874	2546.448125
874.189963	2545.003834
874.501010	2546.546427
874.812015	2546.306972
875.122979	2546.801005
875.433900	2548.038609
875.744780	2549.813095
876.055618	2547.131201
876.366415	2551.804351
876.677169	2548.643547
876.987882	2550.826367
877.298554	2551.317879
877.609183	2552.469783
877.919771	2557.490772
878.230317	2561.599312
878.540822	2565.856567
878.851285	2573.486353
879.161707	2581.852148
879.472087	2598.435024
879.782425	2623.575258
880.092722	2662.876093
880.402977	2728.499313
880.713191	2819.877789
881.023363	2918.447470
881.333494	2990.742657
881.643583	3026.991074
881.953631	3027.457381
882.263637	3003.953001
882.573602	2973.017960
882.883526	2938.521344
883.193408	2899.626322
883.503248	2859.372708
883.813048	2826.680826
884.122806	2792.988274
884.432522	2758.332862
884.742197	2729.951166
885.051831	2702.963349
885.361424	2677.218176
885.670975	2654.480052
885.980485	2636.203348
886.289954	2622.350257
886.599382	2610.314503
886.908768	2598.792946
887.218113	2588.801379
887.527417	2580.334761
887.836680	2572.021898
888.145901	2569.201372
888.455082	2563.630898
888.764221	2562.277348
889.073319	2560.011349
889.382376	2555.655792
889.691392	2555.456667
890.000366	2553.490617
890.309300	2552.832746
890.618193	2553.538507
890.927044	2553.856100
891.235855	2552.860472
891.544625	2552.840308
891.853353	2557.649568
892.162041	2558.922460
892.470687	2562.131154
892.779293	2566.063254
893.087858	2575.364183
893.396381	2588.824064
893.704864	2601.426948
894.013306	2628.523150
894.321707	2654.424599
894.630068	2674.647187
894.938387	2684.853003
895.246665	2686.408199
895.554903	2672.350942
895.863100	2660.847029
896.171256	2645.940337
896.479371	2634.184366
896.787446	2625.334621
897.095480	2614.216356
897.403473	2606.445417
897.711425	2597.981320
898.019336	2591.115268
898.327207	2584.576892
898.635038	2580.448187
898.942827	2572.200859
899.250576	2567.636094
899.558284	2563.341031
899.865952	2559.250135
900.173579	2554.478683
900.481165	2552.961295
900.788711	2549.588763
901.096216	2547.511808
901.403681	2546.954761
901.711105	2545.334030
902.018489	2545.583567
902.325832	2542.952084
902.633135	2545.147507
902.940397	2555.176882
903.247619	2565.826320
903.554800	2601.006012
903.861941	2648.687766
904.169041	2690.829291
904.476101	2714.928527
904.783121	2711.009030
905.090100	2698.504448
905.397039	2679.332940
905.703938	2657.640855
906.010796	2643.276087
906.317614	2629.670013
906.624391	2616.041253
906.931129	2601.311002
907.237826	2590.371698
907.544483	2585.413723
907.851099	2569.743297
908.157675	2562.153839
908.464211	2551.363250
908.770707	2549.288815
909.077163	2540.005530
909.383578	2537.036290
909.689954	2532.595034
909.996289	2534.054448
910.302584	2527.808458
910.608839	2526.507841
910.915054	2524.844260
911.221229	2526.346524
911.527363	2528.378109
911.833458	2525.383663
912.139513	2526.641431
912.445527	2526.381812
912.751502	2529.996319
913.057436	2533.041176
913.363331	2536.759027
913.669186	2538.162988
913.975000	2550.851573
914.280775	2557.848694
914.586510	2574.144224
914.892205	2589.658375
915.197859	2615.746346
915.503475	2647.157776
915.809050	2677.611386
916.114585	2694.668130
916.420081	2704.304296
916.725536	2706.603062
917.030952	2699.454706
917.336328	2691.111596
917.641665	2678.420491
917.946961	2664.421207
918.252218	2658.296205
918.557435	2639.946405
918.862612	2631.414252
919.167750	2623.290433
919.472848	2612.330964
919.777906	2600.194386
920.082925	2591.498396
920.387904	2584.216449
920.692843	2574.930644
920.997743	2567.729356
921.302603	2559.098900
921.607423	2553.989691
921.912204	2549.538352
922.216946	2548.567930
922.521647	2543.252033
922.826310	2537.860519
923.130932	2534.984541
923.435516	2534.273738
923.740059	2530.374406
924.044564	2526.001205
924.349028	2528.725948
924.653454	2525.857532
924.957840	2524.002387
925.262186	2523.783097
925.566493	2518.724299
925.870761	2518.847807
926.174989	2515.707168
926.479178	2516.105420
926.783328	2516.294463
927.087438	2513.267250
927.391509	2515.140039
927.695541	2512.314472
927.999533	2510.618124
928.303486	2514.703979
928.607400	2509.317506
928.911275	2511.492764
929.215110	2510.439163
929.518906	2509.277177
929.822663	2509.912362
930.126381	2509.567043
930.430060	2506.965808
930.733699	2507.848010
931.037299	2508.773061
931.340861	2508.528565
931.644383	2512.574091
931.947866	2506.781806
932.251309	2509.919924
932.554714	2509.468741
932.858080	2506.386075
933.161407	2505.304747
933.464694	2507.472444
933.767943	2504.258708
934.071153	2509.125942
934.374323	2506.529748
934.677455	2507.517814
934.980548	2507.064110
935.283602	2507.028822
935.586617	2508.032012
935.889593	2509.854389
936.192530	2509.012516
936.495428	2508.636950
936.798287	2510.570233
937.101108	2507.432114
937.403890	2509.418329
937.706632	2510.804646
938.009336	2513.332785
938.312002	2516.455780
938.614628	2518.323527
938.917216	2520.370236
939.219765	2521.948117
939.522275	2521.441481
939.824747	2520.155987
940.127179	2522.376615
940.429573	2520.057684
940.731929	2523.208405
941.034246	2520.118178
941.336524	2523.331914
941.638763	2519.528363
941.940964	2518.378980
942.243126	2520.753363
942.545250	2516.274298
942.847335	2515.850841
943.149381	2517.012827
943.451389	2514.991325
943.753359	2515.840759
944.055290	2513.947806
944.357182	2515.644154
944.659036	2511.212980
944.960851	2514.028464
945.262628	2510.613082
945.564367	2512.848834
945.866067	2510.603000
946.167729	2511.580984
946.469352	2509.115860
946.770937	2511.255830
947.072484	2511.893536
947.373992	2511.883453
947.675462	2509.143586
947.976893	2509.287259
948.278286	2505.115704
948.579641	2508.059738
948.880958	2503.162257
949.182236	2507.628719
949.483476	2507.366579
949.784678	2509.042763
950.085841	2507.139727
950.386967	2510.953360
950.688054	2509.183915
950.989103	2510.421519
951.290114	2509.078051
951.591087	2510.519821
951.892021	2512.445542
952.192917	2512.160717
952.493776	2512.180881
952.794596	2513.579802
953.095378	2514.772034
953.396122	2515.271109
953.696828	2513.564678
953.997496	2512.551406
954.298126	2513.337826
954.598718	2510.202228
954.899272	2511.122239
955.199788	2512.843793
955.500266	2507.580828
955.800706	2510.557630
956.101108	2507.341374
956.401472	2505.733246
956.701798	2506.199552
957.002087	2500.490446
957.302337	2504.767865
957.602550	2501.249139
957.902724	2500.256032
958.202861	2500.543378
958.502960	2497.808552
958.803022	2499.940960
959.103045	2496.830568
959.403031	2495.850063
959.702979	2495.547594
960.002889	2495.532471
960.302762	2496.258397
960.602596	2494.793942
960.902393	2495.252687
961.202153	2492.432161
961.501875	2493.977275
961.801559	2495.885352
962.101205	2493.228663
962.400814	2492.291009
962.700385	2493.397542
962.999918	2490.907212
963.299414	2488.346306
963.598873	2486.836480
963.898293	2485.664412
964.197677	2491.696153
964.497022	2492.086842
964.796331	2495.023314
965.095601	2489.541059
965.394835	2492.636328
965.694030	2490.045175
965.993189	2490.977788
966.292309	2489.248673
966.591393	2491.184476
966.890439	2488.263127
967.189447	2490.579537
967.488419	2487.675832
967.787353	2491.983498
968.086249	2491.055926
968.385108	2494.713283
968.683930	2490.844198
968.982714	2488.336224
969.281462	2490.246821
969.580172	2491.441574
969.878844	2492.419558
970.177480	2490.750936
970.476078	2491.121461
970.774639	2491.905361
971.073162	2491.592809
971.371649	2492.253200
971.670098	2492.278406
971.968510	2493.465598
972.266885	2493.261431
972.565223	2491.857470
972.863524	2491.020638
973.161788	2491.489465
973.460014	2492.485093
973.758204	2491.423930
974.056356	2492.971565
974.354471	2492.084322
974.652550	2489.858652
974.950591	2491.418889
975.248595	2492.175062
975.546563	2491.330669
975.844493	2491.630618
976.142386	2493.876452
976.440243	2490.985350
976.738062	2491.010556
977.035845	2489.409989
977.333590	2490.521564
977.631299	2490.914774
977.928971	2486.682725
978.226606	2487.769094
978.524204	2488.210195
978.821765	2483.569813
979.119290	2489.430154
979.416777	2489.336893
979.714228	2491.673467
980.011642	2489.475524
980.309020	2487.995946
980.606360	2490.939980
980.903664	2490.206492
981.200931	2492.142295
981.498162	2493.480721
981.795356	2496.823006
982.092513	2501.158398
982.389633	2503.431959
982.686717	2505.980262
982.983764	2510.930675
983.280775	2512.359842
983.577749	2515.787827
983.874686	2511.316323
984.171587	2512.964781
984.468451	2508.563853
984.765279	2508.508401
985.062070	2507.316168
985.358824	2501.841475
985.655543	2504.543533
985.952224	2501.806187
986.248869	2496.911226
986.545478	2497.024652
986.842050	2491.832264
987.138586	2493.049702
987.435086	2490.929897
987.731549	2486.254227
988.027975	2487.391007
988.324366	2486.193733
988.620719	2486.546614
988.917037	2487.819505
989.213318	2486.556696
989.509563	2485.644247
989.805772	2484.189875
990.101944	2483.189206
990.398080	2482.337251
990.694180	2485.152735
990.990244	2485.747591
991.286271	2483.554689
991.582262	2482.538897
991.878217	2482.675008
992.174136	2484.847745
992.470019	2483.927735
992.765865	2483.867241
993.061676	2479.771303
993.357450	2483.663074
993.653188	2478.609317
993.948890	2486.634834
994.244556	2483.920173
994.540186	2486.692808
994.835780	2485.719865
995.131337	2487.179279
995.426859	2487.743888
995.722345	2493.763026
996.017795	2493.626915
996.313208	2496.318891
996.608586	2495.729076
996.903928	2498.048007
997.199234	2497.110352
997.494504	2498.665548
997.789738	2495.751761
998.084936	2498.090856
998.380099	2495.141781
998.675225	2492.979126
998.970316	2492.701863
999.265371	2491.058447
999.560390	2489.735144
999.855373	2487.907726
1000.150320	2485.853455
1000.445232	2484.147025
1000.740108	2481.911273
1001.034948	2482.498568
1001.329752	2481.208032
1001.624521	2481.591160
1001.919254	2481.308855
1002.213951	2484.318424
1002.508613	2482.153248
1002.803239	2477.298617
1003.097829	2477.717033
1003.392384	2483.610142
1003.686903	2481.392034
1003.981386	2479.877167
1004.275834	2479.297435
1004.570246	2481.051756
1004.864623	2479.431025
1005.158964	2478.871457
1005.453270	2481.281129
1005.747540	2477.424646
1006.041775	2479.877167
1006.335974	2477.787609
1006.630138	2478.395068
1006.924266	2479.408340
1007.218359	2477.780047
1007.512416	2477.371714
1007.806438	2471.581949
1008.100425	2474.226034
1008.394376	2474.299131
1008.688292	2478.095120
1008.982172	2472.789305
1009.276017	2478.526138
1009.569827	2478.505974
1009.863602	2478.553865
1010.157341	2476.552527
1010.451045	2478.984883
1010.744714	2477.477578
1011.038347	2478.153093
1011.331945	2474.462968
1011.625508	2478.374904
1011.919036	2478.823566
1012.212528	2477.147383
1012.505986	2477.336426
1012.799408	2474.929275
1013.092795	2480.779534
1013.386147	2476.300469
1013.679464	2476.161837
1013.972745	2475.796353
1014.265992	2475.279635
1014.559204	2475.821559
1014.852380	2475.824080
1015.145521	2477.777527
1015.438628	2476.159317
1015.731699	2476.751652
1016.024736	2475.592187
1016.317737	2473.943729
1016.610703	2473.893318
1016.903635	2479.007568
1017.196531	2474.387351
1017.489393	2473.913482
1017.782219	2475.035139
1018.075011	2473.462299
1018.367768	2474.793164
1018.660490	2474.508339
1018.953177	2474.508339
1019.245829	2474.508339
