Dividing Wavelength (nm)	Counts (n)	Blue Motor Position (mm): 0.000000	Red Motor Position (mm): 15.000000	
326.493990	2053.589637
326.888308	2053.589637
327.282561	2053.589637
327.676750	2028.431758
328.070874	2027.484021
328.464933	2035.315454
328.858929	2043.207380
329.252859	2053.239276
329.646726	2067.651935
330.040528	2085.462332
330.434265	2099.776688
330.827938	2123.729731
331.221547	2141.504839
331.615091	2162.100473
332.008571	2183.061591
332.401986	2202.969107
332.795338	2224.560369
333.188625	2245.075345
333.581847	2261.333066
333.975006	2282.223608
334.368100	2298.352779
334.761129	2310.179326
335.154095	2332.201607
335.546996	2343.907166
335.939833	2357.460308
336.332606	2373.539068
336.725315	2382.320758
337.117960	2393.673437
337.510540	2403.087792
337.903056	2411.672877
338.295508	2418.682601
338.687896	2428.172573
339.080220	2428.578386
339.472480	2433.990065
339.864676	2441.481219
340.256807	2442.741508
340.648875	2446.555141
341.040879	2446.313165
341.432818	2448.528752
341.824694	2449.161417
342.216506	2445.652774
342.608253	2449.605039
342.999937	2447.729729
343.391557	2446.998762
343.783113	2443.139759
344.174605	2443.026333
344.566033	2443.008689
344.957397	2443.573298
345.348697	2438.446445
345.739934	2438.887546
346.131106	2432.626433
346.522215	2435.298244
346.913260	2429.705084
347.304241	2428.162491
347.695159	2429.379929
348.086012	2428.815320
348.476802	2426.080494
348.867528	2422.050092
349.258191	2422.332396
349.648789	2420.628486
350.039324	2416.517425
350.429796	2421.130081
350.820203	2419.728640
351.210548	2421.561100
351.600828	2418.291912
351.991045	2417.268557
352.381198	2413.490212
352.771288	2416.411561
353.161314	2418.102868
353.551276	2418.327200
353.941175	2418.228897
354.331010	2418.173444
354.720782	2415.289904
355.110490	2421.409865
355.500135	2418.758218
355.889717	2423.411203
356.279235	2417.807961
356.668689	2417.220666
357.058080	2420.565472
357.447408	2417.061870
357.836672	2422.818868
358.225873	2419.952972
358.615010	2421.656882
359.004084	2420.003383
359.393095	2421.253589
359.782043	2423.824578
360.170927	2420.303332
360.559748	2422.133271
360.948505	2426.836667
361.337199	2426.619898
361.725830	2421.838363
362.114398	2425.145360
362.502903	2427.292892
362.891344	2429.710125
363.279722	2427.721390
363.668037	2430.436051
364.056289	2428.197779
364.444478	2429.266503
364.832603	2430.826741
365.220665	2429.901689
365.608665	2429.848757
365.996601	2430.239446
366.384474	2430.322625
366.772284	2434.491659
367.160031	2428.885896
367.547715	2433.846392
367.935336	2433.243974
368.322893	2430.501586
368.710388	2428.129723
369.097820	2429.032090
369.485189	2429.309353
369.872495	2433.465785
370.259738	2436.750096
370.646918	2432.807914
371.034035	2438.494336
371.421090	2438.206990
371.808081	2438.587597
372.195010	2439.154727
372.581875	2440.815787
372.968678	2441.937444
373.355418	2443.474996
373.742096	2445.004986
374.128710	2446.797116
374.515262	2451.944134
374.901751	2451.480348
375.288177	2456.947479
375.674540	2457.373457
376.060841	2462.764971
376.447079	2466.210599
376.833254	2473.807618
377.219367	2475.443473
377.605417	2486.072746
377.991404	2487.489310
378.377329	2495.958448
378.763191	2503.038749
379.148991	2508.755417
379.534727	2522.101872
379.920402	2527.054806
380.306013	2537.154757
380.691563	2550.047508
381.077049	2560.036555
381.462474	2571.948801
381.847835	2584.206367
382.233134	2598.770260
382.618371	2610.143103
383.003545	2627.036010
383.388657	2640.478247
383.773706	2660.486586
384.158693	2672.098884
384.543618	2689.836184
384.928480	2705.988041
385.313280	2728.973182
385.698017	2748.588312
386.082692	2771.515479
386.467305	2787.132974
386.851856	2810.975111
387.236344	2836.523679
387.620770	2852.862058
388.005133	2876.260574
388.389435	2909.819535
388.773674	2918.523087
389.157851	2953.372584
389.541965	2981.845021
389.926018	2991.728203
390.310008	3028.700025
390.693936	3055.067780
391.077802	3080.117274
391.461606	3111.299331
391.845348	3127.736013
392.229027	3159.046619
392.612645	3200.169832
392.996200	3229.151425
393.379694	3266.899585
393.763125	3309.346101
394.146494	3335.305523
394.529801	3368.279710
394.913047	3413.758479
395.296230	3418.897936
395.679351	3446.190742
396.062410	3495.281499
396.445408	3473.604537
396.828343	3518.611959
397.211217	3547.757390
397.594028	3522.039943
397.976778	3569.451995
398.359466	3600.238322
398.742092	3610.532358
399.124656	3624.140953
399.507158	3682.146989
399.889598	3685.426260
400.271977	3750.058893
400.654294	3732.157756
401.036549	3788.492650
401.418742	3787.229841
401.800874	3850.924820
402.182944	3872.201010
402.564952	3950.971559
402.946898	3941.479067
403.328783	3927.915842
403.710606	3972.277996
404.092367	4030.614228
404.474067	4081.265222
404.855705	4056.999628
405.237282	4017.759286
405.618797	4102.332204
406.000250	4155.034947
406.381642	4221.936099
406.762972	4205.746434
407.144240	4158.276408
407.525447	4201.718552
407.906593	4200.324673
408.287677	4251.101695
408.668700	4257.970267
409.049661	4270.978964
409.430560	4281.028505
409.811399	4242.738421
410.192176	4262.792131
410.572891	4302.952483
410.953545	4363.849621
411.334138	4253.836521
411.714669	4313.029749
412.095139	4216.025346
412.475547	4276.010036
412.855894	4245.818566
413.236180	4289.800112
413.616405	4203.913974
413.996568	4247.439297
414.376670	4218.860995
414.756711	4181.773227
415.136691	4188.780430
415.516609	4210.553174
415.896466	4198.955999
416.276262	4205.761557
416.655997	4238.271958
417.035670	4256.717540
417.415283	4296.976195
417.794834	4296.840084
418.174324	4230.806009
418.553753	4186.703475
418.933121	4228.323241
419.312428	4186.529555
419.691674	4103.466463
420.070859	4170.607071
420.449983	4061.851738
420.829045	4106.002164
421.208047	4019.092671
421.586988	4040.961197
421.965867	4026.533414
422.344686	4008.763347
422.723444	4022.119884
423.102141	3828.559741
423.480777	3922.557096
423.859352	3809.176505
424.237866	3884.892115
424.616319	3832.307839
424.994712	3832.080987
425.373044	3752.781117
425.751314	3796.235863
426.129524	3664.056809
426.507673	3683.908873
426.885762	3647.700785
427.263789	3611.354066
427.641756	3583.559664
428.019662	3554.459604
428.397508	3514.077441
428.775292	3461.573823
429.153016	3447.670321
429.530679	3391.958009
429.908282	3355.618852
430.285824	3305.358548
430.663305	3305.746717
431.040726	3249.227821
431.418086	3208.449927
431.795385	3188.023172
432.172624	3174.575894
432.549802	3122.402472
432.926920	3104.874380
433.303977	3059.383008
433.680974	3030.436703
434.057910	3022.854807
434.434786	2991.997904
434.811601	2954.857203
435.188355	2952.520629
435.565050	2914.858168
435.941683	2892.835888
436.318257	2889.201216
436.694770	2854.470186
437.071222	2845.217148
437.447614	2804.764409
437.823946	2783.803292
438.200218	2768.707557
438.576429	2743.108577
438.952580	2733.895869
439.328670	2716.977756
439.704700	2699.731969
440.080670	2683.343178
440.456580	2674.374965
440.832429	2661.799807
441.208218	2639.835500
441.583947	2630.159005
441.959616	2624.439816
442.335224	2610.838783
442.710773	2604.179418
443.086261	2598.031731
443.461689	2586.676532
443.837057	2580.632189
444.212365	2577.058011
444.587612	2566.237174
444.962800	2555.023127
445.337927	2557.231153
445.712995	2539.014943
446.088002	2549.392158
446.462949	2548.005841
446.837837	2543.183978
447.212664	2538.987217
447.587431	2543.088196
447.962139	2551.612787
448.336786	2553.752757
448.711374	2552.900802
449.085901	2537.502597
449.460369	2535.768440
449.834776	2531.097811
450.209124	2535.614685
450.583412	2535.967566
450.957640	2533.242822
451.331808	2532.350538
451.705917	2525.295443
452.079965	2519.906450
452.453954	2522.308559
452.827883	2521.592716
453.201752	2518.479803
453.575562	2520.234125
453.949311	2520.017355
454.323001	2520.224042
454.696632	2516.438136
455.070202	2520.839063
455.443713	2519.886285
455.817164	2518.300842
456.190556	2520.612211
456.563888	2518.797396
456.937160	2521.996008
457.310373	2516.382683
457.683526	2514.177178
458.056619	2515.419823
458.429653	2517.615245
458.802628	2515.104751
459.175542	2514.766993
459.548398	2516.112981
459.921194	2518.444515
460.293930	2517.756398
460.666607	2522.956348
461.039224	2525.570186
461.411782	2526.822913
461.784280	2525.741585
462.156719	2523.760412
462.529099	2525.119003
462.901419	2519.795544
463.273680	2517.345543
463.645882	2513.736077
464.018024	2514.751870
464.390106	2516.150790
464.762130	2522.568179
465.134094	2530.069416
465.505999	2536.557381
465.877845	2545.079451
466.249631	2547.287477
466.621358	2546.430481
466.993026	2544.522404
467.364634	2542.412681
467.736184	2534.893800
468.107674	2533.252904
468.479105	2534.404808
468.850477	2532.607637
469.221790	2527.571524
469.593043	2526.800227
469.964238	2523.941893
470.335373	2523.410052
470.706449	2525.759229
471.077467	2527.112779
471.448425	2534.281300
471.819324	2541.623740
472.190164	2541.046528
472.560945	2535.332380
472.931667	2533.794828
473.302330	2529.260311
473.672934	2525.124044
474.043479	2528.927594
474.413965	2524.486338
474.784393	2527.112779
475.154761	2530.626463
475.525070	2528.305012
475.895321	2526.921215
476.265513	2529.320804
476.635645	2529.940866
477.005719	2531.044879
477.375734	2531.319622
477.745691	2532.279962
478.115588	2532.368182
478.485427	2536.852288
478.855207	2541.787578
479.224928	2549.377035
479.594591	2549.969371
479.964194	2552.542880
480.333739	2551.358208
480.703226	2549.495502
481.072653	2554.710576
481.442022	2553.994732
481.811333	2556.434650
482.180584	2551.159083
482.549777	2550.808723
482.918912	2549.001469
483.287988	2551.640513
483.657005	2549.404761
484.025964	2551.413661
484.394864	2551.403579
484.763706	2551.572457
485.132489	2549.654298
485.501213	2550.604556
485.869879	2549.109854
486.238487	2550.039947
486.607036	2549.177909
486.975527	2547.940306
487.343959	2550.717982
487.712333	2551.161603
488.080648	2548.073897
488.448905	2548.257899
488.817104	2551.726213
489.185244	2554.529094
489.553326	2555.955741
489.921350	2561.886658
490.289315	2565.370096
490.657222	2570.544840
491.025070	2571.757238
491.392861	2570.103739
491.760593	2569.105591
492.128267	2564.835733
492.495883	2561.485887
492.863440	2558.914898
493.230939	2559.504713
493.598380	2556.119578
493.965763	2554.703014
494.333088	2553.513302
494.700354	2554.176213
495.067563	2554.715617
495.434713	2551.859803
495.801805	2552.792417
496.168839	2550.962478
496.535815	2551.711089
496.902733	2556.913560
497.269593	2551.330482
497.636395	2551.877447
498.003139	2553.084804
498.369825	2554.022458
498.736453	2552.563044
499.103023	2553.853580
499.469535	2550.899463
499.835989	2554.400545
500.202385	2549.830739
500.568723	2551.007848
500.935003	2549.989535
501.301226	2546.521221
501.667390	2555.645710
502.033497	2558.004970
502.399546	2556.134702
502.765537	2553.377191
503.131470	2554.279557
503.497345	2556.530432
503.863163	2552.973898
504.228923	2555.948179
504.594625	2556.618653
504.960269	2555.857438
505.325856	2557.402552
505.691385	2555.980947
506.056856	2554.506409
506.422270	2559.005639
506.787625	2554.982798
507.152924	2557.268961
507.518164	2555.968344
507.883347	2553.195709
508.248472	2554.488765
508.613540	2555.877603
508.978550	2560.386915
509.343503	2559.083777
509.708398	2558.284754
510.073236	2562.010167
510.438016	2558.284754
510.802738	2557.019424
511.167403	2558.985474
511.532010	2556.164949
511.896561	2561.253993
512.261053	2558.052861
512.625488	2559.552604
512.989866	2558.335165
513.354186	2560.092007
513.718449	2557.228632
514.082655	2561.682492
514.446803	2559.711400
514.810894	2560.482697
515.174927	2557.684857
515.538904	2560.591082
515.902822	2560.339024
516.266684	2555.287788
516.630488	2556.207798
516.994235	2557.077398
517.357925	2559.582851
517.721558	2559.058571
518.085133	2559.867676
518.448651	2557.762994
518.812112	2553.838456
519.175516	2556.908519
519.538863	2556.623694
519.902152	2560.850701
520.265385	2558.441030
520.628560	2557.377346
520.991678	2558.395659
521.354739	2557.490772
521.717743	2556.233004
522.080690	2557.533622
522.443580	2557.238714
522.806413	2558.806513
523.169189	2561.662327
523.531908	2556.689229
523.894569	2558.035217
524.257174	2558.378015
524.619722	2557.193344
524.982213	2558.052861
525.344647	2556.953889
525.707025	2555.600339
526.069345	2557.047151
526.431608	2558.924980
526.793815	2557.793241
527.155964	2556.313663
527.518057	2556.076728
527.880093	2557.946997
528.242072	2556.187634
528.603995	2556.578323
528.965860	2556.066646
529.327669	2554.208981
529.689421	2553.319217
530.051117	2554.428271
530.412755	2555.491955
530.774337	2552.943651
531.135862	2553.581357
531.497331	2557.624363
531.858743	2553.001625
532.220098	2552.061449
532.581396	2552.396686
532.942638	2553.185627
533.303824	2551.164124
533.664953	2551.161603
534.026025	2552.207643
534.387040	2552.905843
534.747999	2551.680842
535.108902	2551.269988
535.469748	2552.946172
535.830537	2551.229659
536.191270	2551.877447
536.551947	2546.465769
536.912567	2547.400903
537.273131	2550.221428
537.633638	2543.113401
537.994089	2548.756973
538.354483	2551.028013
538.714821	2553.180586
539.075103	2552.184958
539.435328	2550.602035
539.795497	2550.261757
540.155609	2551.653116
540.515665	2551.746377
540.875665	2548.618341
541.235609	2550.506253
541.595496	2552.709238
541.955328	2550.743188
542.315102	2550.110523
542.674821	2548.222611
543.034483	2550.410472
543.394090	2547.063145
543.753640	2547.393341
544.113134	2551.043136
544.472571	2548.951058
544.831953	2549.601366
545.191278	2547.564740
545.550548	2548.681356
545.909761	2551.277550
546.268918	2548.948537
546.628019	2549.452652
546.987064	2546.367466
547.346053	2546.773279
547.704986	2545.994421
548.063863	2546.632127
548.422684	2548.076417
548.781449	2548.751932
549.140158	2550.014741
549.498811	2546.916952
549.857408	2544.136756
550.215949	2547.680687
550.574434	2549.064483
550.932864	2546.891746
551.291237	2547.806716
551.649555	2547.443752
552.007817	2547.877292
552.366022	2544.424101
552.724173	2547.703372
553.082267	2549.119936
553.440305	2549.929041
553.798288	2548.391489
554.156215	2547.252189
554.514086	2546.942158
554.871902	2542.707588
555.229661	2544.328319
555.587365	2541.482588
555.945014	2545.265974
556.302606	2544.782023
556.660143	2544.487116
557.017625	2545.833104
557.375050	2545.646581
557.732421	2545.523073
558.089735	2550.002138
558.446994	2549.114895
558.804197	2548.613300
559.161345	2546.422919
559.518437	2545.124822
559.875474	2545.523073
560.232455	2548.928372
560.589381	2545.119781
560.946251	2547.690769
561.303065	2544.865202
561.659825	2548.361242
562.016528	2544.565254
562.373177	2546.853937
562.729770	2543.183977
563.086307	2549.437529
563.442789	2546.609442
563.799216	2547.332847
564.155587	2548.348640
564.511904	2545.823022
564.868164	2548.008362
565.224370	2546.601880
565.580520	2549.137580
565.936615	2549.603887
566.292654	2547.582384
566.648638	2543.534338
567.004567	2545.858310
567.360441	2547.564740
567.716260	2542.173226
568.072023	2548.353681
568.427732	2543.862013
568.783385	2546.407795
569.138982	2545.102137
569.494525	2548.998948
569.850013	2546.836293
570.205445	2548.164638
570.560823	2545.263453
570.916145	2545.220604
571.271412	2543.148689
571.626625	2544.744215
571.981782	2547.229503
572.336884	2541.321271
572.691931	2541.603576
573.046923	2538.455375
573.401860	2540.497043
573.756743	2544.615665
574.111570	2543.844369
574.466342	2543.466282
574.821059	2544.139276
575.175722	2544.681200
575.530330	2543.539379
575.884882	2541.860675
576.239380	2544.645912
576.593823	2544.950902
576.948211	2543.483926
577.302544	2543.100798
577.656823	2540.524769
578.011047	2542.170706
578.365216	2542.979811
578.719330	2542.538710
579.073389	2539.566950
579.427394	2539.062834
579.781344	2540.728936
580.135239	2541.827907
580.489080	2539.445962
580.842866	2538.893956
581.196597	2541.500232
581.550273	2538.883873
581.903895	2541.694317
582.257463	2544.048535
582.610975	2539.035108
582.964434	2537.797505
583.317837	2539.514018
583.671186	2535.418080
584.024481	2536.214582
584.377721	2538.583925
584.730906	2538.110056
585.084037	2538.152906
585.437113	2538.074768
585.790135	2541.500232
586.143103	2537.298430
586.496016	2539.861857
586.848874	2536.771630
587.201679	2540.701209
587.554428	2538.266332
587.907124	2537.628626
588.259765	2539.032587
588.612352	2536.713657
588.964884	2535.539068
589.317362	2538.001671
589.669786	2536.927906
590.022155	2537.522762
590.374470	2534.394726
590.726731	2536.693492
591.078937	2531.412883
591.431090	2536.635519
591.783188	2535.604603
592.135232	2537.840354
592.487222	2534.591331
592.839157	2535.748276
593.191038	2535.508821
593.542866	2536.474202
593.894639	2532.920188
594.246358	2534.815662
594.598022	2534.636701
594.949633	2533.134437
595.301190	2537.144675
595.652692	2535.034952
596.004141	2532.373223
596.355535	2532.710980
596.706876	2531.896834
597.058162	2531.861546
597.409395	2534.785415
597.760573	2530.359282
598.111698	2532.053110
598.462768	2532.370703
598.813785	2531.828778
599.164748	2530.465146
599.515657	2531.218799
599.866511	2528.587317
600.217312	2532.900024
600.568060	2530.843233
600.918753	2531.796011
601.269392	2530.167718
601.619978	2531.067564
601.970510	2535.430683
602.320988	2531.382636
602.671412	2535.052596
603.021783	2531.576721
603.372100	2532.635363
603.722363	2531.556556
604.072572	2534.225847
604.422728	2530.989426
604.772830	2532.133768
605.122878	2533.867925
605.472872	2530.860877
605.822813	2530.729807
606.172701	2529.207378
606.522534	2531.337266
606.872314	2533.825075
607.222041	2531.579241
607.571714	2530.704601
607.921333	2527.841226
608.270899	2528.121010
608.620411	2526.654034
608.969870	2533.522606
609.319276	2529.819879
609.668627	2532.640404
610.017926	2533.189890
610.367171	2529.829961
610.716362	2534.256094
611.065500	2532.849612
611.414585	2533.147040
611.763616	2533.212575
612.112594	2533.762061
612.461518	2530.843233
612.810389	2531.748120
613.159207	2529.265352
613.507971	2530.203006
613.856682	2532.683254
614.205340	2532.421114
614.553945	2535.155940
614.902496	2534.921526
615.250994	2533.373892
615.599439	2531.092770
615.947830	2535.584438
616.296169	2531.906916
616.644454	2532.156453
616.992686	2533.966228
617.340864	2533.167205
617.688990	2533.094108
618.037063	2533.305837
618.385082	2534.059489
618.733048	2535.360107
619.080961	2535.428162
619.428821	2531.853984
619.776628	2533.426824
620.124382	2532.705939
620.472083	2533.333563
620.819731	2533.270548
621.167326	2533.492359
621.514868	2534.230888
621.862357	2529.892975
622.209793	2534.175436
622.557176	2532.751310
622.904506	2531.551515
623.251783	2530.976823
623.599007	2528.846936
623.946179	2530.119827
624.293297	2530.628984
624.640363	2529.857687
624.987376	2528.834333
625.334336	2520.254289
625.681243	2524.952645
626.028097	2523.606657
626.374899	2527.067409
626.721647	2525.809641
627.068343	2527.712676
627.414987	2527.626977
627.761577	2524.952645
628.108115	2526.154960
628.454600	2526.389373
628.801032	2526.001205
629.147412	2524.650175
629.493739	2525.119003
629.840014	2528.594878
630.186236	2524.007428
630.532405	2525.764270
630.878521	2526.235618
631.224585	2527.425331
631.570597	2522.457273
631.916556	2527.805938
632.262462	2525.842408
632.608316	2524.393077
632.954117	2525.476925
633.299866	2523.657068
633.645562	2521.660771
633.991206	2525.711338
634.336797	2525.285361
634.682336	2524.476256
635.027823	2522.442150
635.373257	2521.156656
635.718639	2523.657068
636.063968	2523.165556
636.409245	2520.385359
636.754470	2521.542304
637.099642	2515.772703
637.444762	2519.687159
637.789829	2519.404855
638.134845	2519.916532
638.479808	2515.999555
638.824719	2519.024248
639.169577	2517.925276
639.514383	2518.623476
639.859137	2521.055833
640.203839	2516.957375
640.548489	2519.614063
640.893086	2516.284381
641.237632	2516.841428
641.582125	2518.991480
641.926566	2517.713548
642.270955	2514.908146
642.615292	2512.972343
642.959576	2516.957375
643.303809	2512.014523
643.647990	2519.016686
643.992118	2516.715399
644.336195	2517.539628
644.680219	2518.482324
645.024192	2517.065759
645.368112	2517.673218
645.711981	2516.664988
646.055797	2517.650533
646.399562	2518.719258
646.743274	2519.926614
647.086935	2518.830163
647.430544	2519.311593
647.774101	2521.716224
648.117606	2520.009793
648.461059	2519.505678
648.804460	2523.631862
649.147810	2520.488703
649.491108	2519.838394
649.834354	2518.638599
650.177548	2519.538445
650.520690	2517.698424
650.863781	2517.456449
651.206820	2515.676922
651.549807	2515.626510
651.892742	2516.296983
652.235626	2514.860255
652.578458	2515.911335
652.921238	2512.881602
653.263967	2516.218846
653.606644	2513.589884
653.949269	2512.443021
654.291843	2514.149452
654.634365	2514.154493
654.976836	2514.958557
655.319255	2515.611387
655.661622	2511.613752
656.003938	2511.984276
656.346203	2512.440501
656.688416	2512.581653
657.030577	2513.761283
657.372687	2513.305059
657.714746	2515.140039
658.056753	2512.453104
658.398708	2508.450428
658.740612	2512.969822
659.082465	2511.654081
659.424266	2511.003772
659.766016	2508.352125
660.107715	2510.668535
660.449362	2507.532937
660.790958	2513.289935
661.132503	2514.106602
661.473996	2510.555109
661.815438	2513.844462
662.156829	2512.768176
662.498168	2513.615090
662.839456	2512.642147
663.180693	2513.882271
663.521879	2512.153155
663.863013	2514.114164
664.204097	2513.347908
664.545129	2513.158865
664.886110	2515.528208
665.227040	2510.905469
665.567918	2516.002076
665.908746	2515.843280
666.249522	2513.451252
666.590248	2517.549710
666.930922	2514.751870
667.271545	2513.811695
667.612118	2513.738598
667.952639	2513.244565
668.293109	2513.047960
668.633528	2516.317148
668.973896	2512.846314
669.314213	2513.499143
669.654480	2511.218021
669.994695	2515.087107
670.334859	2515.255985
670.674973	2514.078876
671.015035	2514.966119
671.355047	2512.536283
671.695008	2514.472086
672.034918	2511.772548
672.374777	2514.136849
672.714585	2511.868330
673.054342	2513.368073
673.394049	2511.606190
673.733705	2516.337313
674.073310	2514.225069
674.412864	2511.757424
674.752368	2513.244565
675.091820	2515.051818
675.431223	2510.928155
675.770574	2514.237672
676.109875	2512.513598
676.449125	2510.706344
676.788324	2506.559995
677.127473	2511.404544
677.466571	2506.297855
677.805619	2509.483864
678.144616	2508.112670
678.483562	2513.610048
678.822458	2510.744153
679.161303	2511.371776
679.500098	2508.349604
679.838842	2509.544358
680.177535	2509.357835
680.516179	2513.622651
680.854771	2508.296672
681.193314	2508.863802
681.531805	2509.597290
681.870247	2512.621982
682.208638	2514.716582
682.546978	2517.280008
682.885268	2516.707838
683.223508	2513.408402
683.561697	2512.932013
683.899836	2514.194822
684.237925	2515.238341
684.575963	2512.430418
684.913951	2511.908659
685.251889	2513.589884
685.589776	2512.516118
685.927614	2510.925634
686.265401	2510.645850
686.603137	2510.502177
686.940824	2513.627692
687.278460	2514.678773
687.616046	2512.564009
687.953582	2516.448218
688.291068	2513.385717
688.628504	2516.226407
688.965889	2515.165244
689.303224	2515.964267
689.640510	2513.786489
689.977745	2514.567868
690.314930	2512.700120
690.652065	2511.812877
690.989150	2512.992507
691.326185	2509.488905
691.663170	2510.615603
692.000105	2507.749707
692.336990	2509.040243
692.673825	2509.002434
693.010610	2509.602331
693.347345	2504.732577
693.684030	2501.818790
694.020665	2503.071516
694.357251	2500.326608
694.693786	2501.102946
695.030272	2503.184942
695.366707	2500.480363
695.703093	2501.191166
696.039429	2503.862977
696.375716	2500.288799
696.711952	2501.952380
697.048139	2501.970024
697.384276	2502.980776
697.720363	2500.959273
698.056400	2501.201248
698.392388	2500.828203
698.728326	2500.598830
699.064214	2501.317195
699.400053	2500.281238
699.735842	2499.983810
700.071581	2502.453975
700.407270	2499.693943
700.742910	2499.472133
701.078501	2500.513131
701.414042	2497.843840
701.749533	2501.133193
702.084974	2498.678151
702.420366	2498.655466
702.755709	2497.208654
703.091002	2496.654128
703.426246	2498.983141
703.761440	2498.239570
704.096584	2497.982472
704.431679	2497.737976
704.766725	2500.402225
705.101721	2495.890393
705.436668	2496.709580
705.771565	2494.120948
706.106413	2498.968017
706.441212	2497.775784
706.775961	2499.230157
707.110661	2499.807369
707.445311	2501.765858
707.779913	2499.598161
708.114465	2496.795280
708.448967	2501.274345
708.783421	2501.289468
709.117825	2499.880466
709.452180	2502.559839
709.786485	2502.731238
710.120742	2500.687051
710.454949	2497.405259
710.789107	2500.361896
711.123216	2496.160094
711.457275	2504.483039
711.791286	2503.784840
712.125247	2505.912207
712.459159	2503.830210
712.793023	2507.953874
713.126837	2505.665190
713.460602	2505.909686
713.794318	2503.898266
714.127985	2506.570077
714.461602	2501.917092
714.795171	2503.197545
715.128691	2500.583707
715.462162	2499.925836
715.795584	2498.766371
716.128957	2502.239726
716.462281	2500.775271
716.795556	2499.651093
717.128782	2497.614467
717.461960	2497.927019
717.795088	2498.867194
718.128167	2497.599344
718.461198	2497.024652
718.794180	2496.752430
719.127113	2496.354179
719.459997	2494.340238
719.792833	2492.883344
720.125619	2495.512306
720.458357	2495.230002
720.791046	2494.778818
721.123686	2495.373674
721.456278	2493.715135
721.788821	2496.334014
722.121315	2495.018273
722.453761	2494.108345
722.786158	2491.837305
723.118506	2492.532984
723.450805	2495.257728
723.783056	2493.095073
724.115259	2494.315032
724.447412	2494.299909
724.779518	2493.279075
725.111574	2492.843015
725.443582	2495.809734
725.775542	2494.110865
726.107453	2495.666061
726.439315	2495.542553
726.771129	2502.033039
727.102895	2492.822851
727.434612	2494.988026
727.766281	2492.031389
728.097901	2494.120948
728.429473	2497.632111
728.760996	2498.912564
729.092471	2498.468943
729.423897	2497.339724
729.755276	2498.078253
730.086606	2496.969200
730.417887	2498.970538
730.749120	2501.264263
731.080305	2499.023470
731.411442	2502.627895
731.742530	2499.318377
732.073570	2501.392812
732.404562	2500.331649
732.735506	2499.426762
733.066401	2498.985661
733.397249	2497.992554
733.728048	2497.488438
734.058798	2496.780156
734.389501	2498.269817
734.720156	2494.982985
735.050762	2494.509117
735.381320	2494.446102
735.711831	2493.352172
736.042293	2494.957779
736.372707	2492.096924
736.703073	2491.081132
737.033391	2494.173880
737.363661	2493.815958
737.693883	2495.620691
738.024056	2496.439878
738.354182	2492.908550
738.684260	2494.980464
739.014290	2493.657162
739.344272	2496.071874
739.674207	2496.835609
740.004093	2497.238901
740.333931	2495.862666
740.663722	2497.024652
740.993464	2497.944663
741.323159	2498.584889
741.652806	2495.527430
741.982405	2496.263438
742.311956	2495.449292
742.641460	2497.274189
742.970915	2494.814106
743.300323	2493.873931
743.629683	2492.835453
743.958996	2492.404435
744.288260	2484.429329
744.617477	2492.719507
744.946647	2493.493324
745.275768	2493.332007
745.604842	2492.830412
745.933869	2492.422079
746.262847	2489.835967
746.591778	2490.876965
746.920662	2489.659527
747.249498	2492.626246
747.578286	2493.387460
747.907027	2493.311842
748.235720	2495.824858
748.564365	2490.909733
748.892963	2493.878972
749.221514	2491.890237
749.550017	2489.906543
749.878473	2496.800321
750.206881	2493.563900
750.535242	2493.216061
750.863555	2491.900319
751.191821	2490.768580
751.520039	2489.536018
751.848210	2491.328148
752.176334	2491.141626
752.504411	2490.193889
752.832440	2490.647593
753.160421	2489.571306
753.488356	2490.014928
753.816243	2490.004846
754.144082	2490.808910
754.471875	2491.305463
754.799620	2489.422592
755.127318	2490.226656
755.454969	2490.433344
755.782572	2491.930566
756.110129	2490.488796
756.437638	2490.196409
756.765100	2489.851090
757.092515	2489.354537
757.419882	2490.168683
757.747203	2491.809579
758.074477	2491.045844
758.401703	2491.123982
758.728882	2489.266317
759.056014	2491.663385
759.383099	2490.440905
759.710138	2490.367809
760.037129	2488.444608
760.364073	2488.910915
760.690970	2489.354537
761.017820	2489.772952
761.344623	2495.489621
761.671379	2492.396873
761.998088	2494.551966
762.324751	2495.469456
762.651366	2503.184942
762.977935	2509.952691
763.304456	2514.310769
763.630931	2515.848321
763.957359	2514.212466
764.283740	2514.875378
764.610074	2509.443535
764.936362	2506.287772
765.262602	2499.396515
765.588796	2499.451968
765.914943	2496.200424
766.241044	2496.578510
766.567097	2493.115237
766.893104	2491.078611
767.219064	2487.882520
767.544978	2486.355050
767.870845	2486.886892
768.196665	2487.292705
768.522438	2482.662405
768.848165	2485.125009
769.173846	2488.454691
769.499479	2484.855307
769.825066	2486.402941
770.150607	2486.649958
770.476101	2483.824391
770.801548	2484.305821
771.126949	2484.608290
771.452303	2483.131232
771.777611	2484.777169
772.102872	2482.773310
772.428087	2484.504947
772.753256	2484.184833
773.078378	2485.006542
773.403453	2485.485451
773.728482	2483.705924
774.053465	2485.097282
774.378401	2481.583598
774.703291	2482.692652
775.028135	2482.856489
775.352932	2482.148207
775.677683	2480.628299
776.002388	2478.208546
776.327046	2477.205356
776.651658	2480.358598
776.976224	2478.223669
777.300743	2482.233907
777.625216	2478.994966
777.949643	2483.484113
778.274024	2482.657364
778.598359	2479.967908
778.922647	2480.265336
779.246889	2481.134935
779.571086	2482.130563
779.895236	2480.466983
780.219339	2479.889770
780.543397	2480.895481
780.867409	2480.570326
781.191374	2481.341623
781.515294	2481.029071
781.839167	2481.739874
782.162995	2481.843218
782.486776	2479.703248
782.810511	2479.957826
783.134201	2479.673001
783.457844	2479.826756
783.781441	2482.614514
784.104993	2481.785244
784.428498	2482.826242
784.751958	2480.759369
785.075372	2483.506798
785.398739	2480.237610
785.722061	2479.718371
786.045337	2482.080152
786.368568	2481.255923
786.691752	2481.266005
787.014891	2481.654174
787.337983	2482.238948
787.661030	2484.119298
787.984031	2481.036633
788.306987	2486.866727
788.629897	2484.540235
788.952760	2487.249855
789.275579	2484.877992
789.598351	2487.582571
789.921078	2486.239104
790.243759	2484.283136
790.566395	2483.128712
790.888984	2484.139463
791.211529	2481.013948
791.534027	2481.109730
791.856480	2482.173413
792.178888	2481.409678
792.501249	2478.606797
792.823566	2477.175109
793.145836	2474.662094
793.468062	2477.979173
793.790241	2482.853969
794.112375	2480.421612
794.434464	2480.267857
794.756507	2480.494709
795.078505	2480.265336
795.400457	2482.102837
795.722364	2481.818012
796.044226	2485.099803
796.366042	2481.873464
796.687812	2483.582416
797.009538	2481.202991
797.331218	2486.297077
797.652852	2482.226345
797.974442	2483.829432
798.295986	2483.562251
798.617484	2482.927066
798.938938	2483.736171
799.260346	2484.338589
799.581709	2481.717189
799.903026	2485.034268
800.224299	2482.906901
800.545526	2481.727271
800.866708	2479.791468
801.187845	2480.829946
801.508936	2484.114257
801.829983	2479.093268
802.150984	2481.170223
802.471940	2479.708289
802.792851	2479.448669
803.113717	2481.911273
803.434538	2480.451859
803.755314	2479.582260
804.076045	2480.474544
804.396731	2479.761221
804.717372	2479.804071
805.037967	2479.975470
805.358518	2478.813484
805.679024	2480.882878
805.999485	2478.652167
806.319901	2479.153762
806.640272	2479.773824
806.960598	2479.776344
807.280879	2480.167034
807.601115	2479.667960
807.921306	2478.785758
808.241453	2481.770121
808.561554	2477.265850
808.881611	2480.058649
809.201623	2477.739718
809.521590	2480.237610
809.841513	2480.658546
810.161390	2481.079483
810.481223	2478.934472
810.801011	2478.148052
811.120755	2480.277939
811.440453	2481.397075
811.760107	2479.335243
812.079716	2481.699545
812.399281	2477.464975
812.718801	2480.182157
813.038276	2479.559575
813.357707	2481.651654
813.677093	2479.400778
813.996434	2478.140490
814.315731	2478.543782
814.634983	2478.997486
814.954191	2481.031592
815.273354	2480.192240
815.592473	2480.880357
815.911547	2477.840541
816.230577	2481.656695
816.549562	2482.145687
816.868502	2481.865903
817.187399	2479.776344
817.506250	2480.416571
817.825058	2479.930100
818.143821	2482.077631
818.462539	2484.262971
818.781213	2484.595688
819.099843	2485.188023
819.418429	2488.248003
819.736970	2488.797489
820.055466	2492.590958
820.373919	2499.411639
820.692327	2499.313336
821.010691	2511.772548
821.329011	2527.551359
821.647286	2563.819941
821.965517	2603.259408
822.283704	2634.905251
822.601847	2651.407468
822.919945	2637.980355
823.237999	2622.244393
823.556010	2604.401229
823.873976	2585.070925
824.191897	2567.005950
824.509775	2550.213867
824.827609	2537.207690
825.145398	2526.553211
825.463144	2526.454908
825.780845	2522.928621
826.098502	2526.782583
826.416116	2535.329860
826.733685	2546.178423
827.051210	2547.353012
827.368692	2546.102806
827.686129	2538.382278
828.003522	2528.325177
828.320872	2518.041223
828.638177	2512.490912
828.955439	2505.972700
829.272656	2504.109994
829.589830	2494.809065
829.906960	2494.340238
830.224046	2489.147849
830.541088	2488.119454
830.858086	2485.059474
831.175041	2488.684063
831.491952	2485.445122
831.808819	2485.125009
832.125642	2486.410503
832.442421	2485.157776
832.759157	2492.595999
833.075849	2500.102277
833.392497	2506.741476
833.709101	2510.298010
834.025662	2514.923269
834.342179	2511.402023
834.658653	2506.076044
834.975083	2499.547750
835.291469	2499.628408
835.607811	2491.635659
835.924110	2489.876296
836.240366	2490.287150
836.556578	2487.413692
836.872746	2483.663074
837.188871	2481.568475
837.504952	2481.528145
837.820990	2477.696868
838.136984	2479.637713
838.452935	2481.056798
838.768842	2479.874647
839.084706	2481.497898
839.400526	2480.640902
839.716303	2486.826398
840.032037	2488.767242
840.347727	2485.795482
840.663373	2486.627272
840.978977	2480.504791
841.294537	2483.451346
841.610054	2480.683752
841.925527	2478.553865
842.240957	2480.013279
842.556344	2479.070583
842.871687	2476.585294
843.186987	2475.564460
843.502244	2475.173771
843.817458	2473.676548
844.132629	2473.641260
844.447756	2472.900211
844.762840	2478.475727
845.077881	2475.075468
845.392879	2473.732001
845.707833	2470.351907
846.022745	2472.610344
846.337613	2471.917186
846.652438	2473.633698
846.967221	2470.956846
847.281960	2471.186218
847.596656	2473.288379
847.911309	2473.033801
848.225919	2471.718060
848.540485	2470.210755
848.855009	2472.081023
849.169490	2471.980200
849.483928	2471.324850
849.798323	2475.148565
850.112675	2473.061528
850.426984	2474.132773
850.741251	2469.252936
851.055474	2472.905252
851.369654	2470.664459
851.683792	2470.785447
851.997887	2473.616054
852.311938	2472.640591
852.625947	2474.901549
852.939914	2472.706126
853.253837	2472.630509
853.567718	2472.922896
853.881555	2471.460961
854.195350	2469.842751
854.509103	2471.599593
854.822812	2472.282669
855.136479	2475.682927
855.450103	2472.950622
855.763685	2470.624130
856.077224	2470.921558
856.390720	2471.319809
856.704173	2466.629015
857.017584	2473.132104
857.330953	2470.750158
857.644278	2471.982721
857.957561	2475.907259
858.270802	2473.507670
858.584000	2471.476085
858.897155	2474.238637
859.210268	2471.304685
859.523339	2473.036322
859.836367	2472.209573
860.149352	2470.306537
860.462295	2471.685293
860.775195	2472.348204
861.088054	2471.077833
861.400869	2475.738380
861.713642	2472.267546
862.026373	2476.136631
862.339062	2470.583800
862.651708	2469.943574
862.964312	2474.200828
863.276873	2472.063379
863.589392	2473.374079
863.901869	2472.184367
864.214303	2472.968266
864.526696	2473.653863
864.839045	2474.709985
865.151353	2472.912813
865.463619	2474.820890
865.775842	2473.588328
866.088023	2474.707464
866.400162	2472.138996
866.712258	2473.066569
867.024313	2471.476085
867.336325	2474.072279
867.648296	2471.922227
867.960224	2469.152113
868.272110	2473.326188
868.583954	2472.156640
868.895755	2471.282000
869.207515	2478.289204
869.519233	2472.010447
869.830909	2472.065900
870.142542	2473.318626
870.454134	2475.753504
870.765684	2472.096147
871.077191	2470.944243
871.388657	2473.036322
871.700081	2470.830817
872.011463	2471.097998
872.322803	2466.870991
872.634101	2476.696199
872.945357	2473.991620
873.256571	2473.487505
873.567744	2473.837865
873.878874	2475.554378
874.189963	2477.144862
874.501010	2475.887094
874.812015	2473.789974
875.122979	2473.996662
875.433900	2476.575212
875.744780	2477.245685
876.055618	2475.198977
876.366415	2478.321972
876.677169	2475.713174
876.987882	2475.756024
877.298554	2476.192084
877.609183	2476.285345
877.919771	2475.730818
878.230317	2477.752321
878.540822	2479.869606
878.851285	2480.199801
879.161707	2482.188537
879.472087	2485.140132
879.782425	2486.881851
880.092722	2495.550115
880.402977	2507.449758
880.713191	2521.368384
881.023363	2543.143648
881.333494	2552.782334
881.643583	2560.896072
881.953631	2562.360527
882.263637	2556.880793
882.573602	2552.938610
882.883526	2546.964843
883.193408	2539.367824
883.503248	2530.467667
883.813048	2526.926256
884.122806	2520.463497
884.432522	2511.812877
884.742197	2507.777433
885.051831	2504.856085
885.361424	2498.390805
885.670975	2493.488283
885.980485	2493.379898
886.289954	2490.755978
886.599382	2487.544763
886.908768	2484.020996
887.218113	2477.548154
887.527417	2480.212404
887.836680	2478.195943
888.145901	2480.860193
888.455082	2477.500263
888.764221	2478.069914
889.073319	2479.415902
889.382376	2477.482619
889.691392	2477.787609
890.000366	2476.557568
890.309300	2478.067393
890.618193	2477.772486
890.927044	2477.399440
891.235855	2476.514718
891.544625	2477.568319
891.853353	2478.085037
892.162041	2475.945068
892.470687	2477.875829
892.779293	2481.354226
893.087858	2480.219966
893.396381	2483.615183
893.704864	2485.009062
894.013306	2489.286481
894.321707	2495.857625
894.630068	2497.667399
894.938387	2498.395846
895.246665	2503.300889
895.554903	2497.876607
895.863100	2494.950217
896.171256	2495.313181
896.479371	2494.090701
896.787446	2489.765391
897.095480	2487.542242
897.403473	2483.529483
897.711425	2485.364463
898.019336	2482.203660
898.327207	2480.325830
898.635038	2480.943372
898.942827	2479.557054
899.250576	2478.856334
899.558284	2479.257106
899.865952	2477.338947
900.173579	2476.192084
900.481165	2478.478247
900.788711	2478.732826
901.096216	2474.977166
901.403681	2473.916003
901.711105	2477.752321
902.018489	2473.918524
902.325832	2472.829634
902.633135	2472.673359
902.940397	2477.865747
903.247619	2474.546147
903.554800	2485.140132
903.861941	2495.252687
904.169041	2500.709736
904.476101	2504.919099
904.783121	2504.964470
905.090100	2501.589417
905.397039	2498.234529
905.703938	2497.231340
906.010796	2492.787563
906.317614	2493.115237
906.624391	2490.067860
906.931129	2487.464104
907.237826	2482.120481
907.544483	2480.048567
907.851099	2480.892960
908.157675	2479.839359
908.464211	2479.877168
908.770707	2476.310551
909.077163	2473.706795
909.383578	2475.808956
909.689954	2474.042032
909.996289	2472.688482
910.302584	2474.536065
910.608839	2470.785447
910.915054	2471.707978
911.221229	2471.665128
911.527363	2470.626650
911.833458	2472.194449
912.139513	2472.877525
912.445527	2472.363328
912.751502	2472.943060
913.057436	2472.552371
913.363331	2473.578246
913.669186	2472.166723
913.975000	2474.490695
914.280775	2475.904738
914.586510	2479.332723
914.892205	2481.697024
915.197859	2487.648106
915.503475	2494.252018
915.809050	2498.993223
916.114585	2502.040600
916.420081	2504.631753
916.725536	2506.436487
917.030952	2503.666373
917.336328	2500.417349
917.641665	2495.287975
917.946961	2493.911740
918.252218	2493.135402
918.557435	2491.244969
918.862612	2491.068529
919.167750	2490.700525
919.472848	2485.498054
919.777906	2484.409165
920.082925	2485.833291
920.387904	2482.410347
920.692843	2479.882209
920.997743	2479.040336
921.302603	2477.442290
921.607423	2474.644450
921.912204	2475.249388
922.216946	2474.029429
922.521647	2475.130921
922.826310	2475.866930
923.130932	2473.250571
923.435516	2474.992289
923.740059	2468.952987
924.044564	2472.494398
924.349028	2470.021712
924.653454	2472.156640
924.957840	2470.641774
925.262186	2473.179995
925.566493	2467.241515
925.870761	2467.886783
926.174989	2468.083388
926.479178	2468.940384
926.783328	2466.709674
927.087438	2468.675724
927.391509	2470.382154
927.695541	2471.019860
927.999533	2468.559777
928.303486	2468.527010
928.607400	2466.505507
928.911275	2468.693368
929.215110	2470.586321
929.518906	2468.136320
929.822663	2467.385188
930.126381	2468.307719
930.430060	2467.405353
930.733699	2469.938533
931.037299	2468.824438
931.340861	2468.312761
931.644383	2469.976341
931.947866	2468.206896
932.251309	2470.306537
932.554714	2467.445682
932.858080	2468.738738
933.161407	2463.223716
933.464694	2466.381999
933.767943	2463.654734
934.071153	2470.926599
934.374323	2470.019191
934.677455	2466.490383
934.980548	2467.458285
935.283602	2468.206896
935.586617	2466.553398
935.889593	2466.664303
936.192530	2467.541464
936.495428	2467.581793
936.798287	2466.762606
937.101108	2465.310753
937.403890	2470.505662
937.706632	2469.109263
938.009336	2469.303347
938.312002	2470.077164
938.614628	2471.821404
938.917216	2468.423666
939.219765	2470.230920
939.522275	2469.295786
939.824747	2470.009109
940.127179	2471.975159
940.429573	2470.404839
940.731929	2471.597072
941.034246	2470.051959
941.336524	2470.924078
941.638763	2468.350569
941.940964	2470.505662
942.243126	2469.331074
942.545250	2469.895683
942.847335	2470.356948
943.149381	2470.397278
943.451389	2466.674386
943.753359	2468.887452
944.055290	2469.167236
944.357182	2468.015332
944.659036	2470.185549
944.960851	2469.651187
945.262628	2469.943574
945.564367	2470.233440
945.866067	2467.183542
946.167729	2468.819397
946.469352	2466.659262
946.770937	2470.019191
947.072484	2468.345528
947.373992	2470.256125
947.675462	2467.758234
947.976893	2469.106742
948.278286	2465.255301
948.579641	2468.627833
948.880958	2463.884107
949.182236	2467.637246
949.483476	2468.574901
949.784678	2469.477267
950.085841	2469.373923
950.386967	2468.232102
950.688054	2467.468367
950.989103	2469.106742
951.290114	2470.132617
951.591087	2469.293265
951.892021	2467.954839
952.192917	2470.893831
952.493776	2467.990127
952.794596	2469.535240
953.095378	2470.074644
953.396122	2468.489201
953.696828	2468.723615
953.997496	2468.373254
954.298126	2468.645477
954.598718	2466.278655
954.899272	2465.461988
955.199788	2467.238995
955.500266	2465.119190
955.800706	2465.439303
956.101108	2467.102884
956.401472	2467.148254
956.701798	2465.086422
957.002087	2465.477112
957.302337	2466.502986
957.602550	2469.595734
957.902724	2465.744293
958.202861	2465.245218
958.502960	2463.432924
958.803022	2466.550877
959.103045	2466.200517
959.403031	2464.824282
959.702979	2467.087760
960.002889	2465.880404
960.302762	2466.581124
960.602596	2466.286217
960.902393	2465.719087
961.202153	2465.139354
961.501875	2467.102884
961.801559	2469.192442
962.101205	2464.988120
962.400814	2466.150106
962.700385	2466.137503
962.999918	2464.143726
963.299414	2463.415280
963.598873	2464.567183
963.898293	2459.992336
964.197677	2463.574076
964.497022	2461.534929
964.796331	2464.753706
965.095601	2463.216154
965.394835	2464.529375
965.694030	2464.859570
965.993189	2465.335959
966.292309	2463.437965
966.591393	2463.700105
966.890439	2464.310084
967.189447	2464.816720
967.488419	2463.132975
967.787353	2465.754375
968.086249	2463.969807
968.385108	2466.248408
968.683930	2463.138016
968.982714	2463.228757
969.281462	2462.170115
969.580172	2466.371916
969.878844	2465.968624
970.177480	2466.245888
970.476078	2465.298151
970.774639	2465.177163
971.073162	2462.621298
971.371649	2465.091463
971.670098	2462.739765
971.968510	2465.618264
972.266885	2464.468881
972.565223	2464.859570
972.863524	2463.937039
973.161788	2465.981227
973.460014	2464.904941
973.758204	2463.780763
974.056356	2462.943932
974.354471	2465.308233
974.652550	2467.160857
974.950591	2465.789663
975.248595	2465.401494
975.546563	2464.917543
975.844493	2463.168263
976.142386	2465.676237
976.440243	2467.501135
976.738062	2465.913171
977.035845	2464.806638
977.333590	2466.581124
977.631299	2464.504169
977.928971	2463.995012
978.226606	2462.001236
978.524204	2463.795887
978.821765	2458.185082
979.119290	2466.618933
979.416777	2463.417800
979.714228	2465.945939
980.011642	2463.914354
980.309020	2464.342852
980.606360	2463.674899
980.903664	2466.157667
981.200931	2464.955352
981.498162	2466.124900
981.795356	2466.608851
982.092513	2464.095835
982.389633	2467.483491
982.686717	2469.492391
982.983764	2467.359983
983.280775	2471.740745
983.577749	2466.805456
983.874686	2469.169757
984.171587	2469.139510
984.468451	2468.169088
984.765279	2470.525827
985.062070	2467.228912
985.358824	2471.075313
985.655543	2464.700774
985.952224	2467.589355
986.248869	2466.623974
986.545478	2467.647328
986.842050	2467.037349
987.138586	2465.540126
987.435086	2467.664972
987.731549	2467.959880
988.027975	2464.932667
988.324366	2464.189097
988.620719	2465.514920
988.917037	2461.436627
989.213318	2462.719600
989.509563	2460.700618
989.805772	2464.340331
990.101944	2461.328242
990.398080	2464.196658
990.694180	2465.925774
990.990244	2465.545167
991.286271	2463.087605
991.582262	2463.188428
991.878217	2460.493931
992.174136	2462.601133
992.470019	2462.485187
992.765865	2458.989147
993.061676	2460.594754
993.357450	2462.883438
993.653188	2457.955710
993.948890	2465.620784
994.244556	2462.805300
994.540186	2465.898048
994.835780	2462.293623
995.131337	2464.282358
995.426859	2464.673047
995.722345	2463.059878
996.017795	2466.187914
996.313208	2467.715384
996.608586	2465.315795
996.903928	2466.608851
997.199234	2465.797225
997.494504	2465.545167
997.789738	2465.361165
998.084936	2467.654890
998.380099	2465.824951
998.675225	2469.164716
998.970316	2467.506176
999.265371	2464.168932
999.560390	2466.969293
999.855373	2468.053141
1000.150320	2465.411577
1000.445232	2466.500466
1000.740108	2462.792697
1001.034948	2463.634570
1001.329752	2461.398818
1001.624521	2464.690692
1001.919254	2464.277317
1002.213951	2463.536267
1002.508613	2462.028962
1002.803239	2463.206072
1003.097829	2461.487038
1003.392384	2462.036524
1003.686903	2463.110290
1003.981386	2462.853191
1004.275834	2463.881586
1004.570246	2463.145578
1004.864623	2463.261524
1005.158964	2462.182718
1005.453270	2463.599282
1005.747540	2461.970989
1006.041775	2462.152471
1006.335974	2461.481997
1006.630138	2463.866463
1006.924266	2464.514251
1007.218359	2464.325208
1007.512416	2460.947635
1007.806438	2458.101903
1008.100425	2462.822944
1008.394376	2456.894547
1008.688292	2463.591720
1008.982172	2460.325052
1009.276017	2464.259673
1009.569827	2462.661627
1009.863602	2464.335290
1010.157341	2460.178859
1010.451045	2462.124744
1010.744714	2463.561473
1011.038347	2462.719600
1011.331945	2462.810341
1011.625508	2461.766822
1011.919036	2461.303036
1012.212528	2462.936370
1012.505986	2462.754888
1012.799408	2463.758078
1013.092795	2463.168263
1013.386147	2463.518623
1013.679464	2459.851184
1013.972745	2464.075671
1014.265992	2460.829168
1014.559204	2461.590382
1014.852380	2463.581638
1015.145521	2462.926288
1015.438628	2465.071299
1015.731699	2464.050465
1016.024736	2460.766153
1016.317737	2462.772532
1016.610703	2461.703808
1016.903635	2462.369240
1017.196531	2458.991667
1017.489393	2463.697584
1017.782219	2461.000567
1018.075011	2462.427213
1018.367768	2464.257152
1018.660490	2459.881431
1018.953177	2459.881431
1019.245829	2459.881431
