Dividing Wavelength (nm)	Counts (n)	Blue Motor Position (mm): 0.000000	Red Motor Position (mm): 21.500000	
326.493990	2052.089893
326.888308	2052.089893
327.282561	2052.089893
327.676750	2025.318846
328.070874	2028.262880
328.464933	2032.953673
328.858929	2042.415919
329.252859	2052.067208
329.646726	2066.542881
330.040528	2081.031158
330.434265	2098.123190
330.827938	2123.626387
331.221547	2138.389406
331.615091	2158.687612
332.008571	2179.905828
332.401986	2200.443489
332.795338	2223.111038
333.188625	2241.163409
333.581847	2257.920205
333.975006	2277.868051
334.368100	2294.007305
334.761129	2311.636220
335.154095	2327.740186
335.546996	2343.985304
335.939833	2357.609022
336.332606	2371.331043
336.725315	2383.523073
337.117960	2391.145298
337.510540	2403.821279
337.903056	2414.606828
338.295508	2420.767118
338.687896	2426.745927
339.080220	2432.180290
339.472480	2438.796805
339.864676	2442.519697
340.256807	2446.063628
340.648875	2446.744184
341.040879	2447.008844
341.432818	2450.870368
341.824694	2451.293825
342.216506	2448.697631
342.608253	2448.175872
342.999937	2448.606890
343.391557	2448.027158
343.783113	2447.606221
344.174605	2444.263936
344.566033	2443.565736
344.957397	2442.585232
345.348697	2441.400561
345.739934	2437.360076
346.131106	2435.441917
346.522215	2437.160950
346.913260	2434.075764
347.304241	2431.406473
347.695159	2428.500248
348.086012	2430.877152
348.476802	2428.459919
348.867528	2425.551173
349.258191	2417.739905
349.648789	2422.130750
350.039324	2418.309556
350.429796	2421.636717
350.820203	2420.293250
351.210548	2419.766449
351.600828	2423.212078
351.991045	2419.683270
352.381198	2418.775862
352.771288	2420.643610
353.161314	2417.818043
353.551276	2420.555390
353.941175	2419.985739
354.331010	2419.456418
354.720782	2419.179155
355.110490	2419.259813
355.500135	2418.133115
355.889717	2419.020358
356.279235	2418.271747
356.668689	2421.455236
357.058080	2417.603794
357.447408	2421.230904
357.836672	2423.539753
358.225873	2422.680236
358.615010	2424.600916
359.004084	2423.998498
359.393095	2424.182500
359.782043	2423.902716
360.170927	2426.632501
360.559748	2426.529157
360.948505	2426.692994
361.337199	2427.383633
361.725830	2428.580907
362.114398	2431.177101
362.502903	2426.793818
362.891344	2428.238108
363.279722	2428.994281
363.668037	2432.321443
364.056289	2431.214909
364.444478	2435.651125
364.832603	2432.265990
365.220665	2433.037287
365.608665	2434.458892
365.996601	2431.676175
366.384474	2431.900506
366.772284	2432.139961
367.160031	2434.733635
367.547715	2431.887903
367.935336	2434.731114
368.322893	2434.416042
368.710388	2429.430341
369.097820	2433.680034
369.485189	2430.438572
369.872495	2435.885538
370.259738	2439.631116
370.646918	2438.448965
371.034035	2438.587597
371.421090	2441.466096
371.808081	2442.333174
372.195010	2439.552978
372.581875	2442.582711
372.968678	2444.463062
373.355418	2444.284101
373.742096	2447.492795
374.128710	2447.220573
374.515262	2451.069494
374.901751	2455.009156
375.288177	2460.128447
375.674540	2461.184569
376.060841	2466.835702
376.447079	2467.670013
376.833254	2474.878863
377.219367	2479.504122
377.605417	2484.842704
377.991404	2491.373519
378.377329	2499.835096
378.763191	2505.561846
379.148991	2512.576612
379.534727	2521.837212
379.920402	2529.313243
380.306013	2540.708771
380.691563	2553.054557
381.077049	2559.971020
381.462474	2572.215982
381.847835	2589.728951
382.233134	2602.566249
382.618371	2612.532610
383.003545	2629.748151
383.388657	2643.248361
383.773706	2663.092863
384.158693	2675.176509
384.543618	2692.697039
384.928480	2708.717826
385.313280	2729.258007
385.698017	2748.527818
386.082692	2773.615120
386.467305	2786.885957
386.851856	2811.270018
387.236344	2840.569205
387.620770	2858.500589
388.005133	2873.273690
388.389435	2911.838517
388.773674	2924.038109
389.157851	2956.992132
389.541965	2982.414671
389.926018	2996.446723
390.310008	3031.986857
390.693936	3052.627862
391.077802	3079.698858
391.461606	3112.637757
391.845348	3131.463946
392.229027	3159.268430
392.612645	3200.827702
392.996200	3231.994636
393.379694	3266.760954
393.763125	3312.431287
394.146494	3337.173270
394.529801	3371.949670
394.913047	3416.321906
395.296230	3423.603853
395.679351	3444.154116
396.062410	3494.684122
396.445408	3474.738797
396.828343	3516.494674
397.211217	3551.071948
397.594028	3523.524563
397.976778	3572.166657
398.359466	3605.788632
398.742092	3614.494705
399.124656	3634.465236
399.507158	3690.802651
399.889598	3692.360367
400.271977	3760.859566
400.654294	3750.754573
401.036549	3811.087102
401.418742	3805.718273
401.800874	3878.421794
402.182944	3905.293664
402.564952	3988.863392
402.946898	3986.050428
403.328783	3982.372907
403.710606	4031.889640
404.092367	4101.276082
404.474067	4164.847553
404.855705	4151.039832
405.237282	4120.936582
405.618797	4214.528124
406.000250	4294.899239
406.381642	4379.913258
406.762972	4379.451992
407.144240	4348.632898
407.525447	4409.028442
407.906593	4427.393365
408.287677	4511.888145
408.668700	4531.470507
409.049661	4574.108586
409.430560	4613.651397
409.811399	4598.124643
410.192176	4646.028208
410.572891	4726.250609
410.953545	4830.267257
411.334138	4730.064242
411.714669	4840.294112
412.095139	4751.605093
412.475547	4863.649778
412.855894	4868.544738
413.236180	4970.035768
413.616405	4896.664295
413.996568	5001.585830
414.376670	5003.808978
414.756711	4997.983925
415.136691	5064.849790
415.516609	5151.338346
415.896466	5190.989541
416.276262	5264.315645
416.655997	5380.471391
417.035670	5472.956399
417.415283	5614.839674
417.794834	5692.412950
418.174324	5645.961238
418.553753	5647.854191
418.933121	5809.687832
419.312428	5822.232744
419.691674	5747.989150
420.070859	5978.775694
420.449983	5850.097722
420.829045	6045.422268
421.208047	5972.476772
421.586988	6131.210104
421.965867	6203.296083
422.344686	6282.361540
422.723444	6441.674605
423.102141	6054.130862
423.480777	6442.823988
423.859352	6253.132930
424.237866	6618.818230
424.616319	6604.639985
424.994712	6765.825838
425.373044	6666.492422
425.751314	6980.059753
426.129524	6692.691299
426.507673	6946.727644
426.885762	6980.001780
427.263789	7002.361818
427.641756	7080.318221
428.019662	7148.131822
428.397508	7172.173085
428.775292	7130.462578
429.153016	7283.665764
429.530679	7204.824639
429.908282	7238.807057
430.285824	7162.148751
430.663305	7409.886174
431.040726	7277.228211
431.418086	7257.192145
431.795385	7360.182918
432.172624	7512.793768
432.549802	7379.782924
432.926920	7475.451421
433.303977	7397.986531
433.680974	7400.368476
434.057910	7559.225316
434.434786	7573.509425
434.811601	7500.977304
435.188355	7776.708254
435.565050	7633.196687
435.941683	7604.772141
436.318257	7869.581432
436.694770	7785.200078
437.071222	7945.685211
437.447614	7707.720064
437.823946	7635.296327
438.200218	7722.599030
438.576429	7576.874395
438.952580	7671.514497
439.328670	7625.639997
439.704700	7643.692369
440.080670	7507.550968
440.456580	7682.685694
440.832429	7602.105370
441.208218	7343.910073
441.583947	7379.992132
441.959616	7423.071312
442.335224	7395.750779
442.710773	7400.307982
443.086261	7475.433777
443.461689	7206.982252
443.837057	7271.088085
444.212365	7371.061728
444.587612	7296.772764
444.962800	7157.442834
445.337927	7187.057092
445.712995	6811.178579
446.088002	7195.869029
446.462949	7164.124883
446.837837	7093.021929
447.212664	7031.237547
447.587431	7471.859599
447.962139	8019.626335
448.336786	8505.888473
448.711374	8301.555384
449.085901	7490.668144
449.460369	7348.051381
449.834776	7129.661035
450.209124	7537.601286
450.583412	7353.347113
450.957640	7440.062521
451.331808	7134.916438
451.705917	6745.595688
452.079965	6591.853098
452.453954	6602.111847
452.827883	6488.295196
453.201752	6386.640328
453.575562	6299.488861
453.949311	6363.418253
454.323001	6304.585467
454.696632	6175.322721
455.070202	6328.717471
455.443713	6260.208190
455.817164	6230.803139
456.190556	6256.928919
456.563888	6109.296208
456.937160	6107.738492
457.310373	5828.445966
457.683526	5733.405092
458.056619	5639.536287
458.429653	5563.745060
458.802628	5515.221433
459.175542	5433.398465
459.548398	5497.007744
459.921194	5564.022323
460.293930	5548.384664
460.666607	5678.637997
461.039224	5788.066323
461.411782	5765.943220
461.784280	5574.802831
462.156719	5450.765240
462.529099	5320.186753
462.901419	5069.749791
463.273680	4880.202407
463.645882	4820.557995
464.018024	4699.487124
464.390106	4669.567876
464.762130	4769.259213
465.134094	4945.326553
465.505999	5221.213779
465.877845	5472.316173
466.249631	5530.584350
466.621358	5332.799720
466.993026	5089.753090
467.364634	4865.968709
467.736184	4648.173219
468.107674	4474.394563
468.479105	4363.942882
468.850477	4244.880911
469.221790	4115.129173
469.593043	3969.230619
469.964238	3857.382538
470.335373	3789.357208
470.706449	3770.578910
471.077467	3768.443982
471.448425	3874.091443
471.819324	3935.815330
472.190164	3868.611708
472.560945	3696.058053
472.931667	3538.219527
473.302330	3456.565437
473.672934	3372.509238
474.043479	3342.297603
474.413965	3287.059160
474.784393	3232.801221
475.154761	3218.867472
475.525070	3182.934127
475.895321	3136.734472
476.265513	3119.874333
476.635645	3105.393619
477.005719	3071.595203
477.375734	3052.360681
477.745691	3040.294679
478.115588	3024.329345
478.485427	3025.627442
478.855207	3042.558157
479.224928	3052.748849
479.594591	3056.922925
479.964194	3023.560569
480.333739	3006.115656
480.703226	2984.720999
481.072653	2971.598875
481.442022	2961.292236
481.811333	2946.385544
482.180584	2919.662388
482.549777	2899.568349
482.918912	2876.817621
483.287988	2868.973586
483.657005	2851.760566
484.025964	2833.539316
484.394864	2824.634117
484.763706	2813.939309
485.132489	2796.688481
485.501213	2787.896709
485.869879	2783.747839
486.238487	2776.521345
486.607036	2769.181425
486.975527	2757.561565
487.343959	2757.760691
487.712333	2751.461769
488.080648	2748.847931
488.448905	2745.581263
488.817104	2739.667990
489.185244	2740.252764
489.553326	2743.635378
489.921350	2754.332706
490.289315	2768.357196
490.657222	2772.367434
491.025070	2771.989348
491.392861	2764.639345
491.760593	2751.907911
492.128267	2740.552712
492.495883	2730.397308
492.863440	2717.713765
493.230939	2708.743032
493.598380	2701.934953
493.965763	2694.925229
494.333088	2689.392562
494.700354	2684.336285
495.067563	2679.607683
495.434713	2674.269101
495.801805	2675.607527
496.168839	2674.874039
496.535815	2670.122752
496.902733	2664.610250
497.269593	2660.998263
497.636395	2659.279230
498.003139	2658.880979
498.369825	2657.958448
498.736453	2655.687408
499.103023	2654.895947
499.469535	2653.575164
499.835989	2650.404279
500.202385	2646.676345
500.568723	2644.677528
500.935003	2645.844555
501.301226	2640.384985
501.667390	2645.925213
502.033497	2652.541728
502.399546	2646.820018
502.765537	2643.656694
503.131470	2644.334729
503.497345	2646.676345
503.863163	2638.628143
504.228923	2641.539410
504.594625	2643.311375
504.960269	2637.100674
505.325856	2641.219296
505.691385	2637.148565
506.056856	2640.367341
506.422270	2641.972949
506.787625	2636.042031
507.152924	2637.720736
507.518164	2637.957670
507.883347	2636.004223
508.248472	2636.314254
508.613540	2638.282824
508.978550	2640.427835
509.343503	2637.839203
509.708398	2638.668472
510.073236	2638.391209
510.438016	2639.575880
510.802738	2637.758544
511.167403	2640.173257
511.532010	2638.789460
511.896561	2641.884729
512.261053	2642.993782
512.625488	2640.417753
512.989866	2642.361118
513.354186	2640.357259
513.718449	2639.757362
514.082655	2645.189205
514.446803	2640.896662
514.810894	2646.220121
515.174927	2644.765748
515.538904	2643.558392
515.902822	2647.077117
516.266684	2643.591159
516.630488	2642.852630
516.994235	2641.874646
517.357925	2644.727939
517.721558	2647.208187
518.085133	2643.954122
518.448651	2646.457055
518.812112	2645.786582
519.175516	2645.106026
519.538863	2643.460089
519.902152	2645.267343
520.265385	2648.609628
520.628560	2648.203815
520.991678	2647.006541
521.354739	2648.944865
521.717743	2648.531490
522.080690	2649.196922
522.443580	2647.795482
522.806413	2650.527787
523.169189	2650.235400
523.531908	2652.040133
523.894569	2648.390338
524.257174	2648.395379
524.619722	2648.481078
524.982213	2649.816984
525.344647	2646.215080
525.707025	2648.304638
526.069345	2649.486789
526.431608	2650.245482
526.793815	2648.561737
527.155964	2648.024854
527.518057	2646.935965
527.880093	2645.466468
528.242072	2650.028713
528.603995	2645.526962
528.965860	2644.070069
529.327669	2645.342960
529.689421	2644.856489
530.051117	2644.813639
530.412755	2642.940850
530.774337	2642.426653
531.135862	2639.885911
531.497331	2643.056797
531.858743	2641.534368
532.220098	2645.905049
532.581396	2639.119656
532.942638	2639.407002
533.303824	2639.631333
533.664953	2638.413894
534.026025	2636.329377
534.387040	2634.408697
534.747999	2635.076650
535.108902	2636.654532
535.469748	2634.121352
535.830537	2632.379633
536.191270	2632.225878
536.551947	2630.693367
536.912567	2627.414097
537.273131	2632.452730
537.633638	2626.552059
537.994089	2630.617750
538.354483	2627.023407
538.714821	2630.857205
539.075103	2630.683285
539.435328	2627.978706
539.795497	2628.261010
540.155609	2629.294447
540.515665	2629.964920
540.875665	2626.647841
541.235609	2623.484517
541.595496	2625.316977
541.955328	2628.132461
542.315102	2624.651544
542.674821	2623.996194
543.034483	2623.590381
543.394090	2625.962244
543.753640	2625.377470
544.113134	2627.719086
544.472571	2625.201030
544.831953	2626.083232
545.191278	2626.274796
545.550548	2622.229270
545.909761	2624.669188
546.268918	2624.681791
546.628019	2626.647841
546.987064	2623.663478
547.346053	2620.792541
547.704986	2623.058540
548.063863	2621.528549
548.422684	2620.643827
548.781449	2620.200205
549.140158	2622.173817
549.498811	2620.492592
549.857408	2617.944289
550.215949	2623.686163
550.574434	2619.998559
550.932864	2622.181379
551.291237	2623.204733
551.649555	2623.184568
552.007817	2622.408231
552.366022	2621.445370
552.724173	2620.719444
553.082267	2620.343878
553.440305	2625.531226
553.798288	2622.894702
554.156215	2621.788169
554.514086	2619.582664
554.871902	2616.487396
555.229661	2619.839763
555.587365	2616.278188
555.945014	2622.869496
556.302606	2619.819598
556.660143	2619.751543
557.017625	2621.314300
557.375050	2622.120885
557.732421	2621.503344
558.089735	2624.848149
558.446994	2622.438478
558.804197	2622.204064
559.161345	2622.819085
559.518437	2621.354630
559.875474	2621.899074
560.232455	2622.675412
560.589381	2624.177676
560.946251	2623.494599
561.303065	2622.516616
561.659825	2621.825977
562.016528	2623.827316
562.373177	2620.099382
562.729770	2620.734568
563.086307	2621.876389
563.442789	2623.892851
563.799216	2623.668519
564.155587	2621.198354
564.511904	2622.645165
564.868164	2621.417644
565.224370	2621.387397
565.580520	2620.132150
565.936615	2620.013683
566.292654	2622.453601
566.648638	2625.160701
567.004567	2620.863117
567.360441	2622.660288
567.716260	2622.980402
568.072023	2626.554580
568.427732	2621.692387
568.783385	2620.777418
569.138982	2625.556431
569.494525	2621.543673
569.850013	2621.011831
570.205445	2623.439147
570.560823	2620.858076
570.916145	2620.301028
571.271412	2620.258179
571.626625	2620.391769
571.981782	2620.873199
572.336884	2617.833384
572.691931	2617.445215
573.046923	2619.572582
573.401860	2613.598814
573.756743	2619.769187
574.111570	2618.639968
574.466342	2621.331944
574.821059	2620.711882
575.175722	2618.229114
575.530330	2617.556120
575.884882	2616.661315
576.239380	2616.631068
576.593823	2618.627365
576.948211	2614.599483
577.302544	2615.695934
577.656823	2615.317848
578.011047	2615.259875
578.365216	2614.433125
578.719330	2615.048146
579.073389	2614.080245
579.427394	2615.907663
579.781344	2612.404061
580.135239	2611.242075
580.489080	2613.432456
580.842866	2612.577981
581.196597	2613.379524
581.550273	2614.196191
581.903895	2611.479009
582.257463	2614.241562
582.610975	2609.805346
582.964434	2609.676797
583.317837	2610.138062
583.671186	2611.189143
584.024481	2611.857096
584.377721	2610.075048
584.730906	2612.043618
585.084037	2613.986983
585.437113	2607.388113
585.790135	2610.440532
586.143103	2607.766199
586.496016	2607.393154
586.848874	2607.708226
587.201679	2610.589246
587.554428	2606.405088
587.907124	2607.214193
588.259765	2609.896087
588.612352	2605.946343
588.964884	2603.675303
589.317362	2605.018771
589.669786	2605.606065
590.022155	2603.952567
590.374470	2604.839810
590.726731	2605.144799
591.078937	2600.312853
591.431090	2605.452310
591.783188	2601.832761
592.135232	2602.634305
592.487222	2603.713112
592.839157	2603.002309
593.191038	2604.416353
593.542866	2601.699171
593.894639	2599.158429
594.246358	2599.521392
594.598022	2601.502566
594.949633	2596.809252
595.301190	2598.145157
595.652692	2598.740013
596.004141	2601.379057
596.355535	2595.216247
596.706876	2597.681371
597.058162	2595.647266
597.409395	2597.250352
597.760573	2600.418718
598.111698	2596.468974
598.462768	2595.934611
598.813785	2595.085177
599.164748	2591.740371
599.515657	2593.678695
599.866511	2596.307657
600.217312	2596.037955
600.568060	2591.400093
600.918753	2598.424941
601.269392	2594.709611
601.619978	2594.190372
601.970510	2594.812955
602.320988	2593.421596
602.671412	2596.330342
603.021783	2595.639704
603.372100	2593.784559
603.722363	2593.529981
604.072572	2592.005032
604.422728	2593.008222
604.772830	2593.325814
605.122878	2592.698191
605.472872	2591.823550
605.822813	2591.707604
606.172701	2590.996801
606.522534	2593.184662
606.872314	2593.260279
607.222041	2591.493355
607.571714	2590.379260
607.921333	2585.358271
608.270899	2589.418920
608.620411	2587.387335
608.969870	2592.627614
609.319276	2591.846236
609.668627	2590.792634
610.017926	2592.360433
610.367171	2589.875144
610.716362	2593.789600
611.065500	2592.650300
611.414585	2592.325145
611.763616	2592.211719
612.112594	2595.180959
612.461518	2595.087698
612.810389	2597.522575
613.159207	2599.183635
613.507971	2591.944538
613.856682	2596.610126
614.205340	2593.477049
614.553945	2594.938983
614.902496	2595.974941
615.250994	2594.250866
615.599439	2594.099631
615.947830	2595.793459
616.296169	2594.296236
616.644454	2597.056268
616.992686	2595.440578
617.340864	2597.331011
617.688990	2596.037955
618.037063	2596.012749
618.385082	2594.407142
618.733048	2597.895620
619.080961	2596.930239
619.428821	2595.019642
619.776628	2596.950404
620.124382	2598.845878
620.472083	2596.534509
620.819731	2596.239601
621.167326	2594.129878
621.514868	2594.192893
621.862357	2595.291864
622.209793	2592.781370
622.557176	2589.807089
622.904506	2588.393045
623.251783	2587.747777
623.599007	2587.760380
623.946179	2587.437747
624.293297	2589.643251
624.640363	2584.967581
624.987376	2586.590833
625.334336	2581.015317
625.681243	2582.142014
626.028097	2578.156982
626.374899	2585.343147
626.721647	2585.723754
627.068343	2581.486664
627.414987	2580.387693
627.761577	2578.706468
628.108115	2581.678228
628.454600	2580.097827
628.801032	2580.196129
629.147412	2581.310224
629.493739	2579.215625
629.840014	2577.035326
630.186236	2578.605645
630.532405	2577.756211
630.878521	2577.978021
631.224585	2576.039698
631.570597	2577.942733
631.916556	2579.205542
632.262462	2578.182188
632.608316	2577.320151
632.954117	2575.709502
633.299866	2576.969791
633.645562	2578.126735
633.991206	2572.493246
634.336797	2572.074830
634.682336	2571.298493
635.027823	2572.667166
635.373257	2572.299162
635.718639	2569.899572
636.063968	2570.023081
636.409245	2568.772874
636.754470	2569.723132
637.099642	2566.456464
637.444762	2565.191135
637.789829	2566.010322
638.134845	2565.143244
638.479808	2565.488563
638.824719	2566.552246
639.169577	2563.366237
639.514383	2561.211144
639.859137	2564.394632
640.203839	2563.177194
640.548489	2564.124931
640.893086	2562.078222
641.237632	2559.958417
641.582125	2561.092677
641.926566	2561.133006
642.270955	2557.687377
642.615292	2556.336348
642.959576	2557.752912
643.303809	2558.206616
643.647990	2560.389436
643.992118	2558.372974
644.336195	2560.744837
644.680219	2559.446740
645.024192	2558.665361
645.368112	2561.644683
645.711981	2560.031514
646.055797	2564.399673
646.399562	2563.348593
646.743274	2566.237174
647.086935	2567.855384
647.430544	2566.048131
647.774101	2565.647359
648.117606	2567.636094
648.461059	2565.032338
648.804460	2569.972669
649.147810	2565.843964
649.491108	2564.639128
649.834354	2560.379353
650.177548	2562.037893
650.520690	2557.984805
650.863781	2564.036710
651.206820	2557.851215
651.549807	2559.545042
651.892742	2558.826678
652.235626	2556.676626
652.578458	2558.224260
652.921238	2553.210832
653.263967	2556.515309
653.606644	2554.118240
653.949269	2555.209650
654.291843	2555.476831
654.634365	2557.268961
654.976836	2552.747046
655.319255	2554.876934
655.661622	2550.569268
656.003938	2555.025648
656.346203	2551.539690
656.688416	2552.696635
657.030577	2555.113868
657.372687	2550.909546
657.714746	2551.529608
658.056753	2552.295863
658.398708	2551.905174
658.740612	2551.043136
659.082465	2553.220915
659.424266	2548.845193
659.766016	2545.807898
660.107715	2549.306459
660.449362	2548.036088
660.790958	2550.249155
661.132503	2551.532128
661.473996	2550.574309
661.815438	2551.378373
662.156829	2550.143290
662.498168	2550.644885
662.839456	2549.709751
663.180693	2552.875596
663.521879	2549.548434
663.863013	2552.250493
664.204097	2549.613969
664.545129	2552.338713
664.886110	2547.632796
665.227040	2551.179247
665.567918	2551.670760
665.908746	2551.053219
666.249522	2554.929866
666.590248	2552.182437
666.930922	2553.651933
667.271545	2553.936759
667.612118	2555.272664
667.952639	2555.111347
668.293109	2555.769218
668.633528	2552.273178
668.973896	2552.767211
669.314213	2550.349978
669.654480	2550.261757
669.994695	2549.397200
670.334859	2554.997922
670.674973	2551.106151
671.015035	2553.069680
671.355047	2547.718495
671.695008	2549.684545
672.034918	2553.972047
672.374777	2553.692263
672.714585	2549.203115
673.054342	2551.254865
673.394049	2551.345606
673.733705	2549.513146
674.073310	2550.856614
674.412864	2552.379042
674.752368	2551.010369
675.091820	2550.511295
675.431223	2549.435008
675.770574	2550.372663
676.109875	2548.015923
676.449125	2547.017775
676.788324	2541.774975
677.127473	2544.174564
677.466571	2539.251877
677.805619	2543.302445
678.144616	2545.351674
678.483562	2543.904862
678.822458	2543.131045
679.161303	2545.772610
679.500098	2544.880326
679.838842	2543.524255
680.177535	2542.518545
680.516179	2546.669935
680.854771	2545.805378
681.193314	2545.170192
681.531805	2548.172199
681.870247	2549.911397
682.208638	2551.670760
682.546978	2553.115051
682.885268	2552.386604
683.223508	2551.396017
683.561697	2549.407282
683.899836	2552.061449
684.237925	2551.915256
684.575963	2549.306459
684.913951	2549.606407
685.251889	2549.508105
685.589776	2548.149514
685.927614	2549.745039
686.265401	2548.388969
686.603137	2550.513815
686.940824	2550.670091
687.278460	2555.340720
687.616046	2549.687066
687.953582	2555.527243
688.291068	2553.911553
688.628504	2551.892571
688.965889	2553.440205
689.303224	2556.769887
689.640510	2555.701163
689.977745	2552.061449
690.314930	2550.163455
690.652065	2552.142108
690.989150	2543.708257
691.326185	2546.899308
691.663170	2542.470654
692.000105	2541.442259
692.336990	2541.593493
692.673825	2540.174409
693.010610	2536.726259
693.347345	2536.585107
693.684030	2531.319622
694.020665	2535.024870
694.357251	2529.013294
694.693786	2534.717360
695.030272	2532.952956
695.366707	2529.527492
695.703093	2528.085722
696.039429	2527.657224
696.375716	2530.704601
696.711952	2529.318284
697.048139	2531.024714
697.384276	2529.860208
697.720363	2527.909281
698.056400	2527.659744
698.392388	2528.158818
698.728326	2529.008253
699.064214	2531.775846
699.400053	2525.842408
699.735842	2526.608664
700.071581	2527.405166
700.407270	2524.758560
700.742910	2525.776873
701.078501	2526.139836
701.414042	2525.907943
701.749533	2522.432068
702.084974	2522.477438
702.420366	2521.610360
702.755709	2521.403672
703.091002	2521.673374
703.426246	2520.312262
703.761440	2521.819568
704.096584	2523.372243
704.431679	2521.504495
704.766725	2519.359484
705.101721	2517.635410
705.436668	2519.924094
705.771565	2518.235307
706.106413	2520.208919
706.441212	2520.755884
706.775961	2521.774197
707.110661	2518.474762
707.445311	2518.565503
707.779913	2521.544825
708.114465	2520.082890
708.448967	2521.156656
708.783421	2520.879392
709.117825	2525.514733
709.452180	2525.943231
709.786485	2527.879034
710.120742	2525.930628
710.454949	2524.017511
710.789107	2528.025228
711.123216	2529.613191
711.457275	2529.439272
711.791286	2532.345497
712.125247	2534.051927
712.459159	2534.218285
712.793023	2535.072761
713.126837	2534.671989
713.460602	2531.523789
713.794318	2533.724252
714.127985	2531.612009
714.461602	2529.645959
714.795171	2529.628315
715.128691	2527.117820
715.462162	2528.143695
715.795584	2524.635052
716.128957	2526.591020
716.462281	2523.594054
716.795556	2521.895185
717.128782	2522.041378
717.461960	2519.969464
717.795088	2518.444515
718.128167	2520.949968
718.461198	2516.601973
718.794180	2519.339320
719.127113	2515.248423
719.459997	2516.112981
719.792833	2518.283198
720.125619	2516.105420
720.458357	2515.505522
720.791046	2513.128618
721.123686	2514.807322
721.456278	2511.946468
721.788821	2514.600635
722.121315	2510.255161
722.453761	2515.089627
722.786158	2513.438649
723.118506	2511.091992
723.450805	2512.473268
723.783056	2514.550224
724.115259	2512.261540
724.447412	2512.337157
724.779518	2510.686179
725.111574	2511.747342
725.443582	2512.599297
725.775542	2511.089472
726.107453	2518.326048
726.439315	2515.324041
726.771129	2520.445853
727.102895	2513.476458
727.434612	2516.407889
727.766281	2515.598784
728.097901	2520.045081
728.429473	2517.736233
728.760996	2518.852848
729.092471	2521.806965
729.423897	2519.271264
729.755276	2518.739422
730.086606	2520.045081
730.417887	2522.280833
730.749120	2522.946265
731.080305	2522.116996
731.411442	2524.307377
731.742530	2525.577748
732.073570	2523.891482
732.404562	2526.172604
732.735506	2527.140505
733.066401	2525.718900
733.397249	2524.191430
733.728048	2522.237983
734.058798	2521.010462
734.389501	2515.752539
734.720156	2516.175996
735.050762	2516.022241
735.381320	2515.192971
735.711831	2512.251458
736.042293	2513.063083
736.372707	2511.021416
736.703073	2513.582322
737.033391	2512.841273
737.363661	2513.804133
737.693883	2509.607372
738.024056	2512.538803
738.354182	2511.402023
738.684260	2516.549041
739.014290	2514.981242
739.344272	2517.017868
739.674207	2517.527025
740.004093	2516.937210
740.333931	2520.483662
740.663722	2519.442663
740.993464	2517.862262
741.323159	2516.554082
741.652806	2515.581140
741.982405	2515.140039
742.311956	2514.278001
742.641460	2518.005935
742.970915	2513.360511
743.300323	2512.813546
743.629683	2508.178205
743.958996	2508.170643
744.288260	2508.911693
744.617477	2509.481343
744.946647	2510.038391
745.275768	2508.014368
745.604842	2507.800119
745.933869	2509.582167
746.262847	2507.537979
746.591778	2505.614778
746.920662	2506.864985
747.249498	2505.735766
747.578286	2507.951353
747.907027	2507.888339
748.235720	2512.226252
748.564365	2509.534276
748.892963	2509.758607
749.221514	2511.538134
749.550017	2510.098885
749.878473	2511.230624
750.206881	2510.590397
750.535242	2510.865140
750.863555	2506.645694
751.191821	2507.805160
751.520039	2509.930006
751.848210	2508.924296
752.176334	2509.574605
752.504411	2510.252640
752.832440	2505.566887
753.160421	2508.813391
753.488356	2504.956908
753.816243	2506.191991
754.144082	2506.310458
754.471875	2509.176354
754.799620	2505.627381
755.127318	2503.840292
755.454969	2505.571929
755.782572	2506.859943
756.110129	2506.053359
756.437638	2507.553102
756.765100	2505.887001
757.092515	2506.577639
757.419882	2503.658811
757.747203	2504.480519
758.074477	2506.686024
758.401703	2506.973369
758.728882	2509.075531
759.056014	2507.636281
759.383099	2506.562515
759.710138	2505.811383
760.037129	2504.319202
760.364073	2507.686693
760.690970	2505.294665
761.017820	2509.682990
761.344623	2510.386231
761.671379	2509.562002
761.998088	2510.237517
762.324751	2516.871675
762.651366	2524.766122
762.977935	2537.810108
763.304456	2548.202446
763.630931	2554.695452
763.957359	2553.112530
764.283740	2546.836293
764.610074	2542.705068
764.936362	2533.547812
765.262602	2526.739734
765.588796	2520.927283
765.914943	2518.457118
766.241044	2513.451252
766.567097	2508.899090
766.893104	2507.916065
767.219064	2507.550582
767.544978	2505.372803
767.870845	2503.661331
768.196665	2498.264776
768.522438	2502.648059
768.848165	2498.726042
769.173846	2500.997082
769.499479	2500.979437
769.825066	2499.751917
770.150607	2496.825527
770.476101	2496.016422
770.801548	2498.617657
771.126949	2496.729745
771.452303	2495.885352
771.777611	2496.008860
772.102872	2494.594816
772.428087	2493.205978
772.753256	2494.957779
773.078378	2494.577172
773.403453	2494.423417
773.728482	2495.340907
774.053465	2493.062305
774.378401	2493.977275
774.703291	2492.616163
775.028135	2494.337717
775.352932	2494.241935
775.677683	2492.137254
776.002388	2490.229177
776.327046	2485.359422
776.651658	2488.691625
776.976224	2484.872951
777.300743	2489.616677
777.625216	2489.914105
777.949643	2490.239259
778.274024	2488.757160
778.598359	2490.052737
778.922647	2489.026862
779.246889	2488.512664
779.571086	2489.662047
779.895236	2490.176245
780.219339	2489.031903
780.543397	2490.750936
780.867409	2489.936790
781.191374	2491.960813
781.515294	2490.181286
781.839167	2493.276554
782.162995	2491.544918
782.486776	2492.883344
782.810511	2489.578868
783.134201	2491.867552
783.457844	2491.101297
783.781441	2490.080463
784.104993	2489.218426
784.428498	2490.156080
784.751958	2489.334372
785.075372	2488.245483
785.398739	2488.018631
785.722061	2489.606594
786.045337	2489.793117
786.368568	2491.829743
786.691752	2489.646924
787.014891	2492.250680
787.337983	2495.119096
787.661030	2494.302429
787.984031	2496.734786
788.306987	2499.862822
788.629897	2498.637822
788.952760	2500.298882
789.275579	2499.451968
789.598351	2497.216216
789.921078	2497.092708
790.243759	2492.608602
790.566395	2494.844353
790.888984	2494.027686
791.211529	2490.322438
791.534027	2489.495689
791.856480	2489.513333
792.178888	2488.101810
792.501249	2487.476707
792.823566	2488.515185
793.145836	2481.729792
793.468062	2485.485451
793.790241	2488.878148
794.112375	2489.117603
794.434464	2489.349496
794.756507	2488.215236
795.078505	2489.147849
795.400457	2490.849239
795.722364	2490.990391
796.044226	2491.907881
796.366042	2492.868221
796.687812	2496.833088
797.009538	2494.125989
797.331218	2492.969044
797.652852	2495.353510
797.974442	2493.989878
798.295986	2494.809065
798.617484	2490.834115
798.938938	2490.125833
799.260346	2489.909064
799.581709	2491.618015
799.903026	2493.778149
800.224299	2489.422592
800.545526	2490.209012
800.866708	2489.659527
801.187845	2490.705566
801.508936	2490.685401
801.829983	2489.092397
802.150984	2491.489465
802.471940	2486.415544
802.792851	2488.331183
803.113717	2489.979640
803.434538	2486.042499
803.755314	2488.903353
804.076045	2491.978457
804.396731	2489.614156
804.717372	2486.062663
805.037967	2484.023517
805.358518	2488.701707
805.679024	2485.956799
805.999485	2486.944865
806.319901	2486.987715
806.640272	2487.973261
806.960598	2487.080976
807.280879	2489.152891
807.601115	2487.932931
807.921306	2487.285143
808.241453	2486.052581
808.561554	2482.705255
808.881611	2487.721203
809.201623	2482.700214
809.521590	2487.385966
809.841513	2490.133395
810.161390	2488.321100
810.481223	2487.784217
810.801011	2489.031903
811.120755	2487.771614
811.440453	2486.309680
811.760107	2490.524084
812.079716	2489.392345
812.399281	2487.990905
812.718801	2490.193889
813.038276	2486.692808
813.357707	2486.377735
813.677093	2488.948724
813.996434	2485.450163
814.315731	2486.591984
814.634983	2488.495020
814.954191	2486.682725
815.273354	2485.934114
815.592473	2489.599033
815.911547	2486.884371
816.230577	2490.703045
816.549562	2488.910915
816.868502	2489.329331
817.187399	2492.356544
817.506250	2490.818992
817.825058	2490.347644
818.143821	2493.289157
818.462539	2495.721514
818.781213	2495.456853
819.099843	2499.265445
819.418429	2504.230982
819.736970	2509.504029
820.055466	2509.287259
820.373919	2518.736902
820.692327	2524.191430
821.010691	2541.848072
821.329011	2576.657239
821.647286	2631.779736
821.965517	2706.456868
822.283704	2753.299270
822.601847	2788.025258
822.919945	2766.217227
823.237999	2737.326374
823.556010	2706.119111
823.873976	2668.106290
824.191897	2638.358442
824.509775	2617.006634
824.827609	2591.758015
825.145398	2575.999368
825.463144	2568.490570
825.780845	2564.200548
826.098502	2571.888308
826.416116	2587.478076
826.733685	2601.545416
827.051210	2611.418515
827.368692	2609.258381
827.686129	2593.782039
828.003522	2575.243195
828.320872	2560.102090
828.638177	2545.092054
828.955439	2533.986392
829.272656	2527.261493
829.589830	2518.051305
829.906960	2511.807836
830.224046	2506.827176
830.541088	2502.113697
830.858086	2498.274858
831.175041	2498.905003
831.491952	2498.652945
831.808819	2497.896772
832.125642	2497.720332
832.442421	2500.387102
832.759157	2510.038391
833.075849	2520.070287
833.392497	2533.283151
833.709101	2549.392158
834.025662	2549.147663
834.342179	2545.795295
834.658653	2532.342976
834.975083	2528.078160
835.291469	2519.367046
835.607811	2511.898577
835.924110	2505.100581
836.240366	2502.653101
836.556578	2499.474653
836.872746	2493.715135
837.188871	2495.686226
837.504952	2490.750936
837.820990	2491.950731
838.136984	2484.867910
838.452935	2485.150214
838.768842	2486.755822
839.084706	2488.363950
839.400526	2495.718993
839.716303	2499.774602
840.032037	2503.021105
840.347727	2504.397340
840.663373	2502.748883
840.978977	2493.309322
841.294537	2493.455515
841.610054	2488.726913
841.925527	2489.863693
842.240957	2485.790441
842.556344	2485.558548
842.871687	2482.979998
843.186987	2483.345481
843.502244	2480.240131
843.817458	2480.789616
844.132629	2479.995635
844.447756	2479.589822
844.762840	2477.999338
845.077881	2478.841210
845.392879	2478.407671
845.707833	2476.282825
846.022745	2474.392392
846.337613	2475.657722
846.652438	2476.076137
846.967221	2475.677886
847.281960	2472.819552
847.596656	2476.154275
847.911309	2474.205869
848.225919	2474.750314
848.540485	2474.568833
848.855009	2476.958339
849.169490	2473.061528
849.483928	2475.249388
849.798323	2472.330560
850.112675	2476.880202
850.426984	2473.275777
850.741251	2476.444142
851.055474	2473.827783
851.369654	2474.505818
851.683792	2474.543627
851.997887	2475.861888
852.311938	2473.545478
852.625947	2474.558750
852.939914	2476.131590
853.253837	2477.084368
853.567718	2475.856847
853.881555	2473.558081
854.195350	2473.724439
854.509103	2474.498256
854.822812	2474.299131
855.136479	2475.473720
855.450103	2472.466671
855.763685	2474.788123
856.077224	2471.773513
856.390720	2471.990282
856.704173	2468.486680
857.017584	2475.788792
857.330953	2471.352576
857.644278	2473.295941
857.957561	2477.356591
858.270802	2474.596559
858.584000	2474.193267
858.897155	2473.852989
859.210268	2475.219141
859.523339	2475.312403
859.836367	2477.149903
860.149352	2474.737711
860.462295	2477.588484
860.775195	2476.706282
861.088054	2472.854840
861.400869	2473.338791
861.713642	2474.636888
862.026373	2474.248719
862.339062	2474.954481
862.651708	2476.900366
862.964312	2474.349542
863.276873	2477.845582
863.589392	2476.108905
863.901869	2476.534883
864.214303	2473.777371
864.526696	2475.377938
864.839045	2477.711992
865.151353	2477.250726
865.463619	2477.132259
865.775842	2478.533700
866.088023	2476.050932
866.400162	2474.853658
866.712258	2477.964050
867.024313	2477.870788
867.336325	2477.447331
867.648296	2477.626292
867.960224	2473.797536
868.272110	2477.333905
868.583954	2478.974801
868.895755	2479.539410
869.207515	2476.877681
869.519233	2476.542444
869.830909	2479.501602
870.142542	2476.393730
870.454134	2476.224852
870.765684	2477.255767
871.077191	2477.737198
871.388657	2481.477734
871.700081	2474.382310
872.011463	2477.102012
872.322803	2469.303347
872.634101	2482.007055
872.945357	2481.321458
873.256571	2481.639051
873.567744	2478.760552
873.878874	2480.580408
874.189963	2478.127887
874.501010	2479.854482
874.812015	2483.171562
875.122979	2484.570482
875.433900	2479.977991
875.744780	2482.611993
876.055618	2481.848259
876.366415	2482.352374
876.677169	2482.992601
876.987882	2483.252220
877.298554	2481.981849
877.609183	2482.579226
877.919771	2487.111223
878.230317	2488.101810
878.540822	2488.802530
878.851285	2490.143477
879.161707	2495.290495
879.472087	2496.054230
879.782425	2504.334325
880.092722	2518.293280
880.402977	2539.501415
880.713191	2567.202555
881.023363	2602.483070
881.333494	2620.653909
881.643583	2631.351238
881.953631	2631.936012
882.263637	2625.319497
882.573602	2614.044957
882.883526	2605.066662
883.193408	2592.211719
883.503248	2580.710327
883.813048	2567.391598
884.122806	2559.093859
884.432522	2549.321582
884.742197	2539.962680
885.051831	2530.457585
885.361424	2521.244876
885.670975	2515.901253
885.980485	2511.114677
886.289954	2506.509583
886.599382	2501.526403
886.908768	2496.404590
887.218113	2491.265134
887.527417	2492.684219
887.836680	2486.793631
888.145901	2487.990905
888.455082	2486.241624
888.764221	2487.917808
889.073319	2483.910091
889.382376	2483.932776
889.691392	2484.749443
890.000366	2482.135604
890.309300	2484.464617
890.618193	2484.111737
890.927044	2485.094762
891.235855	2484.242807
891.544625	2486.211377
891.853353	2484.560399
892.162041	2482.246510
892.470687	2486.796151
892.779293	2488.636172
893.087858	2490.597181
893.396381	2493.296719
893.704864	2499.388953
894.013306	2507.394306
894.321707	2518.041223
894.630068	2522.217819
894.938387	2523.427696
895.246665	2526.248221
895.554903	2522.185051
895.863100	2514.817405
896.171256	2511.916221
896.479371	2509.579646
896.787446	2505.156033
897.095480	2502.259891
897.403473	2499.729231
897.711425	2495.255207
898.019336	2495.996257
898.327207	2493.200937
898.635038	2494.589775
898.942827	2487.118785
899.250576	2489.195740
899.558284	2482.816160
899.865952	2486.148363
900.173579	2482.221304
900.481165	2481.966726
900.788711	2482.768269
901.096216	2483.889926
901.403681	2482.105358
901.711105	2484.207519
902.018489	2481.467652
902.325832	2478.884060
902.633135	2478.478247
902.940397	2481.266005
903.247619	2485.689618
903.554800	2500.177894
903.861941	2516.365039
904.169041	2528.854498
904.476101	2537.868081
904.783121	2537.769778
905.090100	2528.521782
905.397039	2522.346368
905.703938	2520.082890
906.010796	2512.412774
906.317614	2508.279028
906.624391	2503.615961
906.931129	2500.636639
907.237826	2496.205465
907.544483	2494.748571
907.851099	2492.447285
908.157675	2486.677684
908.464211	2483.153917
908.770707	2480.764411
909.077163	2479.133597
909.383578	2480.658546
909.689954	2478.231231
909.996289	2476.779378
910.302584	2476.071096
910.608839	2474.397433
910.915054	2477.129739
911.221229	2475.118318
911.527363	2477.343988
911.833458	2477.520428
912.139513	2476.058493
912.445527	2476.696199
912.751502	2474.810808
913.057436	2476.358442
913.363331	2478.188381
913.669186	2477.631333
913.975000	2481.533187
914.280775	2486.518888
914.586510	2492.943838
914.892205	2493.788232
915.197859	2504.808194
915.503475	2512.659791
915.809050	2524.128416
916.114585	2530.971782
916.420081	2536.418749
916.725536	2532.252235
917.030952	2535.786084
917.336328	2528.302491
917.641665	2525.252593
917.946961	2519.528363
918.252218	2516.601973
918.557435	2509.433453
918.862612	2512.241375
919.167750	2505.062772
919.472848	2505.526558
919.777906	2499.336021
920.082925	2499.182266
920.387904	2493.654641
920.692843	2490.191368
920.997743	2490.266986
921.302603	2490.408138
921.607423	2485.767756
921.912204	2483.257261
922.216946	2479.073103
922.521647	2481.208032
922.826310	2477.374235
923.130932	2477.938844
923.435516	2479.025213
923.740059	2475.388020
924.044564	2477.399440
924.349028	2478.329533
924.653454	2475.564460
924.957840	2473.784933
925.262186	2473.553040
925.566493	2475.330047
925.870761	2472.650673
926.174989	2473.628657
926.479178	2470.624130
926.783328	2470.177988
927.087438	2472.736373
927.391509	2471.788636
927.695541	2471.473564
927.999533	2469.762092
928.303486	2470.919037
928.607400	2471.826445
928.911275	2471.231589
929.215110	2471.221506
929.518906	2471.345015
929.822663	2472.055817
930.126381	2469.147072
930.430060	2469.197483
930.733699	2467.549026
931.037299	2471.960035
931.340861	2471.118163
931.644383	2470.135138
931.947866	2469.205045
932.251309	2470.672021
932.554714	2468.980713
932.858080	2465.593058
933.161407	2466.966772
933.464694	2464.930146
933.767943	2468.486680
934.071153	2470.750158
934.374323	2468.688327
934.677455	2469.091619
934.980548	2469.754531
935.283602	2471.889459
935.586617	2470.021712
935.889593	2471.839048
936.192530	2468.564818
936.495428	2469.341156
936.798287	2468.065744
937.101108	2466.893676
937.403890	2470.588842
937.706632	2469.983903
938.009336	2472.358287
938.312002	2474.601600
938.614628	2473.061528
938.917216	2471.362659
939.219765	2474.863740
939.522275	2474.704944
939.824747	2471.551702
940.127179	2473.464820
940.429573	2475.231744
940.731929	2475.214100
941.034246	2472.305354
941.336524	2475.720736
941.638763	2472.033132
941.940964	2471.768472
942.243126	2472.184367
942.545250	2475.687969
942.847335	2472.688482
943.149381	2469.207565
943.451389	2473.767289
943.753359	2472.965746
944.055290	2473.772330
944.357182	2470.324181
944.659036	2471.319809
944.960851	2472.202011
945.262628	2471.508852
945.564367	2473.369038
945.866067	2471.279480
946.167729	2472.282669
946.469352	2469.653708
946.770937	2469.517596
947.072484	2469.250415
947.373992	2470.898873
947.675462	2471.284521
947.976893	2469.862915
948.278286	2466.752523
948.579641	2467.864098
948.880958	2463.846298
949.182236	2471.788636
949.483476	2470.893831
949.784678	2470.248564
950.085841	2470.699747
950.386967	2469.257977
950.688054	2472.754017
950.989103	2470.341825
951.290114	2468.126238
951.591087	2470.495580
951.892021	2470.059520
952.192917	2472.607824
952.493776	2470.790488
952.794596	2468.509366
953.095378	2471.944912
953.396122	2474.261322
953.696828	2470.238481
953.997496	2471.501290
954.298126	2472.229737
954.598718	2474.170581
954.899272	2472.340643
955.199788	2472.733852
955.500266	2471.730663
955.800706	2468.970631
956.101108	2469.726804
956.401472	2469.237812
956.701798	2467.493573
957.002087	2463.931998
957.302337	2467.987606
957.602550	2469.565487
957.902724	2469.492391
958.202861	2465.088943
958.502960	2468.532051
958.803022	2468.995837
959.103045	2468.050621
959.403031	2465.494756
959.702979	2465.343521
960.002889	2468.181691
960.302762	2468.264870
960.602596	2467.644808
960.902393	2465.179683
961.202153	2464.468881
961.501875	2467.198666
961.801559	2464.912502
962.101205	2464.957873
962.400814	2468.055662
962.700385	2464.778912
962.999918	2461.834878
963.299414	2460.309929
963.598873	2461.648355
963.898293	2460.259517
964.197677	2464.262193
964.497022	2464.715897
964.796331	2465.804787
965.095601	2464.116000
965.394835	2464.632718
965.694030	2464.289920
965.993189	2466.104735
966.292309	2465.202369
966.591393	2467.115487
966.890439	2466.886114
967.189447	2461.860084
967.488419	2464.189097
967.787353	2463.677420
968.086249	2462.611216
968.385108	2464.761268
968.683930	2460.229270
968.982714	2465.093984
969.281462	2465.832513
969.580172	2465.136834
969.878844	2464.224385
970.177480	2464.604992
970.476078	2464.990640
970.774639	2465.819910
971.073162	2465.444344
971.371649	2463.884107
971.670098	2464.025259
971.968510	2464.788994
972.266885	2464.511731
972.565223	2466.124900
972.863524	2466.878552
973.161788	2465.943418
973.460014	2465.638428
973.758204	2462.860753
974.056356	2467.007102
974.354471	2463.664817
974.652550	2464.554580
974.950591	2465.156998
975.248595	2465.981227
975.546563	2468.277473
975.844493	2464.436113
976.142386	2464.582307
976.440243	2464.597430
976.738062	2465.192286
977.035845	2462.497790
977.333590	2466.926443
977.631299	2463.478294
977.928971	2464.113479
978.226606	2462.084415
978.524204	2463.889148
978.821765	2457.842284
979.119290	2463.755558
979.416777	2463.110290
979.714228	2461.948304
980.011642	2461.986113
980.309020	2463.894189
980.606360	2463.919395
980.903664	2462.974179
981.200931	2466.308902
981.498162	2464.630198
981.795356	2467.128089
982.092513	2466.291258
982.389633	2470.311578
982.686717	2473.706795
982.983764	2470.881228
983.280775	2472.449027
983.577749	2473.600931
983.874686	2471.279480
984.171587	2473.946250
984.468451	2472.411219
984.765279	2473.399285
985.062070	2471.715539
985.358824	2472.433904
985.655543	2469.678913
985.952224	2467.652369
986.248869	2468.232102
986.545478	2466.223202
986.842050	2467.687657
987.138586	2464.524333
987.435086	2466.550877
987.731549	2464.967955
988.027975	2465.461988
988.324366	2464.836885
988.620719	2462.389405
988.917037	2463.052317
989.213318	2461.797069
989.509563	2463.125413
989.805772	2463.621967
990.101944	2462.951493
990.398080	2461.343365
990.694180	2462.195320
990.990244	2462.649024
991.286271	2462.954014
991.582262	2461.270269
991.878217	2464.078191
992.174136	2462.956535
992.470019	2463.485856
992.765865	2462.449899
993.061676	2461.345886
993.357450	2461.227419
993.653188	2456.430761
993.948890	2463.989971
994.244556	2463.362347
994.540186	2466.616412
994.835780	2464.529375
995.131337	2465.252780
995.426859	2463.747996
995.722345	2467.246557
996.017795	2469.550364
996.313208	2468.476598
996.608586	2466.354272
996.903928	2469.966259
997.199234	2472.887608
997.494504	2469.016002
997.789738	2468.620271
998.084936	2470.006588
998.380099	2466.881073
998.675225	2467.632205
998.970316	2465.842595
999.265371	2470.987093
999.560390	2462.943932
999.855373	2465.860239
1000.150320	2463.117852
1000.445232	2465.409056
1000.740108	2465.530044
1001.034948	2462.520475
1001.329752	2462.507872
1001.624521	2462.376802
1001.919254	2462.659107
1002.213951	2464.075671
1002.508613	2462.964096
1002.803239	2462.810341
1003.097829	2462.482666
1003.392384	2463.357306
1003.686903	2463.027111
1003.981386	2462.049127
1004.275834	2462.981740
1004.570246	2462.434775
1004.864623	2461.240022
1005.158964	2462.245732
1005.453270	2461.373612
1005.747540	2462.626339
1006.041775	2461.171966
1006.335974	2463.811010
1006.630138	2461.267748
1006.924266	2464.116000
1007.218359	2458.931173
1007.512416	2461.189610
1007.806438	2458.316152
1008.100425	2458.850515
1008.394376	2455.215843
1008.688292	2465.088943
1008.982172	2461.794549
1009.276017	2462.659107
1009.569827	2461.545012
1009.863602	2463.072481
1010.157341	2458.621142
1010.451045	2463.032152
1010.744714	2463.231278
1011.038347	2463.805969
1011.331945	2460.700618
1011.625508	2464.836885
1011.919036	2458.875721
1012.212528	2462.795218
1012.505986	2460.688015
1012.799408	2463.075002
1013.092795	2459.641976
1013.386147	2465.376288
1013.679464	2462.099538
1013.972745	2460.801441
1014.265992	2462.354117
1014.559204	2462.578448
1014.852380	2460.204065
1015.145521	2458.290947
1015.438628	2460.819085
1015.731699	2463.377471
1016.024736	2462.321349
1016.317737	2463.281689
1016.610703	2459.851184
1016.903635	2464.725980
1017.196531	2461.073664
1017.489393	2465.414097
1017.782219	2456.884465
1018.075011	2463.110290
1018.367768	2463.470732
1018.660490	2463.044755
1018.953177	2463.044755
1019.245829	2463.044755
