Dividing Wavelength (nm)	Counts (n)	Blue Motor Position (mm): 0.000000	Red Motor Position (mm): 17.500000	
326.493990	2052.586447
326.888308	2052.586447
327.282561	2052.586447
327.676750	2027.501665
328.070874	2028.111645
328.464933	2035.358304
328.858929	2042.620086
329.252859	2052.364636
329.646726	2065.761503
330.040528	2082.649368
330.434265	2099.181832
330.827938	2122.303084
331.221547	2141.164561
331.615091	2162.591986
332.008571	2182.396158
332.401986	2202.341484
332.795338	2220.156921
333.188625	2242.862278
333.581847	2259.704773
333.975006	2278.979625
334.368100	2297.163067
334.761129	2312.750315
335.154095	2326.293374
335.546996	2344.582681
335.939833	2358.808817
336.332606	2372.760210
336.725315	2384.967364
337.117960	2394.361554
337.510540	2405.704150
337.903056	2411.698082
338.295508	2420.474731
338.687896	2427.917995
339.080220	2431.040990
339.472480	2436.243460
339.864676	2439.956270
340.256807	2443.938782
340.648875	2444.982301
341.040879	2448.017075
341.432818	2449.350460
341.824694	2448.611931
342.216506	2449.426078
342.608253	2446.812239
342.999937	2447.654112
343.391557	2446.373659
343.783113	2446.081272
344.174605	2443.626230
344.566033	2442.633123
344.957397	2439.658842
345.348697	2441.481219
345.739934	2437.032401
346.131106	2436.172884
346.522215	2433.629622
346.913260	2432.780188
347.304241	2432.208017
347.695159	2429.568973
348.086012	2428.656524
348.476802	2426.327511
348.867528	2421.137643
349.258191	2419.695873
349.648789	2420.787283
350.039324	2416.267888
350.429796	2420.499937
350.820203	2418.722930
351.210548	2420.739392
351.600828	2417.959195
351.991045	2417.447518
352.381198	2417.707138
352.771288	2419.627817
353.161314	2419.133784
353.551276	2419.053126
353.941175	2414.442991
354.331010	2416.719072
354.720782	2416.424164
355.110490	2419.892478
355.500135	2418.233938
355.889717	2420.784762
356.279235	2421.994639
356.668689	2418.846438
357.058080	2418.934659
357.447408	2419.342992
357.836672	2420.799886
358.225873	2421.850966
358.615010	2421.482962
359.004084	2424.742068
359.393095	2423.234763
359.782043	2423.186872
360.170927	2424.023703
360.559748	2423.650658
360.948505	2426.788776
361.337199	2426.619898
361.725830	2423.542273
362.114398	2427.532347
362.502903	2423.693508
362.891344	2425.374733
363.279722	2427.605443
363.668037	2430.874632
364.056289	2429.440423
364.444478	2432.265990
364.832603	2431.318253
365.220665	2429.314394
365.608665	2431.046031
365.996601	2431.161977
366.384474	2430.922522
366.772284	2430.912440
367.160031	2433.095260
367.547715	2435.331012
367.935336	2432.192893
368.322893	2430.491504
368.710388	2430.781370
369.097820	2433.745569
369.485189	2429.763057
369.872495	2434.015270
370.259738	2435.993923
370.646918	2438.499377
371.034035	2437.349994
371.421090	2440.586414
371.808081	2438.206990
372.195010	2441.755962
372.581875	2440.636826
372.968678	2444.130346
373.355418	2442.373503
373.742096	2444.137907
374.128710	2450.590584
374.515262	2450.504885
374.901751	2451.135029
375.288177	2458.658951
375.674540	2459.057202
376.060841	2462.717080
376.447079	2468.884932
376.833254	2475.022536
377.219367	2478.258957
377.605417	2483.272385
377.991404	2489.677171
378.377329	2495.459374
378.763191	2501.581855
379.148991	2510.928155
379.534727	2521.224711
379.920402	2529.938346
380.306013	2536.360776
380.691563	2550.813764
381.077049	2560.512944
381.462474	2569.869325
381.847835	2587.672160
382.233134	2598.833275
382.618371	2612.348608
383.003545	2626.098355
383.388657	2640.400109
383.773706	2664.811896
384.158693	2677.934020
384.543618	2693.057481
384.928480	2707.868391
385.313280	2731.256825
385.698017	2749.808271
386.082692	2774.676283
386.467305	2787.863941
386.851856	2811.325471
387.236344	2840.155830
387.620770	2855.619569
388.005133	2877.394833
388.389435	2911.871285
388.773674	2923.334868
389.157851	2957.854169
389.541965	2984.302583
389.926018	2997.344048
390.310008	3030.159439
390.693936	3053.812533
391.077802	3081.997624
391.461606	3114.402161
391.845348	3133.709780
392.229027	3162.532577
392.612645	3201.956921
392.996200	3232.077815
393.379694	3271.224895
393.763125	3315.408088
394.146494	3339.313240
394.529801	3373.945967
394.913047	3422.328441
395.296230	3429.088628
395.679351	3448.295424
396.062410	3503.110411
396.445408	3481.108295
396.828343	3523.474152
397.211217	3555.230900
397.594028	3530.055378
397.976778	3579.425918
398.359466	3609.163685
398.742092	3620.975108
399.124656	3635.057571
399.507158	3698.258517
399.889598	3700.217005
400.271977	3765.772170
400.654294	3752.314810
401.036549	3811.107267
401.418742	3812.604489
401.800874	3881.582597
402.182944	3910.014705
402.564952	3993.904546
402.946898	3988.387003
403.328783	3982.357783
403.710606	4031.761091
404.092367	4104.046196
404.474067	4169.198068
404.855705	4150.568484
405.237282	4121.420533
405.618797	4219.380234
406.000250	4297.550886
406.381642	4380.117425
406.762972	4377.357393
407.144240	4340.617464
407.525447	4404.856887
407.906593	4421.961522
408.287677	4501.377339
408.668700	4525.315258
409.049661	4559.905135
409.430560	4591.573664
409.811399	4565.319335
410.192176	4610.193166
410.572891	4685.273590
410.953545	4784.256646
411.334138	4674.936704
411.714669	4775.669041
412.095139	4677.386705
412.475547	4779.044093
412.855894	4773.065285
413.236180	4856.665259
413.616405	4773.334986
413.996568	4856.962687
414.376670	4845.620091
414.756711	4827.020754
415.136691	4873.401890
415.516609	4934.810706
415.896466	4943.549546
416.276262	4993.303214
416.655997	5072.088887
417.035670	5137.465090
417.415283	5239.878651
417.794834	5275.572541
418.174324	5211.476791
418.553753	5185.025856
418.933121	5295.328823
419.312428	5272.875524
419.691674	5175.203168
420.070859	5331.289894
420.449983	5197.285943
420.829045	5314.447399
421.208047	5217.057348
421.586988	5307.412469
421.965867	5321.177339
422.344686	5339.219629
422.723444	5425.108288
423.102141	5095.525211
423.480777	5342.932439
423.859352	5160.122556
424.237866	5374.064084
424.616319	5317.698943
424.994712	5380.814189
425.373044	5269.359319
425.751314	5418.844654
426.129524	5185.948388
426.507673	5294.655829
426.885762	5271.161532
427.263789	5233.887240
427.641756	5228.112598
428.019662	5216.064241
428.397508	5178.094270
428.775292	5104.528712
429.153016	5133.701869
429.530679	5037.851890
429.908282	5001.149770
430.285824	4912.624588
430.663305	4985.670907
431.040726	4869.754615
431.418086	4802.767763
431.795385	4800.345489
432.172624	4821.251154
432.549802	4710.267631
432.926920	4695.035785
433.303977	4612.408753
433.680974	4565.848656
434.057910	4578.673351
434.434786	4534.159963
434.811601	4456.516111
435.188355	4504.359182
435.565050	4408.340324
435.941683	4347.042414
436.318257	4382.852251
436.694770	4308.217968
437.071222	4312.787774
437.447614	4184.823125
437.823946	4113.079944
438.200218	4090.266202
438.576429	4004.538860
438.952580	3984.603617
439.328670	3926.854679
439.704700	3886.250706
440.080670	3809.441165
440.456580	3809.874704
440.832429	3754.701796
441.208218	3653.046929
441.583947	3621.123822
441.959616	3593.097527
442.335224	3549.912483
442.710773	3514.702544
443.086261	3493.796879
443.461689	3408.447624
443.837057	3387.073131
444.212365	3370.883466
444.587612	3327.353102
444.962800	3268.341355
445.337927	3243.770772
445.712995	3156.929335
446.088002	3193.177752
446.462949	3160.657268
446.837837	3120.799385
447.212664	3087.744539
447.587431	3119.871813
447.962139	3161.446209
448.336786	3194.753112
448.711374	3146.778972
449.085901	3028.427803
449.460369	2990.606546
449.834776	2944.220369
450.209124	2960.820888
450.583412	2929.013728
450.957640	2918.417223
451.331808	2874.339894
451.705917	2821.680001
452.079965	2797.051444
452.453954	2783.357150
452.827883	2759.363778
453.201752	2742.188567
453.575562	2727.733058
453.949311	2718.868189
454.323001	2705.683051
454.696632	2689.112778
455.070202	2689.944569
455.443713	2679.713547
455.817164	2671.612413
456.190556	2666.886331
456.563888	2652.897129
456.937160	2646.734319
457.310373	2629.503655
457.683526	2620.916049
458.056619	2617.472941
458.429653	2606.422732
458.802628	2603.645056
459.175542	2599.791094
459.548398	2599.768409
459.921194	2601.666403
460.293930	2599.067688
460.666607	2605.822835
461.039224	2610.937085
461.411782	2607.466251
461.784280	2598.679520
462.156719	2592.912440
462.529099	2589.194589
462.901419	2582.956161
463.273680	2574.338308
463.645882	2570.355797
464.018024	2569.115673
464.390106	2564.767678
464.762130	2575.149934
465.134094	2582.038671
465.505999	2601.293358
465.877845	2612.169647
466.249631	2619.265071
466.621358	2613.699637
466.993026	2603.897114
467.364634	2600.406115
467.736184	2588.471183
468.107674	2582.429360
468.479105	2581.300142
468.850477	2575.449883
469.221790	2571.174984
469.593043	2565.579303
469.964238	2561.435475
470.335373	2560.364230
470.706449	2560.833057
471.077467	2563.860270
471.448425	2576.828638
471.819324	2584.599577
472.190164	2583.356932
472.560945	2573.360324
472.931667	2563.048644
473.302330	2558.952707
473.672934	2553.014228
474.043479	2555.948179
474.413965	2555.060936
474.784393	2552.391645
475.154761	2556.389280
475.525070	2555.234856
475.895321	2550.559186
476.265513	2554.259392
476.635645	2555.340720
477.005719	2555.224773
477.375734	2556.079249
477.745691	2558.156204
478.115588	2559.141750
478.485427	2563.393963
478.855207	2571.006106
479.224928	2578.943402
479.594591	2581.776531
479.964194	2579.666808
480.333739	2584.960019
480.703226	2581.852148
481.072653	2583.707293
481.442022	2584.009762
481.811333	2580.566654
482.180584	2581.894998
482.549777	2578.141859
482.918912	2573.839234
483.287988	2579.828125
483.657005	2575.976683
484.025964	2577.085737
484.394864	2573.919892
484.763706	2575.797722
485.132489	2574.061045
485.501213	2575.500294
485.869879	2576.450552
486.238487	2571.154820
486.607036	2574.910479
486.975527	2573.514080
487.343959	2573.977866
487.712333	2573.506518
488.080648	2574.981055
488.448905	2576.309399
488.817104	2575.172619
489.185244	2576.228741
489.553326	2580.725450
489.921350	2588.884558
490.289315	2596.111052
490.657222	2600.574993
491.025070	2602.694799
491.392861	2600.816969
491.760593	2597.895620
492.128267	2593.204827
492.495883	2586.585792
492.863440	2583.573702
493.230939	2584.660071
493.598380	2585.106213
493.965763	2579.636561
494.333088	2578.492219
494.700354	2573.992989
495.067563	2579.389544
495.434713	2574.759245
495.801805	2577.877198
496.168839	2575.424677
496.535815	2576.672362
496.902733	2579.465162
497.269593	2577.660429
497.636395	2578.459452
498.003139	2577.733525
498.369825	2576.478278
498.736453	2578.744277
499.103023	2578.033474
499.469535	2577.816704
499.835989	2576.445511
500.202385	2575.099522
500.568723	2572.122721
500.935003	2576.483319
501.301226	2572.742783
501.667390	2576.954667
502.033497	2581.630337
502.399546	2581.622776
502.765537	2579.157651
503.131470	2581.690831
503.497345	2582.005903
503.863163	2577.473906
504.228923	2580.947261
504.594625	2581.108578
504.960269	2580.183526
505.325856	2582.126891
505.691385	2578.668659
506.056856	2580.024730
506.422270	2584.168558
506.787625	2581.048084
507.152924	2582.152097
507.518164	2582.676377
507.883347	2581.872313
508.248472	2582.013465
508.613540	2581.279977
508.978550	2585.786769
509.343503	2583.069587
509.708398	2586.018662
510.073236	2588.173755
510.438016	2586.931111
510.802738	2585.098651
511.167403	2586.263158
511.532010	2587.160483
511.896561	2588.743405
512.261053	2589.613004
512.625488	2589.323138
512.989866	2590.535536
513.354186	2588.839187
513.718449	2587.629310
514.082655	2592.153746
514.446803	2587.291553
514.810894	2592.136102
515.174927	2588.874475
515.538904	2589.711307
515.902822	2592.299939
516.266684	2590.822881
516.630488	2590.845567
516.994235	2590.016297
517.357925	2592.057964
517.721558	2593.023345
518.085133	2594.926381
518.448651	2591.939497
518.812112	2588.423292
519.175516	2588.345154
519.538863	2586.789958
519.902152	2593.804724
520.265385	2593.257759
520.628560	2590.608632
520.991678	2590.263313
521.354739	2589.613004
521.717743	2592.201637
522.080690	2589.902871
522.443580	2591.344641
522.806413	2592.312542
523.169189	2590.928746
523.531908	2590.648962
523.894569	2587.299115
524.257174	2591.165680
524.619722	2588.819023
524.982213	2588.703076
525.344647	2587.306677
525.707025	2586.782397
526.069345	2588.224167
526.431608	2585.353229
526.793815	2588.635021
527.155964	2585.081007
527.518057	2582.434401
527.880093	2584.934814
528.242072	2585.716193
528.603995	2584.007241
528.965860	2584.118147
529.327669	2585.885071
529.689421	2586.479927
530.051117	2585.479258
530.412755	2580.922055
530.774337	2583.934145
531.135862	2580.342322
531.497331	2581.267374
531.858743	2581.728640
532.220098	2579.608835
532.581396	2580.969946
532.942638	2582.540266
533.303824	2578.724112
533.664953	2584.362643
534.026025	2579.024061
534.387040	2579.873495
534.747999	2580.639751
535.108902	2580.559092
535.469748	2578.913155
535.830537	2581.519432
536.191270	2580.117991
536.551947	2575.046590
536.912567	2576.442990
537.273131	2577.816704
537.633638	2571.036352
537.994089	2579.840728
538.354483	2576.248906
538.714821	2577.627661
539.075103	2578.046077
539.435328	2577.146231
539.795497	2577.499112
540.155609	2576.203535
540.515665	2575.490212
540.875665	2576.523648
541.235609	2573.879563
541.595496	2577.405850
541.955328	2577.201684
542.315102	2576.019533
542.674821	2572.775551
543.034483	2574.988617
543.394090	2576.722774
543.753640	2576.737898
544.113134	2575.981724
544.472571	2575.142372
544.831953	2577.814184
545.191278	2575.956519
545.550548	2573.929975
545.909761	2575.026426
546.268918	2576.160685
546.628019	2575.704461
546.987064	2574.386199
547.346053	2573.483833
547.704986	2576.929461
548.063863	2574.237485
548.422684	2576.067424
548.781449	2572.024419
549.140158	2573.872002
549.498811	2577.647826
549.857408	2573.365366
550.215949	2574.580284
550.574434	2571.273287
550.932864	2573.201528
551.291237	2576.067424
551.649555	2575.207907
552.007817	2576.261508
552.366022	2573.078020
552.724173	2573.496436
553.082267	2575.893504
553.440305	2574.741601
553.798288	2572.813359
554.156215	2573.536765
554.514086	2573.388051
554.871902	2567.268090
555.229661	2572.647001
555.587365	2569.884449
555.945014	2573.839234
556.302606	2570.678431
556.660143	2570.993503
557.017625	2576.415264
557.375050	2574.696230
557.732421	2571.815211
558.089735	2573.597259
558.446994	2573.501477
558.804197	2573.440983
559.161345	2573.554409
559.518437	2574.303020
559.875474	2572.843606
560.232455	2574.265212
560.589381	2574.166909
560.946251	2572.969635
561.303065	2575.757393
561.659825	2575.790161
562.016528	2572.205900
562.373177	2573.587176
562.729770	2572.737742
563.086307	2572.180694
563.442789	2574.416446
563.799216	2575.638926
564.155587	2573.214131
564.511904	2571.053997
564.868164	2573.624985
565.224370	2576.019533
565.580520	2569.859243
565.936615	2576.609348
566.292654	2569.919737
566.648638	2574.539954
567.004567	2572.059707
567.360441	2574.618092
567.716260	2571.041394
568.072023	2572.299162
568.427732	2569.592062
568.783385	2571.084243
569.138982	2570.121383
569.494525	2573.917372
569.850013	2574.358473
570.205445	2570.537278
570.560823	2570.189439
570.916145	2571.744635
571.271412	2570.355797
571.626625	2570.854871
571.981782	2569.990313
572.336884	2565.160888
572.691931	2567.084088
573.046923	2566.993347
573.401860	2565.070147
573.756743	2568.407391
574.111570	2568.276321
574.466342	2570.507031
574.821059	2569.060220
575.175722	2570.086095
575.530330	2567.787329
575.884882	2569.655076
576.239380	2567.227761
576.593823	2569.050138
576.948211	2568.140210
577.302544	2566.496793
577.656823	2566.166598
578.011047	2567.255487
578.365216	2564.190466
578.719330	2567.290775
579.073389	2565.957390
579.427394	2565.589386
579.781344	2562.887327
580.135239	2563.701474
580.489080	2568.094839
580.842866	2564.855898
581.196597	2563.431772
581.550273	2563.605692
581.903895	2565.264231
582.257463	2567.124417
582.610975	2561.301884
582.964434	2566.380847
583.317837	2563.913202
583.671186	2563.719118
584.024481	2563.940928
584.377721	2560.974209
584.730906	2562.496638
585.084037	2564.162739
585.437113	2562.363047
585.790135	2561.876576
586.143103	2559.875238
586.496016	2564.989488
586.848874	2560.575958
587.201679	2561.639642
587.554428	2560.636452
587.907124	2561.932029
588.259765	2558.531770
588.612352	2558.897254
588.964884	2560.076884
589.317362	2561.362378
589.669786	2560.442368
590.022155	2557.964641
590.374470	2555.461708
590.726731	2558.993036
591.078937	2551.968188
591.431090	2558.050340
591.783188	2558.919939
592.135232	2557.972202
592.487222	2557.142932
592.839157	2558.940104
593.191038	2557.359702
593.542866	2555.159238
593.894639	2557.394990
594.246358	2555.401214
594.598022	2557.347099
594.949633	2555.038251
595.301190	2556.255689
595.652692	2554.705535
596.004141	2555.050854
596.355535	2555.754095
596.706876	2553.399876
597.058162	2554.012376
597.409395	2553.977088
597.760573	2553.046995
598.111698	2554.415668
598.462768	2552.142108
598.813785	2550.518856
599.164748	2553.498178
599.515657	2550.125646
599.866511	2548.222611
600.217312	2553.278888
600.568060	2551.428785
600.918753	2552.222766
601.269392	2551.713610
601.619978	2550.937272
601.970510	2552.298384
602.320988	2550.113043
602.671412	2552.535318
603.021783	2549.349309
603.372100	2551.736295
603.722363	2552.086655
604.072572	2554.551779
604.422728	2550.687735
604.772830	2550.768393
605.122878	2549.555996
605.472872	2548.600697
605.822813	2549.230842
606.172701	2549.820657
606.522534	2549.162786
606.872314	2549.850903
607.222041	2550.324772
607.571714	2548.930893
607.921333	2546.551468
608.270899	2547.287477
608.620411	2544.635830
608.969870	2551.930379
609.319276	2549.984494
609.668627	2551.544731
610.017926	2546.561551
610.367171	2551.343085
610.716362	2552.573127
611.065500	2549.447611
611.414585	2550.914587
611.763616	2551.242262
612.112594	2552.129505
612.461518	2551.612787
612.810389	2553.793086
613.159207	2553.631769
613.507971	2555.814588
613.856682	2551.688404
614.205340	2551.315359
614.553945	2552.946172
614.902496	2552.537838
615.250994	2551.201933
615.599439	2552.464742
615.947830	2554.234187
616.296169	2553.339382
616.644454	2552.205122
616.992686	2549.906356
617.340864	2554.793755
617.688990	2551.499361
618.037063	2553.064639
618.385082	2552.396686
618.733048	2555.771739
619.080961	2553.823333
619.428821	2553.586398
619.776628	2553.772921
620.124382	2552.772252
620.472083	2552.038764
620.819731	2551.106151
621.167326	2551.199412
621.514868	2548.043650
621.862357	2552.031203
622.209793	2550.707900
622.557176	2548.966181
622.904506	2547.826880
623.251783	2549.555996
623.599007	2549.480379
623.946179	2547.048022
624.293297	2549.545914
624.640363	2546.052394
624.987376	2545.255892
625.334336	2539.062834
625.681243	2544.161961
626.028097	2542.916796
626.374899	2545.785213
626.721647	2545.568443
627.068343	2545.485264
627.414987	2543.622558
627.761577	2542.911755
628.108115	2542.949564
628.454600	2544.093906
628.801032	2543.357897
629.147412	2542.251364
629.493739	2542.195911
629.840014	2544.237579
630.186236	2541.739687
630.532405	2541.361600
630.878521	2543.294883
631.224585	2540.832279
631.570597	2541.863195
631.916556	2540.459234
632.262462	2540.071065
632.608316	2543.254554
632.954117	2539.251878
633.299866	2542.016950
633.645562	2538.518390
633.991206	2540.250026
634.336797	2538.341949
634.682336	2538.793132
635.027823	2538.089892
635.373257	2537.248019
635.718639	2536.668286
636.063968	2537.684079
636.409245	2533.872966
636.754470	2534.810621
637.099642	2534.059489
637.444762	2534.014119
637.789829	2531.916999
638.134845	2535.390354
638.479808	2535.009747
638.824719	2536.627957
639.169577	2531.942204
639.514383	2532.375744
639.859137	2530.830630
640.203839	2531.974972
640.548489	2533.378933
640.893086	2528.370547
641.237632	2530.102183
641.582125	2532.363141
641.926566	2532.645445
642.270955	2527.264014
642.615292	2528.791483
642.959576	2528.879703
643.303809	2524.209074
643.647990	2532.133768
643.992118	2529.325846
644.336195	2531.286854
644.680219	2528.965403
645.024192	2531.470857
645.368112	2530.346679
645.711981	2533.094108
646.055797	2530.918850
646.399562	2534.351876
646.743274	2534.919006
647.086935	2534.714839
647.430544	2535.287010
647.774101	2536.060827
648.117606	2534.969417
648.461059	2535.241640
648.804460	2538.021836
649.147810	2534.724921
649.491108	2534.495549
649.834354	2531.274252
650.177548	2531.014632
650.520690	2529.913140
650.863781	2530.462626
651.206820	2529.424148
651.549807	2528.554549
651.892742	2529.348531
652.235626	2526.149919
652.578458	2527.652183
652.921238	2526.633869
653.263967	2530.139992
653.606644	2526.336441
653.949269	2528.231915
654.291843	2526.681760
654.634365	2524.806451
654.976836	2526.704446
655.319255	2527.732841
655.661622	2523.634383
656.003938	2526.273427
656.346203	2523.026924
656.688416	2526.154960
657.030577	2528.007584
657.372687	2526.069260
657.714746	2526.061698
658.056753	2524.609846
658.398708	2524.246883
658.740612	2525.560104
659.082465	2522.807634
659.424266	2523.203364
659.766016	2520.902077
660.107715	2521.363343
660.449362	2523.185720
660.790958	2524.622449
661.132503	2522.679084
661.473996	2523.697397
661.815438	2525.865093
662.156829	2526.144878
662.498168	2526.434744
662.839456	2523.634383
663.180693	2524.728313
663.521879	2526.190248
663.863013	2526.124713
664.204097	2524.877027
664.545129	2524.287212
664.886110	2525.565145
665.227040	2524.118334
665.567918	2524.841739
665.908746	2524.304856
666.249522	2526.185207
666.590248	2526.003725
666.930922	2525.063550
667.271545	2526.601102
667.612118	2524.501461
667.952639	2527.122861
668.293109	2527.140505
668.633528	2524.105731
668.973896	2526.301153
669.314213	2525.393746
669.654480	2526.074301
669.994695	2526.061698
670.334859	2526.422141
670.674973	2524.196472
671.015035	2525.086235
671.355047	2525.209743
671.695008	2525.706297
672.034918	2524.430885
672.374777	2525.728982
672.714585	2527.793335
673.054342	2524.846780
673.394049	2524.861904
673.733705	2525.628159
674.073310	2526.578417
674.412864	2525.882737
674.752368	2525.348375
675.091820	2523.173117
675.431223	2523.594054
675.770574	2524.478776
676.109875	2522.207736
676.449125	2520.062725
676.788324	2517.761439
677.127473	2520.357633
677.466571	2518.260513
677.805619	2524.932480
678.144616	2519.520801
678.483562	2520.413086
678.822458	2519.898888
679.161303	2522.157325
679.500098	2521.307890
679.838842	2521.756553
680.177535	2518.232787
680.516179	2520.176151
680.854771	2519.256141
681.193314	2521.048271
681.531805	2523.397449
681.870247	2523.725124
682.208638	2527.410207
682.546978	2525.832326
682.885268	2526.354085
683.223508	2527.480783
683.561697	2527.329549
683.899836	2522.041378
684.237925	2525.736544
684.575963	2524.796369
684.913951	2523.891482
685.251889	2523.760412
685.589776	2523.611698
685.927614	2522.200175
686.265401	2524.209074
686.603137	2521.585154
686.940824	2523.311749
687.278460	2526.301153
687.616046	2525.348375
687.953582	2528.715866
688.291068	2527.654703
688.628504	2527.884076
688.965889	2526.349044
689.303224	2529.411545
689.640510	2527.926925
689.977745	2526.631349
690.314930	2523.029444
690.652065	2524.423323
690.989150	2522.643796
691.326185	2521.769156
691.663170	2520.879392
692.000105	2520.957530
692.336990	2517.441325
692.673825	2516.826305
693.010610	2515.752539
693.347345	2513.879750
693.684030	2509.330109
694.020665	2511.795233
694.357251	2510.426560
694.693786	2514.346057
695.030272	2512.629544
695.366707	2511.018895
695.703093	2511.011334
696.039429	2514.003258
696.375716	2511.848165
696.711952	2510.043432
697.048139	2511.046622
697.384276	2511.432270
697.720363	2510.701303
698.056400	2512.536283
698.392388	2509.098216
698.728326	2509.526714
699.064214	2509.400685
699.400053	2508.727691
699.735842	2508.329440
700.071581	2509.309944
700.407270	2506.680983
700.742910	2508.914214
701.078501	2507.974038
701.414042	2506.980931
701.749533	2507.071672
702.084974	2508.886487
702.420366	2505.894562
702.755709	2502.456496
703.091002	2505.582011
703.426246	2503.429438
703.761440	2505.481188
704.096584	2505.398009
704.431679	2504.553616
704.766725	2504.987155
705.101721	2504.911537
705.436668	2502.466578
705.771565	2503.815087
706.106413	2503.699140
706.441212	2503.331136
706.775961	2503.545385
707.110661	2507.482526
707.445311	2504.178050
707.779913	2506.325581
708.114465	2504.959428
708.448967	2507.308606
708.783421	2505.818945
709.117825	2506.514624
709.452180	2509.173833
709.786485	2509.171313
710.120742	2508.344563
710.454949	2506.640653
710.789107	2509.849348
711.123216	2507.888339
711.457275	2512.039729
711.791286	2513.247085
712.125247	2514.517456
712.459159	2512.367404
712.793023	2516.206243
713.126837	2514.434277
713.460602	2512.332116
713.794318	2513.158865
714.127985	2514.121726
714.461602	2509.720798
714.795171	2512.627023
715.128691	2510.265243
715.462162	2510.512259
715.795584	2507.943792
716.128957	2510.587877
716.462281	2506.807011
716.795556	2505.887001
717.128782	2503.996568
717.461960	2504.631753
717.795088	2504.891373
718.128167	2505.894562
718.461198	2502.804335
718.794180	2504.465395
719.127113	2501.889366
719.459997	2502.000271
719.792833	2502.075888
720.125619	2502.544716
720.458357	2500.571104
720.791046	2499.882987
721.123686	2500.555981
721.456278	2498.647904
721.788821	2500.150168
722.121315	2499.502379
722.453761	2501.092863
722.786158	2499.792246
723.118506	2499.832575
723.450805	2499.837616
723.783056	2500.402225
724.115259	2499.081443
724.447412	2500.490446
724.779518	2500.329129
725.111574	2499.255363
725.443582	2500.172853
725.775542	2502.607730
726.107453	2504.059583
726.439315	2504.609068
726.771129	2500.787874
727.102895	2499.867863
727.434612	2499.010867
727.766281	2499.552791
728.097901	2503.033708
728.429473	2506.217196
728.760996	2504.513286
729.092471	2507.555623
729.423897	2505.181239
729.755276	2505.771054
730.086606	2505.090498
730.417887	2506.872546
730.749120	2506.431445
731.080305	2510.353463
731.411442	2507.701816
731.742530	2507.492608
732.073570	2507.290962
732.404562	2509.115860
732.735506	2506.945643
733.066401	2509.128463
733.397249	2511.155007
733.728048	2505.866836
734.058798	2509.582167
734.389501	2506.343225
734.720156	2502.910199
735.050762	2502.035559
735.381320	2499.242760
735.711831	2498.312667
736.042293	2498.380723
736.372707	2500.397184
736.703073	2499.794766
737.033391	2501.407936
737.363661	2500.508090
737.693883	2501.241578
738.024056	2502.554798
738.354182	2499.943480
738.684260	2500.646721
739.014290	2500.041783
739.344272	2501.579335
739.674207	2500.500528
740.004093	2501.947339
740.333931	2502.320384
740.663722	2503.469768
740.993464	2505.156033
741.323159	2501.728049
741.652806	2502.083450
741.982405	2502.285096
742.311956	2501.128152
742.641460	2503.605879
742.970915	2500.689571
743.300323	2499.731752
743.629683	2495.880310
743.958996	2495.829899
744.288260	2490.992912
744.617477	2495.895434
744.946647	2500.069509
745.275768	2499.209993
745.604842	2497.710249
745.933869	2497.070023
746.262847	2494.798983
746.591778	2495.000629
746.920662	2497.639673
747.249498	2496.485249
747.578286	2499.585558
747.907027	2497.059940
748.235720	2497.334683
748.564365	2497.652276
748.892963	2497.140599
749.221514	2497.057420
749.550017	2498.738645
749.878473	2497.765702
750.206881	2499.431803
750.535242	2498.239570
750.863555	2498.045486
751.191821	2497.770743
751.520039	2496.991885
751.848210	2497.735455
752.176334	2495.960969
752.504411	2496.636483
752.832440	2496.979282
753.160421	2498.491628
753.488356	2495.638335
753.816243	2496.442399
754.144082	2498.310147
754.471875	2496.240753
754.799620	2496.759992
755.127318	2495.950887
755.454969	2495.298057
755.782572	2496.331494
756.110129	2496.263438
756.437638	2499.005826
756.765100	2495.489621
757.092515	2497.130517
757.419882	2495.466936
757.747203	2493.687408
758.074477	2495.953407
758.401703	2495.121617
758.728882	2496.059271
759.056014	2495.802172
759.383099	2497.422903
759.710138	2496.921309
760.037129	2492.774960
760.364073	2494.877121
760.690970	2493.334528
761.017820	2499.376351
761.344623	2499.938439
761.671379	2501.357524
761.998088	2500.719818
762.324751	2506.572598
762.651366	2507.248112
762.977935	2518.827643
763.304456	2525.234949
763.630931	2531.523789
763.957359	2525.209743
764.283740	2523.218488
764.610074	2519.946779
764.936362	2511.399503
765.262602	2509.171312
765.588796	2505.642505
765.914943	2501.266783
766.241044	2497.710249
766.567097	2497.037255
766.893104	2497.831237
767.219064	2494.002481
767.544978	2499.242760
767.870845	2491.718838
768.196665	2493.730258
768.522438	2494.378047
768.848165	2489.581389
769.173846	2490.221615
769.499479	2489.790597
769.825066	2491.769249
770.150607	2489.725062
770.476101	2488.898312
770.801548	2486.440750
771.126949	2487.617859
771.452303	2488.374032
771.777611	2485.311531
772.102872	2489.989722
772.428087	2486.415544
772.753256	2488.593323
773.078378	2490.340082
773.403453	2488.643734
773.728482	2485.929073
774.053465	2487.932931
774.378401	2486.284474
774.703291	2486.470997
775.028135	2484.842704
775.352932	2486.589464
775.677683	2487.118785
776.002388	2484.925883
776.327046	2478.231231
776.651658	2481.245841
776.976224	2481.089565
777.300743	2484.726758
777.625216	2485.833291
777.949643	2485.303970
778.274024	2485.470328
778.598359	2485.177941
778.922647	2482.375059
779.246889	2482.906901
779.571086	2483.537045
779.895236	2485.929073
780.219339	2483.567292
780.543397	2483.090903
780.867409	2485.553507
781.191374	2483.864720
781.515294	2483.761377
781.839167	2485.311531
782.162995	2484.603249
782.486776	2482.594349
782.810511	2484.303301
783.134201	2481.152579
783.457844	2484.502426
783.781441	2486.196254
784.104993	2481.855820
784.428498	2483.763897
784.751958	2484.341109
785.075372	2485.480410
785.398739	2485.094762
785.722061	2480.373721
786.045337	2481.477734
786.368568	2483.587457
786.691752	2482.821201
787.014891	2484.487303
787.337983	2485.440081
787.661030	2488.946203
787.984031	2489.818323
788.306987	2491.912922
788.629897	2488.918477
788.952760	2491.812099
789.275579	2487.403610
789.598351	2487.978302
789.921078	2488.132057
790.243759	2488.981491
790.566395	2484.832622
790.888984	2482.286839
791.211529	2485.775317
791.534027	2484.681387
791.856480	2484.567961
792.178888	2481.371870
792.501249	2479.854482
792.823566	2479.844400
793.145836	2479.521766
793.468062	2483.106027
793.790241	2482.019658
794.112375	2482.299442
794.434464	2484.268013
794.756507	2484.416727
795.078505	2486.264309
795.400457	2486.317242
795.722364	2486.486120
796.044226	2487.252376
796.366042	2487.005359
796.687812	2487.519557
797.009538	2487.975781
797.331218	2485.107365
797.652852	2485.167858
797.974442	2488.663899
798.295986	2484.693990
798.617484	2484.618373
798.938938	2483.854638
799.260346	2484.610811
799.581709	2482.533856
799.903026	2485.636686
800.224299	2486.705410
800.545526	2484.704072
800.866708	2480.961016
801.187845	2485.137612
801.508936	2481.500419
801.829983	2481.137456
802.150984	2483.748774
802.471940	2483.804226
802.792851	2481.752477
803.113717	2481.245841
803.434538	2479.625110
803.755314	2481.775162
804.076045	2482.937148
804.396731	2484.056284
804.717372	2479.917497
805.037967	2483.446304
805.358518	2481.240800
805.679024	2481.961685
805.999485	2480.555203
806.319901	2481.092086
806.640272	2484.464618
806.960598	2482.070069
807.280879	2486.037458
807.601115	2484.232724
807.921306	2482.725419
808.241453	2482.959833
808.561554	2478.158134
808.881611	2480.479585
809.201623	2479.801550
809.521590	2481.397075
809.841513	2481.170223
810.161390	2483.486634
810.481223	2483.847076
810.801011	2483.083341
811.120755	2481.656695
811.440453	2483.111068
811.760107	2483.325317
812.079716	2481.291211
812.399281	2482.049905
812.718801	2482.533856
813.038276	2482.972436
813.357707	2481.853300
813.677093	2479.433546
813.996434	2481.530666
814.315731	2482.158290
814.634983	2482.138125
814.954191	2481.260964
815.273354	2483.259782
815.592473	2481.578557
815.911547	2484.237766
816.230577	2484.182313
816.549562	2485.593836
816.868502	2483.373208
817.187399	2484.875472
817.506250	2484.240286
817.825058	2485.976964
818.143821	2485.707262
818.462539	2486.402941
818.781213	2486.891933
819.099843	2490.030051
819.418429	2491.935608
819.736970	2496.807883
820.055466	2497.682523
820.373919	2503.764675
820.692327	2508.977228
821.010691	2521.539783
821.329011	2545.442414
821.647286	2587.470514
821.965517	2638.749131
822.283704	2675.751200
822.601847	2698.514530
822.919945	2683.801923
823.237999	2663.468429
823.556010	2635.779891
823.873976	2615.469082
824.191897	2590.898499
824.509775	2569.806311
824.827609	2559.184600
825.145398	2543.544420
825.463144	2543.050387
825.780845	2539.947557
826.098502	2543.118442
826.416116	2553.165462
826.733685	2565.785991
827.051210	2571.724470
827.368692	2566.706001
827.686129	2558.002449
828.003522	2543.667928
828.320872	2531.473377
828.638177	2523.432737
828.955439	2514.187261
829.272656	2510.968484
829.589830	2505.027484
829.906960	2499.020949
830.224046	2497.158243
830.541088	2494.002481
830.858086	2492.527943
831.175041	2489.127685
831.491952	2487.411172
831.808819	2489.674650
832.125642	2489.379742
832.442421	2493.387460
832.759157	2498.612616
833.075849	2509.080572
833.392497	2517.700945
833.709101	2522.580782
834.025662	2525.161852
834.342179	2525.023221
834.658653	2514.300687
834.975083	2511.349091
835.291469	2507.706857
835.607811	2499.230157
835.924110	2495.325783
836.240366	2494.209168
836.556578	2489.064670
836.872746	2489.052068
837.188871	2485.084679
837.504952	2483.353043
837.820990	2482.617035
838.136984	2481.548310
838.452935	2483.486634
838.768842	2481.160141
839.084706	2481.608804
839.400526	2484.283136
839.716303	2491.560042
840.032037	2491.912922
840.347727	2491.318066
840.663373	2491.204640
840.978977	2485.979484
841.294537	2487.494351
841.610054	2487.101141
841.925527	2480.096458
842.240957	2480.141828
842.556344	2479.393217
842.871687	2478.823566
843.186987	2479.126036
843.502244	2477.220479
843.817458	2478.884060
844.132629	2477.671663
844.447756	2478.488330
844.762840	2474.624285
845.077881	2474.508339
845.392879	2475.647639
845.707833	2475.393061
846.022745	2474.606641
846.337613	2475.176292
846.652438	2474.541106
846.967221	2472.791826
847.281960	2472.537247
847.596656	2472.461630
847.911309	2472.484315
848.225919	2474.014306
848.540485	2472.872484
848.855009	2475.317444
849.169490	2474.331898
849.483928	2471.536578
849.798323	2472.360807
850.112675	2475.214100
850.426984	2472.262505
850.741251	2472.307875
851.055474	2472.239819
851.369654	2472.728811
851.683792	2471.707978
851.997887	2473.676548
852.311938	2473.434573
852.625947	2475.289717
852.939914	2471.841568
853.253837	2474.417598
853.567718	2473.190077
853.881555	2472.791826
854.195350	2473.666466
854.509103	2473.958853
854.822812	2471.773513
855.136479	2472.761579
855.450103	2472.179326
855.763685	2471.506332
856.077224	2466.021556
856.390720	2468.295117
856.704173	2469.068934
857.017584	2471.758389
857.330953	2471.844089
857.644278	2474.800726
857.957561	2476.154275
858.270802	2471.831486
858.584000	2474.314254
858.897155	2474.646970
859.210268	2473.280818
859.523339	2472.718729
859.836367	2470.982052
860.149352	2471.758389
860.462295	2473.908441
860.775195	2471.992803
861.088054	2474.430201
861.400869	2473.026239
861.713642	2471.823924
862.026373	2473.298462
862.339062	2473.371558
862.651708	2473.114460
862.964312	2471.798718
863.276873	2474.100005
863.589392	2471.846609
863.901869	2473.129583
864.214303	2473.537917
864.526696	2473.361476
864.839045	2475.821559
865.151353	2474.215952
865.463619	2477.976653
865.775842	2475.478761
866.088023	2473.469861
866.400162	2475.778709
866.712258	2474.425160
867.024313	2477.953967
867.336325	2474.687300
867.648296	2474.785602
867.960224	2473.638740
868.272110	2473.195118
868.583954	2475.309882
868.895755	2474.503298
869.207515	2473.056486
869.519233	2474.334419
869.830909	2473.762248
870.142542	2476.681076
870.454134	2474.478092
870.765684	2474.515900
871.077191	2475.274594
871.388657	2474.563791
871.700081	2471.435755
872.011463	2475.738380
872.322803	2472.567494
872.634101	2474.939357
872.945357	2481.790285
873.256571	2476.507156
873.567744	2476.991107
873.878874	2473.953812
874.189963	2476.721405
874.501010	2473.237968
874.812015	2476.229893
875.122979	2478.125367
875.433900	2477.096971
875.744780	2478.213587
876.055618	2475.980356
876.366415	2480.885398
876.677169	2477.742239
876.987882	2475.695530
877.298554	2480.305666
877.609183	2477.870788
877.919771	2480.696355
878.230317	2481.129894
878.540822	2480.051087
878.851285	2484.774648
879.161707	2484.416727
879.472087	2489.195740
879.782425	2494.355361
880.092722	2507.285921
880.402977	2515.863444
880.713191	2539.725746
881.023363	2564.371947
881.333494	2578.527507
881.643583	2584.269381
881.953631	2586.472366
882.263637	2580.574216
882.573602	2572.750345
882.883526	2565.143244
883.193408	2557.263920
883.503248	2547.121119
883.813048	2542.644574
884.122806	2535.135775
884.432522	2526.780063
884.742197	2517.491737
885.051831	2509.171312
885.361424	2508.228617
885.670975	2503.129490
885.980485	2497.846360
886.289954	2493.596668
886.599382	2489.798158
886.908768	2488.210195
887.218113	2484.860348
887.527417	2483.035450
887.836680	2480.136787
888.145901	2483.138794
888.455082	2481.371870
888.764221	2479.214256
889.073319	2480.716520
889.382376	2479.678042
889.691392	2478.604276
890.000366	2479.597383
890.309300	2478.306848
890.618193	2476.345839
890.927044	2478.873978
891.235855	2478.377424
891.544625	2480.703917
891.853353	2480.104019
892.162041	2477.696868
892.470687	2481.276088
892.779293	2483.960502
893.087858	2484.983856
893.396381	2485.639206
893.704864	2491.648262
894.013306	2494.993067
894.321707	2503.474809
894.630068	2506.620489
894.938387	2508.722650
895.246665	2508.281549
895.554903	2508.619306
895.863100	2502.884994
896.171256	2500.649242
896.479371	2499.736793
896.787446	2496.868377
897.095480	2490.864362
897.403473	2488.182468
897.711425	2488.190030
898.019336	2486.231542
898.327207	2484.116778
898.635038	2483.620224
898.942827	2482.637199
899.250576	2480.799699
899.558284	2479.935141
899.865952	2479.509163
900.173579	2479.045377
900.481165	2482.198619
900.788711	2475.461117
901.096216	2478.296766
901.403681	2480.766931
901.711105	2478.571509
902.018489	2478.158134
902.325832	2476.595376
902.633135	2473.215283
902.940397	2478.397589
903.247619	2479.022692
903.554800	2489.611636
903.861941	2502.403563
904.169041	2509.940088
904.476101	2516.002076
904.783121	2514.209946
905.090100	2514.217508
905.397039	2508.183246
905.703938	2504.621671
906.010796	2499.767040
906.317614	2495.608088
906.624391	2490.634990
906.931129	2492.805207
907.237826	2490.708087
907.544483	2483.902529
907.851099	2484.545276
908.157675	2480.172075
908.464211	2478.422795
908.770707	2476.867599
909.077163	2475.763586
909.383578	2475.249388
909.689954	2475.385499
909.996289	2474.765438
910.302584	2473.076651
910.608839	2472.212093
910.915054	2473.265694
911.221229	2473.094295
911.527363	2469.736887
911.833458	2470.808132
912.139513	2474.137814
912.445527	2473.275777
912.751502	2471.075313
913.057436	2471.574387
913.363331	2473.207721
913.669186	2477.288535
913.975000	2476.134111
914.280775	2478.516056
914.586510	2482.367498
914.892205	2489.377222
915.197859	2492.230515
915.503475	2501.234016
915.809050	2507.805160
916.114585	2509.080572
916.420081	2512.546365
916.725536	2514.487209
917.030952	2513.579802
917.336328	2512.972343
917.641665	2505.153513
917.946961	2504.236023
918.252218	2499.469612
918.557435	2495.051041
918.862612	2500.160250
919.167750	2495.376195
919.472848	2492.089363
919.777906	2491.028200
920.082925	2487.675833
920.387904	2484.368836
920.692843	2481.757518
920.997743	2482.818681
921.302603	2479.826756
921.607423	2479.088227
921.912204	2478.248875
922.216946	2476.131590
922.521647	2475.577063
922.826310	2475.042701
923.130932	2473.981538
923.435516	2475.622434
923.740059	2474.901549
924.044564	2476.171919
924.349028	2474.372227
924.653454	2471.730663
924.957840	2472.118832
925.262186	2470.886270
925.566493	2472.058338
925.870761	2470.805611
926.174989	2468.842082
926.479178	2471.841568
926.783328	2470.908955
927.087438	2472.431383
927.391509	2468.642956
927.695541	2468.141361
927.999533	2469.772175
928.303486	2467.556588
928.607400	2466.165229
928.911275	2468.506845
929.215110	2466.402163
929.518906	2469.157154
929.822663	2468.055662
930.126381	2472.670838
930.430060	2469.152113
930.733699	2469.341156
931.037299	2467.977524
931.340861	2470.326702
931.644383	2467.846454
931.947866	2469.487349
932.251309	2470.311578
932.554714	2467.354941
932.858080	2467.929633
933.161407	2462.815382
933.464694	2466.931484
933.767943	2462.790177
934.071153	2468.902576
934.374323	2470.099850
934.677455	2467.768316
934.980548	2468.282514
935.283602	2468.501804
935.586617	2469.237812
935.889593	2468.189252
936.192530	2468.680765
936.495428	2470.374593
936.798287	2466.528192
937.101108	2469.353759
937.403890	2467.327215
937.706632	2471.793677
938.009336	2469.706640
938.312002	2470.167905
938.614628	2469.562967
938.917216	2473.028760
939.219765	2470.339304
939.522275	2472.398616
939.824747	2471.783595
940.127179	2473.250571
940.429573	2469.497432
940.731929	2471.881898
941.034246	2470.460292
941.336524	2470.460292
941.638763	2471.743266
941.940964	2471.556743
942.243126	2470.727473
942.545250	2469.462144
942.847335	2472.340642
943.149381	2470.011629
943.451389	2470.465333
943.753359	2468.559777
944.055290	2471.302165
944.357182	2470.399798
944.659036	2468.708491
944.960851	2469.744448
945.262628	2468.398460
945.564367	2470.714870
945.866067	2471.173615
946.167729	2470.919037
946.469352	2468.869808
946.770937	2466.654221
947.072484	2467.304530
947.373992	2471.821404
947.675462	2467.657411
947.976893	2467.110445
948.278286	2465.187245
948.579641	2464.345373
948.880958	2462.906123
949.182236	2467.601958
949.483476	2467.813686
949.784678	2468.789150
950.085841	2468.884932
950.386967	2468.552215
950.688054	2469.701598
950.989103	2469.328553
951.290114	2468.902576
951.591087	2468.920220
951.892021	2469.056331
952.192917	2468.083388
952.493776	2470.798049
952.794596	2468.884932
953.095378	2470.946763
953.396122	2470.455251
953.696828	2469.575570
953.997496	2468.474078
954.298126	2467.357462
954.598718	2467.753192
954.899272	2469.857874
955.199788	2469.005919
955.500266	2467.901907
955.800706	2468.511886
956.101108	2469.429376
956.401472	2469.580611
956.701798	2465.625826
957.002087	2468.403501
957.302337	2467.604478
957.602550	2468.441310
957.902724	2466.195476
958.202861	2467.997688
958.502960	2466.268573
958.803022	2466.210599
959.103045	2464.990640
959.403031	2465.809828
959.702979	2463.511062
960.002889	2464.695733
960.302762	2466.429890
960.602596	2464.809159
960.902393	2464.612554
961.202153	2466.190435
961.501875	2462.465022
961.801559	2466.969293
962.101205	2463.735393
962.400814	2465.305712
962.700385	2464.680609
962.999918	2463.022070
963.299414	2462.122224
963.598873	2461.789507
963.898293	2458.379167
964.197677	2466.850826
964.497022	2464.922585
964.796331	2462.976699
965.095601	2466.097173
965.394835	2465.441823
965.694030	2464.562142
965.993189	2465.845116
966.292309	2465.550208
966.591393	2464.940229
966.890439	2465.240177
967.189447	2465.494756
967.488419	2463.322018
967.787353	2464.940229
968.086249	2464.473922
968.385108	2465.036011
968.683930	2463.259004
968.982714	2466.825620
969.281462	2463.132975
969.580172	2466.548357
969.878844	2465.716566
970.177480	2465.046093
970.476078	2465.381330
970.774639	2463.279168
971.073162	2465.479632
971.371649	2464.589868
971.670098	2466.331587
971.968510	2468.234623
972.266885	2466.301340
972.565223	2466.838223
972.863524	2466.462657
973.161788	2466.223202
973.460014	2465.724128
973.758204	2463.168263
974.056356	2465.391412
974.354471	2463.700105
974.652550	2463.135496
974.950591	2463.379992
975.248595	2465.887966
975.546563	2466.523151
975.844493	2463.029631
976.142386	2464.481484
976.440243	2465.073819
976.738062	2464.995681
977.035845	2466.467698
977.333590	2466.371916
977.631299	2463.430403
977.928971	2465.033490
978.226606	2460.932511
978.524204	2461.532409
978.821765	2460.453602
979.119290	2465.766978
979.416777	2464.552060
979.714228	2464.829323
980.011642	2465.819910
980.309020	2466.422328
980.606360	2463.299333
980.903664	2465.968624
981.200931	2466.845785
981.498162	2466.964252
981.795356	2467.206227
982.092513	2465.860239
982.389633	2468.045579
982.686717	2468.738738
982.983764	2469.925930
983.280775	2469.096660
983.577749	2470.014150
983.874686	2471.251753
984.171587	2470.167905
984.468451	2469.588172
984.765279	2468.910137
985.062070	2468.206896
985.358824	2467.889304
985.655543	2466.364355
985.952224	2466.646659
986.248869	2467.443162
986.545478	2467.949798
986.842050	2465.275465
987.138586	2462.298664
987.435086	2465.429221
987.731549	2464.539457
988.027975	2464.065588
988.324366	2465.449385
988.620719	2465.903089
988.917037	2462.636421
989.213318	2463.410238
989.509563	2460.856894
989.805772	2464.153809
990.101944	2465.517441
990.398080	2463.243880
990.694180	2462.182717
990.990244	2462.550722
991.286271	2461.023252
991.582262	2465.709005
991.878217	2463.763119
992.174136	2464.181535
992.470019	2462.621298
992.765865	2463.221195
993.061676	2461.113993
993.357450	2463.017028
993.653188	2457.050823
993.948890	2465.028449
994.244556	2463.410238
994.540186	2464.536936
994.835780	2463.995012
995.131337	2462.948973
995.426859	2466.230764
995.722345	2464.058027
996.017795	2465.754375
996.313208	2467.609520
996.608586	2465.209930
996.903928	2467.738069
997.199234	2466.913840
997.494504	2465.459468
997.789738	2465.928295
998.084936	2468.055662
998.380099	2462.827985
998.675225	2467.586834
998.970316	2462.586010
999.265371	2465.081381
999.560390	2466.634056
999.855373	2466.508028
1000.150320	2464.428552
1000.445232	2463.175825
1000.740108	2464.181535
1001.034948	2462.452419
1001.329752	2459.538632
1001.624521	2461.401339
1001.919254	2462.911164
1002.213951	2462.767491
1002.508613	2463.876545
1002.803239	2463.775722
1003.097829	2462.172635
1003.392384	2462.767491
1003.686903	2461.605505
1003.981386	2463.407718
1004.275834	2464.998202
1004.570246	2461.779425
1004.864623	2460.486369
1005.158964	2462.265897
1005.453270	2462.265897
1005.747540	2461.882769
1006.041775	2462.669189
1006.335974	2461.413942
1006.630138	2464.698253
1006.924266	2459.861266
1007.218359	2461.582820
1007.512416	2460.536781
1007.806438	2457.197016
1008.100425	2462.197841
1008.394376	2456.589557
1008.688292	2462.601133
1008.982172	2461.887810
1009.276017	2462.051647
1009.569827	2461.792028
1009.863602	2460.113324
1010.157341	2459.515947
1010.451045	2461.645835
1010.744714	2462.313787
1011.038347	2463.503500
1011.331945	2462.122224
1011.625508	2463.425362
1011.919036	2461.653396
1012.212528	2464.912502
1012.505986	2461.635752
1012.799408	2461.983592
1013.092795	2463.760599
1013.386147	2462.381843
1013.679464	2463.377471
1013.972745	2459.838581
1014.265992	2461.229939
1014.559204	2462.301185
1014.852380	2464.494087
1015.145521	2461.741617
1015.438628	2461.915536
1015.731699	2462.868314
1016.024736	2460.398149
1016.317737	2463.294292
1016.610703	2461.398818
1016.903635	2461.545012
1017.196531	2463.195989
1017.489393	2463.213633
1017.782219	2462.938891
1018.075011	2461.542491
1018.367768	2462.956535
1018.660490	2461.345886
1018.953177	2461.345886
1019.245829	2461.345886
