Dividing Wavelength (nm)	Counts (n)	Blue Motor Position (mm): 0.000000	Red Motor Position (mm): 10.500000	
326.493990	2055.679195
326.888308	2055.679195
327.282561	2055.679195
327.676750	2028.398991
328.070874	2032.336132
328.464933	2036.850485
328.858929	2045.964891
329.252859	2053.599719
329.646726	2067.016750
330.040528	2083.771025
330.434265	2100.600917
330.827938	2125.378188
331.221547	2144.605149
331.615091	2163.769095
332.008571	2185.168793
332.401986	2204.882225
332.795338	2225.498024
333.188625	2244.019223
333.581847	2261.454054
333.975006	2281.185130
334.368100	2297.571400
334.761129	2313.753504
335.154095	2329.618015
335.546996	2344.968329
335.939833	2360.522809
336.332606	2374.073431
336.725315	2385.337889
337.117960	2394.321225
337.510540	2404.592576
337.903056	2415.005079
338.295508	2420.908270
338.687896	2428.563263
339.080220	2432.263469
339.472480	2437.307144
339.864676	2438.640529
340.256807	2443.626230
340.648875	2445.940120
341.040879	2445.458690
341.432818	2446.698813
341.824694	2451.225770
342.216506	2447.994390
342.608253	2449.766356
342.999937	2447.147476
343.391557	2449.413475
343.783113	2446.560182
344.174605	2443.432146
344.566033	2444.528597
344.957397	2443.575819
345.348697	2439.721857
345.739934	2438.232196
346.131106	2437.453337
346.522215	2436.188008
346.913260	2432.371854
347.304241	2430.476380
347.695159	2430.398243
348.086012	2427.073602
348.476802	2427.179466
348.867528	2423.287695
349.258191	2420.129412
349.648789	2420.840215
350.039324	2414.684966
350.429796	2422.523960
350.820203	2420.504978
351.210548	2419.242169
351.600828	2415.604977
351.991045	2420.149577
352.381198	2416.340985
352.771288	2420.227715
353.161314	2418.105389
353.551276	2418.186047
353.941175	2417.097158
354.331010	2417.389545
354.720782	2417.356778
355.110490	2420.353743
355.500135	2417.019020
355.889717	2419.426171
356.279235	2419.474062
356.668689	2420.162180
357.058080	2418.019689
357.447408	2419.151428
357.836672	2418.178486
358.225873	2419.549679
358.615010	2421.727458
359.004084	2423.559917
359.393095	2421.571182
359.782043	2423.111255
360.170927	2424.439599
360.559748	2423.728796
360.948505	2423.794331
361.337199	2427.648293
361.725830	2428.099476
362.114398	2424.865576
362.502903	2429.231215
362.891344	2425.621749
363.279722	2428.064188
363.668037	2428.192738
364.056289	2427.701225
364.444478	2431.280444
364.832603	2430.247008
365.220665	2431.078798
365.608665	2433.415373
365.996601	2430.526792
366.384474	2428.704415
366.772284	2431.209868
367.160031	2434.221958
367.547715	2430.877152
367.935336	2431.484611
368.322893	2432.641556
368.710388	2429.516041
369.097820	2432.346648
369.485189	2428.850608
369.872495	2436.407298
370.259738	2433.304468
370.646918	2437.899479
371.034035	2434.766402
371.421090	2436.613985
371.808081	2439.694130
372.195010	2440.049532
372.581875	2441.196394
372.968678	2442.650767
373.355418	2440.848554
373.742096	2445.307455
374.128710	2446.938268
374.515262	2448.934565
374.901751	2450.933383
375.288177	2454.162242
375.674540	2458.787500
376.060841	2460.239353
376.447079	2465.348562
376.833254	2468.645477
377.219367	2477.918679
377.605417	2481.220635
377.991404	2484.688949
378.377329	2493.606750
378.763191	2499.076402
379.148991	2507.076713
379.534727	2518.835204
379.920402	2527.258973
380.306013	2534.087215
380.691563	2547.713454
381.077049	2557.987326
381.462474	2570.310426
381.847835	2582.116809
382.233134	2595.858994
382.618371	2607.448607
383.003545	2623.698766
383.388657	2637.652680
383.773706	2657.570279
384.158693	2671.894717
384.543618	2686.476255
384.928480	2704.100129
385.313280	2726.354302
385.698017	2744.777199
386.082692	2765.634973
386.467305	2779.301541
386.851856	2800.829789
387.236344	2831.525375
387.620770	2844.839062
388.005133	2863.720704
388.389435	2895.767319
388.773674	2904.859040
389.157851	2940.658794
389.541965	2962.597895
389.926018	2969.700881
390.310008	3001.248422
390.693936	3022.819519
391.077802	3043.914227
391.461606	3068.063875
391.845348	3079.159454
392.229027	3102.126951
392.612645	3132.106693
392.996200	3153.362718
393.379694	3180.771472
393.763125	3211.446893
394.146494	3222.754201
394.529801	3246.364445
394.913047	3272.621295
395.296230	3264.923453
395.679351	3277.715381
396.062410	3303.586582
396.445408	3276.389558
396.828343	3293.902526
397.211217	3307.843837
397.594028	3271.018208
397.976778	3293.466466
398.359466	3300.405614
398.742092	3291.944038
399.124656	3284.972122
399.507158	3309.525062
399.889598	3297.131385
400.271977	3321.475117
400.654294	3292.148204
401.036549	3311.695278
401.418742	3288.064870
401.800874	3304.741007
402.182944	3298.414359
402.564952	3328.532732
402.946898	3298.691622
403.328783	3269.132817
403.710606	3271.855040
404.092367	3282.764097
404.474067	3289.622586
404.855705	3252.554982
405.237282	3211.023436
405.618797	3225.645303
406.000250	3231.382136
406.381642	3236.398084
406.762972	3206.478836
407.144240	3161.221877
407.525447	3160.581651
407.906593	3130.359933
408.287677	3133.974441
408.668700	3111.954681
409.049661	3095.283585
409.430560	3076.303641
409.811399	3042.560678
410.192176	3028.871424
410.572891	3021.397914
410.953545	3016.326513
411.334138	2965.161322
411.714669	2957.430713
412.095139	2914.038981
412.475547	2906.081519
412.855894	2884.333982
413.236180	2875.269987
413.616405	2840.664987
413.996568	2832.654593
414.376670	2807.786581
414.756711	2786.112140
415.136691	2773.138731
415.516609	2761.844026
415.896466	2747.123856
416.276262	2733.048955
416.655997	2725.540156
417.035670	2716.471120
417.415283	2712.871737
417.794834	2696.896320
418.174324	2678.342353
418.553753	2660.317708
418.933121	2656.569610
419.312428	2639.573360
419.691674	2621.571399
420.070859	2620.457304
420.449983	2601.827720
420.829045	2597.300764
421.208047	2583.828280
421.586988	2576.722774
421.965867	2570.275138
422.344686	2562.274827
422.723444	2559.456822
423.102141	2538.939326
423.480777	2543.625078
423.859352	2530.555887
424.237866	2531.445651
424.616319	2524.516585
424.994712	2525.676050
425.373044	2513.637775
425.751314	2514.237672
426.129524	2501.410456
426.507673	2506.575118
426.885762	2498.582369
427.263789	2501.624705
427.641756	2499.739314
428.019662	2496.838130
428.397508	2494.047851
428.775292	2491.376039
429.153016	2493.211019
429.530679	2490.546770
429.908282	2488.071563
430.285824	2488.147180
430.663305	2490.362768
431.040726	2485.677015
431.418086	2488.253045
431.795385	2484.726758
432.172624	2486.115595
432.549802	2485.034268
432.926920	2481.384472
433.303977	2484.376397
433.680974	2482.680049
434.057910	2483.191726
434.434786	2483.652992
434.811601	2481.628968
435.188355	2482.554020
435.565050	2480.416571
435.941683	2480.272898
436.318257	2483.524442
436.694770	2480.630820
437.071222	2482.596870
437.447614	2482.846407
437.823946	2482.916983
438.200218	2481.082003
438.576429	2479.247023
438.952580	2481.671818
439.328670	2478.039667
439.704700	2480.746767
440.080670	2479.667960
440.456580	2482.511170
440.832429	2483.511839
441.208218	2480.101499
441.583947	2482.243989
441.959616	2480.988742
442.335224	2479.055459
442.710773	2481.026551
443.086261	2479.277270
443.461689	2478.379945
443.837057	2476.527321
444.212365	2479.622589
444.587612	2479.015130
444.962800	2477.422126
445.337927	2478.614358
445.712995	2473.868112
446.088002	2480.759369
446.462949	2482.584267
446.837837	2482.511170
447.212664	2479.642754
447.587431	2485.432519
447.962139	2487.393528
448.336786	2488.689104
448.711374	2489.513333
449.085901	2487.207005
449.460369	2481.780203
449.834776	2484.573002
450.209124	2487.398569
450.583412	2488.225318
450.957640	2487.892602
451.331808	2487.101141
451.705917	2483.116109
452.079965	2486.617190
452.453954	2485.417396
452.827883	2486.755822
453.201752	2482.811119
453.575562	2486.987715
453.949311	2487.431337
454.323001	2488.343785
454.696632	2487.917808
455.070202	2486.440750
455.443713	2488.295894
455.817164	2488.510143
456.190556	2489.631800
456.563888	2489.677171
456.937160	2489.329331
457.310373	2488.000987
457.683526	2488.931080
458.056619	2490.345123
458.429653	2487.607777
458.802628	2491.668426
459.175542	2487.791779
459.548398	2492.296050
459.921194	2493.014414
460.293930	2493.117758
460.666607	2494.630104
461.039224	2495.350989
461.411782	2497.725373
461.784280	2497.117914
462.156719	2496.248315
462.529099	2496.654127
462.901419	2494.511637
463.273680	2492.313694
463.645882	2490.579537
464.018024	2492.515340
464.390106	2491.333190
464.762130	2499.187307
465.134094	2501.433141
465.505999	2505.541682
465.877845	2511.780110
466.249631	2512.654750
466.621358	2511.628875
466.993026	2508.387413
467.364634	2510.295490
467.736184	2508.896570
468.107674	2504.999758
468.479105	2505.324912
468.850477	2504.672083
469.221790	2504.145282
469.593043	2502.721156
469.964238	2500.641680
470.335373	2498.597492
470.706449	2504.140241
471.077467	2505.740807
471.448425	2508.213493
471.819324	2510.681138
472.190164	2511.830521
472.560945	2507.154851
472.931667	2503.661331
473.302330	2504.611589
473.672934	2502.799294
474.043479	2503.396671
474.413965	2501.380209
474.784393	2501.811228
475.154761	2505.710560
475.525070	2501.309633
475.895321	2502.544716
476.265513	2501.838954
476.635645	2505.599655
477.005719	2502.781650
477.375734	2504.034377
477.745691	2503.918430
478.115588	2507.169974
478.485427	2505.748369
478.855207	2511.822959
479.224928	2516.178516
479.594591	2517.101047
479.964194	2516.596932
480.333739	2517.380832
480.703226	2515.026613
481.072653	2519.707324
481.442022	2518.691532
481.811333	2516.307066
482.180584	2514.731705
482.549777	2517.229597
482.918912	2511.739780
483.287988	2517.804288
483.657005	2514.910666
484.025964	2517.191788
484.394864	2513.756242
484.763706	2514.431757
485.132489	2515.172806
485.501213	2517.035513
485.869879	2511.107116
486.238487	2514.449401
486.607036	2515.545852
486.975527	2515.409740
487.343959	2513.534431
487.712333	2517.194309
488.080648	2515.253465
488.448905	2515.387055
488.817104	2516.304545
489.185244	2516.120543
489.553326	2520.213960
489.921350	2521.741430
490.289315	2526.873324
490.657222	2525.204702
491.025070	2527.034641
491.392861	2525.403828
491.760593	2527.135464
492.128267	2525.852491
492.495883	2521.564989
492.863440	2521.363343
493.230939	2517.615245
493.598380	2521.910308
493.965763	2516.687673
494.333088	2514.343536
494.700354	2515.427384
495.067563	2516.344874
495.434713	2517.453928
495.801805	2516.745646
496.168839	2516.508712
496.535815	2514.968639
496.902733	2516.576768
497.269593	2519.034330
497.636395	2516.712879
498.003139	2519.278826
498.369825	2514.381345
498.736453	2517.370749
499.103023	2514.749349
499.469535	2515.528207
499.835989	2517.274967
500.202385	2515.276150
500.568723	2511.333968
500.935003	2515.984432
501.301226	2511.472599
501.667390	2516.324710
502.033497	2515.568537
502.399546	2518.257992
502.765537	2515.787827
503.131470	2518.152128
503.497345	2517.118692
503.863163	2513.194153
504.228923	2515.089627
504.594625	2515.389576
504.960269	2514.111643
505.325856	2515.944103
505.691385	2514.688855
506.056856	2515.868485
506.422270	2516.075173
506.787625	2514.691376
507.152924	2515.054339
507.518164	2516.279339
507.883347	2514.648526
508.248472	2514.943434
508.613540	2515.959226
508.978550	2514.280522
509.343503	2514.968639
509.708398	2514.169617
510.073236	2517.050636
510.438016	2517.431243
510.802738	2512.059894
511.167403	2516.299504
511.532010	2515.031654
511.896561	2516.929648
512.261053	2518.351254
512.625488	2516.493588
512.989866	2518.212622
513.354186	2513.874709
513.718449	2514.411592
514.082655	2515.442508
514.446803	2516.065090
514.810894	2517.222035
515.174927	2517.695904
515.538904	2515.195491
515.902822	2515.427384
516.266684	2516.357477
516.630488	2518.124402
516.994235	2514.220028
517.357925	2515.409740
517.721558	2516.554082
518.085133	2515.568537
518.448651	2515.442508
518.812112	2511.364214
519.175516	2513.761283
519.538863	2510.136693
519.902152	2517.758918
520.265385	2517.516943
520.628560	2512.697600
520.991678	2516.884278
521.354739	2516.281860
521.717743	2516.922087
522.080690	2516.218846
522.443580	2516.491068
522.806413	2518.265554
523.169189	2515.984432
523.531908	2517.181706
523.894569	2518.903260
524.257174	2517.680780
524.619722	2516.236490
524.982213	2517.428722
525.344647	2517.940400
525.707025	2515.971829
526.069345	2517.675739
526.431608	2513.199194
526.793815	2519.853517
527.155964	2516.052487
527.518057	2514.519977
527.880093	2516.465862
528.242072	2515.107271
528.603995	2515.460152
528.965860	2513.809174
529.327669	2512.838752
529.689421	2515.329082
530.051117	2517.219515
530.412755	2517.282529
530.774337	2514.766993
531.135862	2516.057529
531.497331	2516.080214
531.858743	2515.931500
532.220098	2515.997035
532.581396	2514.192302
532.942638	2514.978722
533.303824	2513.476458
533.664953	2515.129956
534.026025	2512.606859
534.387040	2515.245903
534.747999	2516.458300
535.108902	2513.141221
535.469748	2511.719616
535.830537	2513.695748
536.191270	2515.553413
536.551947	2512.826149
536.912567	2511.195336
537.273131	2515.172806
537.633638	2507.747187
537.994089	2513.925121
538.354483	2513.274812
538.714821	2513.990656
539.075103	2514.479648
539.435328	2513.743639
539.795497	2511.155007
540.155609	2511.674245
540.515665	2514.474606
540.875665	2513.494102
541.235609	2512.163237
541.595496	2514.945954
541.955328	2513.708351
542.315102	2512.813546
542.674821	2517.544669
543.034483	2512.848834
543.394090	2513.930162
543.753640	2513.836900
544.113134	2515.291273
544.472571	2514.459483
544.831953	2514.986283
545.191278	2514.504853
545.550548	2512.523680
545.909761	2515.165244
546.268918	2514.172137
546.628019	2516.329751
546.987064	2513.247085
547.346053	2511.785151
547.704986	2513.279853
548.063863	2514.580471
548.422684	2513.282373
548.781449	2514.129287
549.140158	2509.113339
549.498811	2515.049298
549.857408	2513.078207
550.215949	2514.325892
550.574434	2512.896725
550.932864	2511.606190
551.291237	2515.306397
551.649555	2512.362363
552.007817	2513.567199
552.366022	2512.006962
552.724173	2514.900584
553.082267	2515.697086
553.440305	2515.102230
553.798288	2512.110305
554.156215	2514.129287
554.514086	2511.901097
554.871902	2506.439007
555.229661	2513.879750
555.587365	2508.493277
555.945014	2512.982425
556.302606	2510.630727
556.660143	2514.046108
557.017625	2514.177178
557.375050	2511.691889
557.732421	2514.177178
558.089735	2514.809843
558.446994	2512.596777
558.804197	2514.840090
559.161345	2514.590553
559.518437	2514.406551
559.875474	2512.168278
560.232455	2515.382014
560.589381	2513.415964
560.946251	2512.528721
561.303065	2515.439987
561.659825	2511.475120
562.016528	2512.304390
562.373177	2510.610562
562.729770	2512.949657
563.086307	2513.320182
563.442789	2514.235152
563.799216	2512.551406
564.155587	2511.938906
564.511904	2513.405882
564.868164	2513.373114
565.224370	2511.868330
565.580520	2511.180212
565.936615	2515.008969
566.292654	2514.918228
566.648638	2511.762466
567.004567	2511.409585
567.360441	2513.307579
567.716260	2511.492764
568.072023	2513.725995
568.427732	2513.037877
568.783385	2512.382527
569.138982	2513.163906
569.494525	2515.520646
569.850013	2513.577281
570.205445	2514.436798
570.560823	2512.347239
570.916145	2510.971004
571.271412	2512.153155
571.626625	2513.262209
571.981782	2513.967970
572.336884	2512.437980
572.691931	2509.335150
573.046923	2511.089472
573.401860	2506.499501
573.756743	2511.626354
574.111570	2511.306241
574.466342	2513.113495
574.821059	2513.075686
575.175722	2510.784482
575.530330	2513.234483
575.884882	2510.139214
576.239380	2512.553927
576.593823	2512.337157
576.948211	2512.075017
577.302544	2510.613083
577.656823	2513.216838
578.011047	2507.699296
578.365216	2511.586025
578.719330	2512.753052
579.073389	2509.370438
579.427394	2511.722136
579.781344	2511.782630
580.135239	2513.249606
580.489080	2511.583505
580.842866	2509.168792
581.196597	2511.069307
581.550273	2510.688700
581.903895	2510.015706
582.257463	2510.408916
582.610975	2511.948988
582.964434	2508.611744
583.317837	2508.473113
583.671186	2511.157527
584.024481	2512.833711
584.377721	2511.210459
584.730906	2508.241220
585.084037	2509.647702
585.437113	2512.125429
585.790135	2509.390603
586.143103	2508.538648
586.496016	2512.253978
586.848874	2511.258350
587.201679	2510.519821
587.554428	2507.200221
587.907124	2511.001251
588.259765	2508.616786
588.612352	2511.081910
588.964884	2510.482013
589.317362	2510.965963
589.669786	2512.259019
590.022155	2509.955212
590.374470	2506.350787
590.726731	2509.594769
591.078937	2507.449758
591.431090	2511.528052
591.783188	2508.566374
592.135232	2508.100067
592.487222	2507.311127
592.839157	2512.117867
593.191038	2507.099398
593.542866	2509.234327
593.894639	2509.249450
594.246358	2510.401354
594.598022	2506.373472
594.949633	2508.896570
595.301190	2507.018740
595.652692	2508.357166
596.004141	2507.326250
596.355535	2505.589573
596.706876	2510.242558
597.058162	2507.837927
597.409395	2507.603514
597.760573	2508.964625
598.111698	2504.931702
598.462768	2510.779441
598.813785	2507.021260
599.164748	2507.424553
599.515657	2505.634943
599.866511	2506.653256
600.217312	2506.842299
600.568060	2507.729542
600.918753	2508.641991
601.269392	2505.823986
601.619978	2509.168792
601.970510	2504.566218
602.320988	2506.474295
602.671412	2508.377331
603.021783	2506.345746
603.372100	2508.924296
603.722363	2509.287259
604.072572	2505.738287
604.422728	2506.401198
604.772830	2509.352794
605.122878	2509.262053
605.472872	2506.136538
605.822813	2506.423884
606.172701	2502.827020
606.522534	2505.919768
606.872314	2508.626868
607.222041	2506.323061
607.571714	2502.534633
607.921333	2500.656804
608.270899	2504.230982
608.620411	2501.165960
608.969870	2507.419512
609.319276	2507.013699
609.668627	2509.574605
610.017926	2508.301713
610.367171	2507.505211
610.716362	2505.594614
611.065500	2506.663338
611.414585	2507.895901
611.763616	2507.381703
612.112594	2507.527896
612.461518	2509.188957
612.810389	2507.056548
613.159207	2508.420181
613.507971	2505.271980
613.856682	2510.275325
614.205340	2508.039573
614.553945	2508.125273
614.902496	2505.829027
615.250994	2508.909172
615.599439	2505.413132
615.947830	2509.022598
616.296169	2506.116373
616.644454	2508.727691
616.992686	2506.935561
617.340864	2510.187105
617.688990	2509.829183
618.037063	2505.879439
618.385082	2508.858761
618.733048	2512.833711
619.080961	2508.702485
619.428821	2507.623678
619.776628	2510.618124
620.124382	2508.515963
620.472083	2506.933040
620.819731	2507.485047
621.167326	2508.765500
621.514868	2509.766169
621.862357	2508.394975
622.209793	2507.328771
622.557176	2505.493791
622.904506	2507.033863
623.251783	2506.749038
623.599007	2507.154851
623.946179	2507.212824
624.293297	2506.444048
624.640363	2504.989675
624.987376	2503.242916
625.334336	2502.355673
625.681243	2502.436331
626.028097	2502.275014
626.374899	2506.950684
626.721647	2505.922289
627.068343	2503.784840
627.414987	2504.714933
627.761577	2504.777947
628.108115	2503.003461
628.454600	2502.648059
628.801032	2502.890035
629.147412	2505.690396
629.493739	2504.659480
629.840014	2501.975065
630.186236	2505.214007
630.532405	2504.173008
630.878521	2505.161075
631.224585	2507.790036
631.570597	2504.392299
631.916556	2502.723677
632.262462	2505.944974
632.608316	2501.508759
632.954117	2501.697802
633.299866	2501.755775
633.645562	2503.391630
633.991206	2501.927174
634.336797	2503.494973
634.682336	2502.350631
635.027823	2501.150837
635.373257	2498.108500
635.718639	2499.837616
636.063968	2501.743172
636.409245	2503.283245
636.754470	2501.284427
637.099642	2502.922802
637.444762	2501.246619
637.789829	2500.787874
638.134845	2499.663696
638.479808	2498.607575
638.824719	2501.677637
639.169577	2498.564725
639.514383	2500.868532
639.859137	2499.756958
640.203839	2498.355517
640.548489	2501.952380
640.893086	2498.279900
641.237632	2497.274189
641.582125	2498.015239
641.926566	2497.841319
642.270955	2494.350320
642.615292	2495.270331
642.959576	2498.786536
643.303809	2495.706391
643.647990	2500.742503
643.992118	2499.477174
644.336195	2500.321567
644.680219	2499.726711
645.024192	2497.856443
645.368112	2498.912564
645.711981	2500.354334
646.055797	2500.152688
646.399562	2499.119252
646.743274	2498.335352
647.086935	2503.308451
647.430544	2500.210662
647.774101	2500.898779
648.117606	2499.484735
648.461059	2502.040600
648.804460	2502.461537
649.147810	2499.686382
649.491108	2501.864160
649.834354	2500.573625
650.177548	2500.692092
650.520690	2499.880466
650.863781	2501.707884
651.206820	2500.505569
651.549807	2499.494818
651.892742	2498.917606
652.235626	2499.704026
652.578458	2500.359376
652.921238	2497.637153
653.263967	2499.320898
653.606644	2495.711432
653.949269	2498.103459
654.291843	2495.741679
654.634365	2498.400887
654.976836	2496.422234
655.319255	2494.773777
655.661622	2498.973058
656.003938	2498.592451
656.346203	2499.671258
656.688416	2498.138747
657.030577	2495.411483
657.372687	2499.406598
657.714746	2494.269662
658.056753	2498.811741
658.398708	2494.922491
658.740612	2494.786380
659.082465	2497.193531
659.424266	2495.661020
659.766016	2493.420227
660.107715	2493.664723
660.449362	2492.563231
660.790958	2497.513644
661.132503	2494.201606
661.473996	2496.875938
661.815438	2495.950887
662.156829	2498.090856
662.498168	2497.077584
662.839456	2498.360558
663.180693	2497.440548
663.521879	2498.025321
663.863013	2496.331494
664.204097	2497.712770
664.545129	2496.334014
664.886110	2495.363592
665.227040	2496.538181
665.567918	2496.916267
665.908746	2496.880979
666.249522	2498.121103
666.590248	2497.871566
666.930922	2497.672441
667.271545	2496.999447
667.612118	2499.842657
667.952639	2496.654128
668.293109	2498.915085
668.633528	2497.047338
668.973896	2496.472646
669.314213	2495.960969
669.654480	2496.719663
669.994695	2496.364261
670.334859	2500.054386
670.674973	2498.930208
671.015035	2494.937615
671.355047	2495.035917
671.695008	2496.949035
672.034918	2496.376864
672.374777	2497.861484
672.714585	2497.407780
673.054342	2495.686226
673.394049	2496.071874
673.733705	2498.068171
674.073310	2498.100939
674.412864	2497.468274
674.752368	2498.655466
675.091820	2498.930208
675.431223	2499.333501
675.770574	2498.663027
676.109875	2496.608757
676.449125	2495.270331
676.788324	2492.976606
677.127473	2494.110865
677.466571	2488.472335
677.805619	2495.209837
678.144616	2497.813593
678.483562	2496.349138
678.822458	2495.676144
679.161303	2495.744199
679.500098	2491.345792
679.838842	2493.528612
680.177535	2496.011380
680.516179	2494.504075
680.854771	2497.080105
681.193314	2495.446771
681.531805	2496.439878
681.870247	2497.251504
682.208638	2496.482728
682.546978	2496.679333
682.885268	2499.464571
683.223508	2495.892913
683.561697	2497.531288
683.899836	2495.169508
684.237925	2496.656648
684.575963	2496.996926
684.913951	2494.269662
685.251889	2497.523727
685.589776	2496.391987
685.927614	2500.208141
686.265401	2496.765033
686.603137	2496.573469
686.940824	2496.366782
687.278460	2498.340393
687.616046	2495.184631
687.953582	2495.156905
688.291068	2498.731083
688.628504	2500.256032
688.965889	2499.988851
689.303224	2497.039776
689.640510	2497.889210
689.977745	2498.862153
690.314930	2494.937615
690.652065	2500.225785
690.989150	2493.954590
691.326185	2496.696977
691.663170	2494.466267
692.000105	2494.967862
692.336990	2493.957110
692.673825	2494.806545
693.010610	2491.161790
693.347345	2489.881337
693.684030	2486.844042
694.020665	2491.262613
694.357251	2487.940493
694.693786	2495.489621
695.030272	2489.117602
695.366707	2491.484424
695.703093	2489.480566
696.039429	2489.578868
696.375716	2490.866883
696.711952	2490.448467
697.048139	2492.243118
697.384276	2488.759681
697.720363	2488.545432
698.056400	2490.181286
698.392388	2490.287150
698.728326	2489.951913
699.064214	2491.169352
699.400053	2492.442243
699.735842	2490.604743
700.071581	2489.536018
700.407270	2490.435864
700.742910	2488.255565
701.078501	2487.670791
701.414042	2488.187510
701.749533	2487.965699
702.084974	2490.274547
702.420366	2487.554845
702.755709	2491.141626
703.091002	2488.525267
703.426246	2485.644247
703.761440	2489.309166
704.096584	2490.980309
704.431679	2485.220791
704.766725	2489.528457
705.101721	2487.685915
705.436668	2490.546770
705.771565	2485.404793
706.106413	2489.019300
706.441212	2486.372694
706.775961	2486.682725
707.110661	2486.380256
707.445311	2487.592653
707.779913	2489.967037
708.114465	2486.841522
708.448967	2489.236070
708.783421	2489.720020
709.117825	2489.536018
709.452180	2493.100114
709.786485	2490.861842
710.120742	2486.448312
710.454949	2486.649958
710.789107	2489.044506
711.123216	2486.813795
711.457275	2491.736482
711.791286	2491.993581
712.125247	2491.471821
712.459159	2488.996615
712.793023	2493.735299
713.126837	2492.532984
713.460602	2491.502068
713.794318	2493.868890
714.127985	2490.312356
714.461602	2491.421410
714.795171	2489.866214
715.128691	2487.146511
715.462162	2493.195896
715.795584	2489.820843
716.128957	2489.583909
716.462281	2488.366471
716.795556	2489.878817
717.128782	2488.023672
717.461960	2490.211533
717.795088	2485.840853
718.128167	2487.625421
718.461198	2487.181799
718.794180	2486.473517
719.127113	2487.995946
719.459997	2487.885040
719.792833	2484.903198
720.125619	2485.296408
720.458357	2487.917808
720.791046	2487.406131
721.123686	2484.303301
721.456278	2486.496203
721.788821	2484.578043
722.121315	2489.765391
722.453761	2484.063846
722.786158	2484.078969
723.118506	2486.987715
723.450805	2485.190544
723.783056	2484.068887
724.115259	2484.862869
724.447412	2486.501244
724.779518	2482.556541
725.111574	2485.682056
725.443582	2487.819505
725.775542	2485.903867
726.107453	2487.378404
726.439315	2486.370174
726.771129	2488.976450
727.102895	2484.595688
727.434612	2485.805564
727.766281	2484.383959
728.097901	2486.309680
728.429473	2487.632983
728.760996	2488.222798
729.092471	2485.495533
729.423897	2488.300936
729.755276	2486.627273
730.086606	2487.980822
730.417887	2487.532160
730.749120	2488.482417
731.080305	2488.353868
731.411442	2490.231698
731.742530	2487.607777
732.073570	2493.208499
732.404562	2488.996615
732.735506	2489.465442
733.066401	2490.602222
733.397249	2488.089207
733.728048	2489.949393
734.058798	2488.910915
734.389501	2487.481748
734.720156	2486.987715
735.050762	2489.830926
735.381320	2486.841522
735.711831	2485.109885
736.042293	2485.629124
736.372707	2488.210195
736.703073	2484.877992
737.033391	2484.913280
737.363661	2484.184833
737.693883	2485.835811
738.024056	2485.661892
738.354182	2485.127529
738.684260	2484.847745
739.014290	2485.765235
739.344272	2488.938642
739.674207	2484.300780
740.004093	2487.050729
740.333931	2485.314052
740.663722	2488.162304
740.993464	2488.812613
741.323159	2487.902684
741.652806	2483.713486
741.982405	2486.400421
742.311956	2487.912767
742.641460	2487.133908
742.970915	2484.903198
743.300323	2486.723054
743.629683	2480.708958
743.958996	2484.618373
744.288260	2480.756849
744.617477	2482.957312
744.946647	2481.492857
745.275768	2484.167189
745.604842	2483.917652
745.933869	2480.560244
746.262847	2483.511839
746.591778	2485.193064
746.920662	2484.394041
747.249498	2486.155925
747.578286	2484.552838
747.907027	2483.675677
748.235720	2485.568630
748.564365	2485.624083
748.892963	2483.864720
749.221514	2485.054433
749.550017	2481.497898
749.878473	2482.347333
750.206881	2482.798516
750.535242	2485.515698
750.863555	2485.145173
751.191821	2482.155769
751.520039	2483.824391
751.848210	2481.966726
752.176334	2482.228866
752.504411	2484.136942
752.832440	2482.564103
753.160421	2482.218783
753.488356	2481.669298
753.816243	2485.450163
754.144082	2481.671818
754.471875	2483.809268
754.799620	2482.566623
755.127318	2484.136942
755.454969	2482.337251
755.782572	2487.317911
756.110129	2484.061325
756.437638	2486.851604
756.765100	2482.160810
757.092515	2481.155100
757.419882	2484.983856
757.747203	2483.544607
758.074477	2482.057467
758.401703	2482.861531
758.728882	2481.394555
759.056014	2484.217601
759.383099	2482.317086
759.710138	2482.294401
760.037129	2477.220479
760.364073	2480.681232
760.690970	2478.505974
761.017820	2481.631489
761.344623	2481.908752
761.671379	2483.214411
761.998088	2485.611480
762.324751	2482.254072
762.651366	2490.037613
762.977935	2490.211533
763.304456	2493.102635
763.630931	2494.879641
763.957359	2496.969200
764.283740	2492.928715
764.610074	2494.098262
764.936362	2492.147336
765.262602	2489.387304
765.588796	2486.912098
765.914943	2487.227170
766.241044	2485.336737
766.567097	2482.380100
766.893104	2483.153917
767.219064	2481.558392
767.544978	2478.873978
767.870845	2482.332209
768.196665	2480.887919
768.522438	2481.460090
768.848165	2480.661067
769.173846	2482.730461
769.499479	2483.622745
769.825066	2479.630151
770.150607	2480.638382
770.476101	2479.652836
770.801548	2477.921200
771.126949	2479.181488
771.452303	2476.837352
771.777611	2478.074955
772.102872	2478.405151
772.428087	2478.148052
772.753256	2478.536221
773.078378	2482.828763
773.403453	2480.174596
773.728482	2478.871457
774.053465	2476.794502
774.378401	2478.793319
774.703291	2481.087044
775.028135	2476.436580
775.352932	2480.071252
775.677683	2478.206025
776.002388	2475.652681
776.327046	2474.523462
776.651658	2477.031436
776.976224	2473.338791
777.300743	2477.606128
777.625216	2477.729636
777.949643	2477.601087
778.274024	2475.544296
778.598359	2476.892804
778.922647	2476.267701
779.246889	2476.330716
779.571086	2479.733495
779.895236	2478.717702
780.219339	2478.022023
780.543397	2477.631333
780.867409	2475.602269
781.191374	2477.883391
781.515294	2474.979687
781.839167	2478.158134
782.162995	2478.306848
782.486776	2479.655357
782.810511	2476.565129
783.134201	2476.343319
783.457844	2476.217290
783.781441	2479.007568
784.104993	2476.713843
784.428498	2478.092599
784.751958	2477.890953
785.075372	2478.702579
785.398739	2477.651498
785.722061	2477.868268
786.045337	2478.203504
786.368568	2477.081848
786.691752	2475.657722
787.014891	2478.871457
787.337983	2477.502784
787.661030	2478.427836
787.984031	2480.156952
788.306987	2479.216776
788.629897	2481.699545
788.952760	2478.821046
789.275579	2480.323310
789.598351	2478.924389
789.921078	2478.231231
790.243759	2476.252578
790.566395	2477.893473
790.888984	2479.488999
791.211529	2478.657208
791.534027	2478.200984
791.856480	2478.601756
792.178888	2473.918524
792.501249	2473.908441
792.823566	2473.868112
793.145836	2471.198821
793.468062	2479.194091
793.790241	2475.420787
794.112375	2478.435397
794.434464	2477.427167
794.756507	2476.015644
795.078505	2474.329378
795.400457	2475.014975
795.722364	2478.916828
796.044226	2478.211066
796.366042	2474.367186
796.687812	2477.664101
797.009538	2478.947075
797.331218	2477.124697
797.652852	2478.042188
797.974442	2476.912969
798.295986	2476.411374
798.617484	2476.799543
798.938938	2479.234420
799.260346	2476.592856
799.581709	2480.214925
799.903026	2478.936992
800.224299	2479.166365
800.545526	2473.762248
800.866708	2478.079996
801.187845	2476.953298
801.508936	2478.369863
801.829983	2476.451703
802.150984	2474.513380
802.471940	2476.096302
802.792851	2475.990438
803.113717	2475.438432
803.434538	2476.363483
803.755314	2476.091261
804.076045	2474.964563
804.396731	2474.888946
804.717372	2475.725777
805.037967	2474.957001
805.358518	2477.714513
805.679024	2474.735191
805.999485	2477.790130
806.319901	2475.045222
806.640272	2475.834162
806.960598	2479.703248
807.280879	2475.214100
807.601115	2476.476909
807.921306	2476.330716
808.241453	2477.424646
808.561554	2473.119501
808.881611	2473.709316
809.201623	2469.414253
809.521590	2478.488330
809.841513	2477.860706
810.161390	2476.827269
810.481223	2472.968266
810.801011	2474.798205
811.120755	2476.255098
811.440453	2474.392392
811.760107	2473.011116
812.079716	2475.844244
812.399281	2476.025726
812.718801	2477.180150
813.038276	2474.793164
813.357707	2475.587146
813.677093	2474.919193
813.996434	2475.103195
814.315731	2478.072434
814.634983	2475.193936
814.954191	2475.372897
815.273354	2474.488174
815.592473	2474.616723
815.911547	2478.568988
816.230577	2476.325675
816.549562	2478.327013
816.868502	2475.758545
817.187399	2478.914307
817.506250	2476.280304
817.825058	2476.711323
818.143821	2476.413895
818.462539	2478.143011
818.781213	2477.714513
819.099843	2477.769965
819.418429	2481.780203
819.736970	2477.868268
820.055466	2481.046715
820.373919	2482.707775
820.692327	2486.904536
821.010691	2489.233549
821.329011	2498.526916
821.647286	2514.530059
821.965517	2537.840354
822.283704	2551.605225
822.601847	2559.855073
822.919945	2550.410472
823.237999	2546.969884
823.556010	2535.992772
823.873976	2525.171935
824.191897	2517.262364
824.509775	2507.197701
824.827609	2505.019922
825.145398	2495.124137
825.463144	2499.290651
825.780845	2495.764364
826.098502	2498.728562
826.416116	2501.473471
826.733685	2505.571929
827.051210	2509.037722
827.368692	2507.888339
827.686129	2502.390961
828.003522	2497.725373
828.320872	2495.406442
828.638177	2490.128354
828.955439	2488.827736
829.272656	2486.609628
829.589830	2484.895636
829.906960	2480.900522
830.224046	2481.641571
830.541088	2479.126036
830.858086	2477.916159
831.175041	2478.150572
831.491952	2479.980511
831.808819	2478.304327
832.125642	2478.959678
832.442421	2479.625110
832.759157	2479.209215
833.075849	2483.292549
833.392497	2486.765904
833.709101	2491.103817
834.025662	2491.106338
834.342179	2491.340751
834.658653	2489.155411
834.975083	2484.850266
835.291469	2486.065184
835.607811	2480.028402
835.924110	2479.057980
836.240366	2483.045533
836.556578	2477.863227
836.872746	2476.862558
837.188871	2474.543627
837.504952	2476.857516
837.820990	2475.514049
838.136984	2475.400623
838.452935	2473.016157
838.768842	2473.971456
839.084706	2473.011116
839.400526	2478.279122
839.716303	2475.299800
840.032037	2480.068731
840.347727	2476.479430
840.663373	2479.524287
840.978977	2475.509008
841.294537	2478.213587
841.610054	2473.641260
841.925527	2476.613020
842.240957	2475.647639
842.556344	2472.723770
842.871687	2473.613534
843.186987	2474.117649
843.502244	2471.922227
843.817458	2470.500621
844.132629	2472.552371
844.447756	2472.622947
844.762840	2473.162351
845.077881	2472.504480
845.392879	2472.605303
845.707833	2472.842237
846.022745	2471.264356
846.337613	2472.383492
846.652438	2470.561115
846.967221	2471.889459
847.281960	2472.005406
847.596656	2472.706126
847.911309	2470.641774
848.225919	2470.291413
848.540485	2469.142030
848.855009	2470.790488
849.169490	2474.505818
849.483928	2470.472895
849.798323	2469.888121
850.112675	2471.700416
850.426984	2471.738225
850.741251	2469.815024
851.055474	2473.127062
851.369654	2471.239150
851.683792	2474.042032
851.997887	2471.332412
852.311938	2472.456589
852.625947	2472.713688
852.939914	2469.142030
853.253837	2472.534727
853.567718	2472.295272
853.881555	2472.363328
854.195350	2469.842751
854.509103	2473.984059
854.822812	2469.880559
855.136479	2472.494398
855.450103	2470.094808
855.763685	2471.387864
856.077224	2468.184211
856.390720	2469.782257
856.704173	2467.629684
857.017584	2471.544140
857.330953	2471.188739
857.644278	2473.590849
857.957561	2476.078658
858.270802	2473.845427
858.584000	2470.651856
858.897155	2471.586990
859.210268	2468.595065
859.523339	2469.421814
859.836367	2470.404839
860.149352	2473.711836
860.462295	2470.447689
860.775195	2472.464151
861.088054	2471.697895
861.400869	2471.173615
861.713642	2471.145889
862.026373	2471.632360
862.339062	2471.241671
862.651708	2470.714870
862.964312	2472.166723
863.276873	2474.258802
863.589392	2469.411732
863.901869	2469.326033
864.214303	2471.092957
864.526696	2470.551033
864.839045	2474.901549
865.151353	2471.123204
865.463619	2468.532051
865.775842	2474.248719
866.088023	2470.596403
866.400162	2474.097485
866.712258	2470.989613
867.024313	2471.062710
867.336325	2470.036835
867.648296	2472.461630
867.960224	2470.218317
868.272110	2474.611682
868.583954	2474.024388
868.895755	2471.682772
869.207515	2470.994654
869.519233	2472.285190
869.830909	2472.373410
870.142542	2471.705457
870.454134	2470.687144
870.765684	2474.301651
871.077191	2469.777216
871.388657	2467.014663
871.700081	2466.117338
872.011463	2472.751497
872.322803	2467.773357
872.634101	2470.934161
872.945357	2471.508852
873.256571	2473.497587
873.567744	2473.822742
873.878874	2473.600931
874.189963	2472.743935
874.501010	2473.472382
874.812015	2471.851651
875.122979	2472.854840
875.433900	2472.600262
875.744780	2474.059676
876.055618	2473.006075
876.366415	2474.697382
876.677169	2473.250571
876.987882	2472.706126
877.298554	2470.341825
877.609183	2474.220993
877.919771	2473.243009
878.230317	2474.588997
878.540822	2474.079841
878.851285	2473.356435
879.161707	2476.938175
879.472087	2478.228710
879.782425	2479.015130
880.092722	2483.678198
880.402977	2484.704072
880.713191	2495.416524
881.023363	2504.891373
881.333494	2511.465038
881.643583	2513.176509
881.953631	2514.230110
882.263637	2511.054183
882.573602	2507.485047
882.883526	2505.846672
883.193408	2502.368275
883.503248	2497.072543
883.813048	2495.620691
884.122806	2493.339569
884.432522	2490.997953
884.742197	2487.474186
885.051831	2485.271202
885.361424	2480.812302
885.670975	2484.852786
885.980485	2477.903556
886.289954	2480.787096
886.599382	2478.813484
886.908768	2475.796353
887.218113	2473.036322
887.527417	2472.476754
887.836680	2469.993985
888.145901	2473.172433
888.455082	2473.401805
888.764221	2473.006075
889.073319	2474.483133
889.382376	2473.043883
889.691392	2475.493884
890.000366	2472.030612
890.309300	2471.962556
890.618193	2475.834162
890.927044	2475.544296
891.235855	2472.640591
891.544625	2472.388533
891.853353	2474.236116
892.162041	2472.834676
892.470687	2474.142855
892.779293	2473.248050
893.087858	2473.633698
893.396381	2474.626806
893.704864	2476.098823
894.013306	2479.131077
894.321707	2482.501088
894.630068	2482.319607
894.938387	2483.937817
895.246665	2482.876654
895.554903	2482.533856
895.863100	2480.000676
896.171256	2481.200470
896.479371	2479.368011
896.787446	2478.818525
897.095480	2478.400109
897.403473	2476.711323
897.711425	2476.229893
898.019336	2476.544965
898.327207	2476.197125
898.635038	2474.931796
898.942827	2474.180664
899.250576	2473.038842
899.558284	2474.057155
899.865952	2473.217803
900.173579	2474.057155
900.481165	2471.090436
900.788711	2473.147227
901.096216	2469.358800
901.403681	2468.844602
901.711105	2469.925930
902.018489	2471.846609
902.325832	2470.672021
902.633135	2466.848305
902.940397	2470.440128
903.247619	2469.106742
903.554800	2476.771817
903.861941	2481.989411
904.169041	2483.262302
904.476101	2483.259782
904.783121	2488.610967
905.090100	2484.578043
905.397039	2485.881182
905.703938	2480.272898
906.010796	2481.752477
906.317614	2476.978504
906.624391	2479.108392
906.931129	2477.061683
907.237826	2476.544965
907.544483	2474.334419
907.851099	2475.372897
908.157675	2472.451548
908.464211	2469.752010
908.770707	2472.678400
909.077163	2470.979531
909.383578	2469.184880
909.689954	2470.135138
909.996289	2469.578090
910.302584	2470.475416
910.608839	2467.614561
910.915054	2473.608493
911.221229	2470.588842
911.527363	2471.357617
911.833458	2470.296455
912.139513	2471.733183
912.445527	2470.392237
912.751502	2468.579942
913.057436	2472.423822
913.363331	2470.961887
913.669186	2469.441979
913.975000	2471.198821
914.280775	2472.585138
914.586510	2473.411888
914.892205	2476.663432
915.197859	2480.000676
915.503475	2479.650316
915.809050	2483.136273
916.114585	2486.839001
916.420081	2486.420585
916.725536	2488.454691
917.030952	2489.331852
917.336328	2484.184833
917.641665	2479.352887
917.946961	2481.011427
918.252218	2479.080665
918.557435	2476.184522
918.862612	2478.579070
919.167750	2479.594863
919.472848	2476.978504
919.777906	2475.892135
920.082925	2476.033288
920.387904	2472.721250
920.692843	2474.132773
920.997743	2472.383492
921.302603	2475.904738
921.607423	2469.736887
921.912204	2472.141517
922.216946	2470.339304
922.521647	2473.613534
922.826310	2471.312247
923.130932	2473.361476
923.435516	2469.368882
923.740059	2472.532206
924.044564	2472.058338
924.349028	2471.070272
924.653454	2472.849799
924.957840	2469.341156
925.262186	2468.463995
925.566493	2471.660087
925.870761	2469.706640
926.174989	2470.919037
926.479178	2471.869295
926.783328	2463.513582
927.087438	2467.828810
927.391509	2468.330405
927.695541	2469.600775
927.999533	2469.391568
928.303486	2467.760754
928.607400	2469.459623
928.911275	2470.493060
929.215110	2470.029273
929.518906	2467.894345
929.822663	2471.029943
930.126381	2468.819397
930.430060	2469.126907
930.733699	2466.371916
931.037299	2468.494242
931.340861	2469.343677
931.644383	2467.932153
931.947866	2466.550877
932.251309	2468.753862
932.554714	2466.724797
932.858080	2465.774540
933.161407	2464.022739
933.464694	2465.247739
933.767943	2460.622480
934.071153	2469.988944
934.374323	2467.556588
934.677455	2467.196145
934.980548	2467.629684
935.283602	2467.478450
935.586617	2466.069447
935.889593	2469.615899
936.192530	2469.623461
936.495428	2467.859057
936.798287	2467.791001
937.101108	2471.297124
937.403890	2469.126907
937.706632	2467.027266
938.009336	2466.510548
938.312002	2470.102370
938.614628	2467.551546
938.917216	2468.123717
939.219765	2469.547843
939.522275	2468.985755
939.824747	2467.259159
940.127179	2470.477936
940.429573	2466.092132
940.731929	2468.993316
941.034246	2466.439972
941.336524	2466.888635
941.638763	2468.612709
941.940964	2465.227574
942.243126	2467.702781
942.545250	2468.249746
942.847335	2469.018522
943.149381	2470.296455
943.451389	2469.489870
943.753359	2472.121352
944.055290	2466.296299
944.357182	2468.080867
944.659036	2468.216979
944.960851	2468.872329
945.262628	2468.960549
945.564367	2467.438120
945.866067	2470.024232
946.167729	2467.304530
946.469352	2468.257308
946.770937	2468.761423
947.072484	2467.453244
947.373992	2466.298820
947.675462	2469.247895
947.976893	2468.763944
948.278286	2463.180866
948.579641	2464.975517
948.880958	2460.846812
949.182236	2470.195632
949.483476	2466.974334
949.784678	2467.375106
950.085841	2467.967442
950.386967	2468.121197
950.688054	2468.499283
950.989103	2468.070785
951.290114	2469.578090
951.591087	2470.170426
951.892021	2468.227061
952.192917	2464.940229
952.493776	2467.954839
952.794596	2468.529530
953.095378	2466.961731
953.396122	2470.097329
953.696828	2470.137658
953.997496	2467.042390
954.298126	2469.164716
954.598718	2463.914354
954.899272	2470.127576
955.199788	2467.354941
955.500266	2467.249077
955.800706	2466.760085
956.101108	2468.811835
956.401472	2468.451392
956.701798	2468.048100
957.002087	2466.946608
957.302337	2465.971145
957.602550	2467.788481
957.902724	2465.169601
958.202861	2466.331587
958.502960	2465.376288
958.803022	2468.748820
959.103045	2470.939202
959.403031	2467.715384
959.702979	2466.434931
960.002889	2464.655403
960.302762	2465.860239
960.602596	2465.804787
960.902393	2465.633387
961.202153	2467.657411
961.501875	2467.024746
961.801559	2466.182873
962.101205	2468.428707
962.400814	2467.533902
962.700385	2466.540795
962.999918	2464.617595
963.299414	2464.088274
963.598873	2465.945939
963.898293	2461.741617
964.197677	2465.943418
964.497022	2466.649180
964.796331	2467.017184
965.095601	2467.874180
965.394835	2467.710343
965.694030	2466.913840
965.993189	2466.117338
966.292309	2464.433593
966.591393	2466.825620
966.890439	2466.686988
967.189447	2464.494087
967.488419	2465.225054
967.787353	2468.292596
968.086249	2467.584314
968.385108	2465.361165
968.683930	2466.389560
968.982714	2464.630198
969.281462	2465.154478
969.580172	2466.182873
969.878844	2464.930146
970.177480	2467.543985
970.476078	2464.536936
970.774639	2468.753862
971.073162	2463.160701
971.371649	2466.654221
971.670098	2463.193469
971.968510	2465.635908
972.266885	2466.240846
972.565223	2468.544654
972.863524	2468.148923
973.161788	2467.783439
973.460014	2469.903245
973.758204	2467.826289
974.056356	2463.584158
974.354471	2468.640436
974.652550	2465.008284
974.950591	2468.017853
975.248595	2468.020374
975.546563	2466.424848
975.844493	2466.676906
976.142386	2465.451906
976.440243	2466.492904
976.738062	2465.315795
977.035845	2464.481484
977.333590	2467.833851
977.631299	2467.380147
977.928971	2462.512913
978.226606	2459.281533
978.524204	2467.730507
978.821765	2460.330093
979.119290	2465.126751
979.416777	2466.694550
979.714228	2463.798407
980.011642	2466.593727
980.309020	2465.774540
980.606360	2465.295630
980.903664	2464.602471
981.200931	2467.397791
981.498162	2466.760085
981.795356	2466.767647
982.092513	2467.347380
982.389633	2467.125569
982.686717	2467.843933
982.983764	2469.331074
983.280775	2466.969293
983.577749	2464.955352
983.874686	2468.184211
984.171587	2468.227061
984.468451	2468.348049
984.765279	2468.973152
985.062070	2468.015333
985.358824	2469.525158
985.655543	2466.664303
985.952224	2465.832513
986.248869	2466.727318
986.545478	2468.269911
986.842050	2469.865436
987.138586	2466.384519
987.435086	2465.356124
987.731549	2463.521144
988.027975	2464.698253
988.324366	2465.237657
988.620719	2467.140692
988.917037	2463.064919
989.213318	2465.182204
989.509563	2467.178501
989.805772	2466.253449
990.101944	2464.378140
990.398080	2468.942905
990.694180	2466.331587
990.990244	2464.967955
991.286271	2465.464509
991.582262	2463.500979
991.878217	2465.640949
992.174136	2464.569704
992.470019	2465.814869
992.765865	2462.744806
993.061676	2459.823458
993.357450	2463.561473
993.653188	2459.760443
993.948890	2467.261680
994.244556	2465.555249
994.540186	2466.457616
994.835780	2465.933336
995.131337	2466.833182
995.426859	2466.087091
995.722345	2465.693881
996.017795	2467.118007
996.313208	2467.128089
996.608586	2468.544654
996.903928	2467.150775
997.199234	2470.500621
997.494504	2464.231947
997.789738	2468.239664
998.084936	2468.625312
998.380099	2465.968624
998.675225	2467.092801
998.970316	2465.406535
999.265371	2463.977368
999.560390	2466.140023
999.855373	2467.312092
1000.150320	2465.678758
1000.445232	2464.909982
1000.740108	2466.109776
1001.034948	2464.632718
1001.329752	2461.330762
1001.624521	2465.484673
1001.919254	2462.580969
1002.213951	2467.163378
1002.508613	2465.469550
1002.803239	2461.315639
1003.097829	2464.179014
1003.392384	2465.419138
1003.686903	2466.767647
1003.981386	2463.201031
1004.275834	2463.218675
1004.570246	2464.458798
1004.864623	2465.721608
1005.158964	2466.306381
1005.453270	2463.155660
1005.747540	2465.663634
1006.041775	2465.739252
1006.335974	2464.448716
1006.630138	2465.711525
1006.924266	2465.033490
1007.218359	2466.921402
1007.512416	2461.839919
1007.806438	2458.545525
1008.100425	2464.680609
1008.394376	2459.135340
1008.688292	2468.390898
1008.982172	2461.817234
1009.276017	2466.762606
1009.569827	2463.682461
1009.863602	2464.282358
1010.157341	2461.698767
1010.451045	2465.582976
1010.744714	2464.637759
1011.038347	2463.949642
1011.331945	2463.874025
1011.625508	2465.373768
1011.919036	2465.585496
1012.212528	2462.162553
1012.505986	2462.853191
1012.799408	2467.889304
1013.092795	2462.918726
1013.386147	2462.659107
1013.679464	2463.110290
1013.972745	2464.141206
1014.265992	2464.529375
1014.559204	2463.412759
1014.852380	2466.588686
1015.145521	2464.000053
1015.438628	2466.354272
1015.731699	2465.114148
1016.024736	2464.912502
1016.317737	2466.313943
1016.610703	2463.795887
1016.903635	2463.153140
1017.196531	2464.657924
1017.489393	2464.219344
1017.782219	2463.712708
1018.075011	2462.210444
1018.367768	2463.120372
1018.660490	2462.586010
1018.953177	2462.586010
1019.245829	2462.586010
