Dividing Wavelength (nm)	Counts (n)	Blue Motor Position (mm): 0.000000	Red Motor Position (mm): 17.000000	
326.493990	2054.842363
326.888308	2054.842363
327.282561	2054.842363
327.676750	2025.764988
328.070874	2030.554084
328.464933	2035.585156
328.858929	2043.681249
329.252859	2055.462425
329.646726	2067.578838
330.040528	2083.839080
330.434265	2099.839703
330.827938	2120.508433
331.221547	2140.385703
331.615091	2162.793632
332.008571	2182.786848
332.401986	2202.419622
332.795338	2223.627756
333.188625	2243.194994
333.581847	2259.409866
333.975006	2280.280243
334.368100	2295.108797
334.761129	2314.436581
335.154095	2327.951914
335.546996	2343.526559
335.939833	2362.458612
336.332606	2371.444469
336.725315	2384.377549
337.117960	2395.319373
337.510540	2403.143244
337.903056	2413.613721
338.295508	2421.465318
338.687896	2426.821544
339.080220	2433.601896
339.472480	2434.663059
339.864676	2441.178750
340.256807	2443.800150
340.648875	2444.697475
341.040879	2446.383741
341.432818	2446.151848
341.824694	2449.471448
342.216506	2448.856427
342.608253	2447.011365
342.999937	2447.696962
343.391557	2446.933227
343.783113	2445.446087
344.174605	2443.989193
344.566033	2441.748400
344.957397	2443.701848
345.348697	2439.280756
345.739934	2439.668924
346.131106	2436.898810
346.522215	2433.745569
346.913260	2432.394539
347.304241	2430.778850
347.695159	2428.570824
348.086012	2431.288006
348.476802	2428.313725
348.867528	2424.401790
349.258191	2421.051943
349.648789	2418.682601
350.039324	2418.672519
350.429796	2420.414237
350.820203	2420.164700
351.210548	2419.574885
351.600828	2421.084711
351.991045	2418.657395
352.381198	2417.664288
352.771288	2415.441139
353.161314	2420.205029
353.551276	2416.068763
353.941175	2418.942220
354.331010	2420.210071
354.720782	2419.020358
355.110490	2418.861562
355.500135	2419.476583
355.889717	2421.402303
356.279235	2418.521284
356.668689	2420.129412
357.058080	2418.221335
357.447408	2421.019176
357.836672	2423.471697
358.225873	2421.515729
358.615010	2421.364495
359.004084	2421.727458
359.393095	2424.089238
359.782043	2425.132757
360.170927	2424.936152
360.559748	2424.724424
360.948505	2423.917839
361.337199	2426.133426
361.725830	2424.895823
362.114398	2427.000505
362.502903	2425.871286
362.891344	2430.219282
363.279722	2428.462439
363.668037	2428.152408
364.056289	2429.057296
364.444478	2428.719538
364.832603	2433.387647
365.220665	2431.834971
365.608665	2433.107863
365.996601	2432.792791
366.384474	2431.958480
366.772284	2433.332194
367.160031	2428.205341
367.547715	2434.368151
367.935336	2434.506783
368.322893	2433.453182
368.710388	2429.420259
369.097820	2431.998809
369.485189	2432.316402
369.872495	2436.659356
370.259738	2434.030394
370.646918	2438.842175
371.034035	2437.770930
371.421090	2440.357042
371.808081	2439.167330
372.195010	2439.462237
372.581875	2441.912238
372.968678	2444.480706
373.355418	2447.210491
373.742096	2448.024637
374.128710	2449.221911
374.515262	2452.884309
374.901751	2453.557303
375.288177	2458.825309
375.674540	2459.523509
376.060841	2461.847481
376.447079	2469.888121
376.833254	2474.818370
377.219367	2476.797022
377.605417	2485.916470
377.991404	2489.677171
378.377329	2496.475167
378.763191	2505.256857
379.148991	2509.383041
379.534727	2516.521315
379.920402	2530.507996
380.306013	2536.176774
380.691563	2550.332334
381.077049	2560.470094
381.462474	2569.929819
381.847835	2586.343816
382.233134	2599.115579
382.618371	2609.485233
383.003545	2628.258490
383.388657	2644.440594
383.773706	2661.814930
384.158693	2675.778927
384.543618	2692.371884
384.928480	2708.831252
385.313280	2727.309601
385.698017	2746.584453
386.082692	2771.855757
386.467305	2789.887964
386.851856	2809.992086
387.236344	2837.794049
387.620770	2855.480938
388.005133	2875.456510
388.389435	2910.515214
388.773674	2923.279416
389.157851	2955.043726
389.541965	2983.967346
389.926018	2993.545539
390.310008	3029.504089
390.693936	3052.181720
391.077802	3081.821184
391.461606	3112.148765
391.845348	3129.442443
392.229027	3161.451250
392.612645	3202.823999
392.996200	3232.886920
393.379694	3269.069802
393.763125	3311.075217
394.146494	3333.498269
394.529801	3375.349928
394.913047	3416.387441
395.296230	3423.124943
395.679351	3447.715692
396.062410	3496.405676
396.445408	3476.924137
396.828343	3519.136239
397.211217	3551.432391
397.594028	3525.896426
397.976778	3573.404260
398.359466	3604.412397
398.742092	3615.124849
399.124656	3632.143784
399.507158	3689.035726
399.889598	3696.466387
400.271977	3762.439967
400.654294	3749.453955
401.036549	3808.299344
401.418742	3806.534940
401.800874	3876.138151
402.182944	3902.168149
402.564952	3987.330882
402.946898	3984.747290
403.328783	3976.378975
403.710606	4023.400337
404.092367	4095.151080
404.474067	4163.206657
404.855705	4142.089263
405.237282	4112.943832
405.618797	4204.919684
406.000250	4282.931540
406.381642	4362.065053
406.762972	4358.145556
407.144240	4320.772962
407.525447	4382.758989
407.906593	4398.348757
408.287677	4476.395901
408.668700	4497.150332
409.049661	4527.692162
409.430560	4554.662335
409.811399	4528.055125
410.192176	4570.400818
410.572891	4639.391529
410.953545	4733.199840
411.334138	4620.789671
411.714669	4713.095718
412.095139	4615.645173
412.475547	4706.448957
412.855894	4695.444118
413.236180	4775.101911
413.616405	4688.946071
413.996568	4762.471300
414.376670	4747.589814
414.756711	4726.754725
415.136691	4763.224952
415.516609	4819.002799
415.896466	4825.846165
416.276262	4866.079614
416.655997	4935.367753
417.035670	4987.533613
417.415283	5075.945369
417.794834	5101.262044
418.174324	5035.016241
418.553753	5005.049102
418.933121	5103.490234
419.312428	5077.576183
419.691674	4981.423735
420.070859	5118.492708
420.449983	4987.410105
420.829045	5088.429787
421.208047	4991.037215
421.586988	5063.637392
421.965867	5075.292540
422.344686	5084.235547
422.723444	5147.217203
423.102141	4847.674362
423.480777	5057.872833
423.859352	4887.837234
424.237866	5069.795162
424.616319	5013.336759
424.994712	5059.750663
425.373044	4957.422801
425.751314	5077.331687
426.129524	4859.067369
426.507673	4946.017191
426.885762	4919.830917
427.263789	4878.687540
427.641756	4864.106002
428.019662	4848.952294
428.397508	4804.416220
428.775292	4734.787803
429.153016	4751.678189
429.530679	4657.547244
429.908282	4619.526862
430.285824	4530.242986
430.663305	4584.674845
431.040726	4484.683558
431.418086	4422.609310
431.795385	4410.013988
432.172624	4412.791663
432.549802	4311.131755
432.926920	4298.196154
433.303977	4218.593814
433.680974	4169.498017
434.057910	4176.608564
434.434786	4132.758088
434.811601	4059.104309
435.188355	4090.377107
435.565050	4004.828727
435.941683	3948.914769
436.318257	3970.080053
436.694770	3903.032707
437.071222	3899.198909
437.447614	3796.563538
437.823946	3733.196234
438.200218	3706.175649
438.576429	3633.499855
438.952580	3609.599744
439.328670	3565.288002
439.704700	3529.584030
440.080670	3466.655307
440.456580	3460.222794
440.832429	3411.351328
441.208218	3330.962568
441.583947	3305.774443
441.959616	3279.101698
442.335224	3239.873960
442.710773	3211.562840
443.086261	3193.286136
443.461689	3127.090745
443.837057	3109.257663
444.212365	3093.887185
444.587612	3054.641803
444.962800	3013.889115
445.337927	2996.638287
445.712995	2931.239398
446.088002	2953.884261
446.462949	2926.457863
446.837837	2900.425345
447.212664	2875.365769
447.587431	2890.690877
447.962139	2918.760021
448.336786	2937.145109
448.711374	2905.582445
449.085901	2827.888182
449.460369	2801.061682
449.834776	2770.746703
450.209124	2780.342540
450.583412	2759.073912
450.957640	2749.871285
451.331808	2722.888509
451.705917	2695.804910
452.079965	2676.368742
452.453954	2666.218378
452.827883	2653.802016
453.201752	2643.560912
453.575562	2634.416259
453.949311	2629.349900
454.323001	2620.774897
454.696632	2613.256016
455.070202	2614.586881
455.443713	2607.196549
455.817164	2600.958121
456.190556	2603.473657
456.563888	2593.981164
456.937160	2590.875813
457.310373	2580.259143
457.683526	2576.369893
458.056619	2574.164388
458.429653	2568.520817
458.802628	2569.244222
459.175542	2563.618295
459.548398	2568.150292
459.921194	2570.194480
460.293930	2569.483677
460.666607	2572.921744
461.039224	2579.321489
461.411782	2576.589183
461.784280	2575.099522
462.156719	2568.455282
462.529099	2569.279510
462.901419	2559.552604
463.273680	2554.516491
463.645882	2551.683363
464.018024	2549.762683
464.390106	2549.122457
464.762130	2554.299722
465.134094	2565.856567
465.505999	2578.686303
465.877845	2588.161152
466.249631	2596.920157
466.621358	2591.745412
466.993026	2586.971440
467.364634	2581.106057
467.736184	2573.577094
468.107674	2565.793552
468.479105	2564.986968
468.850477	2560.162584
469.221790	2557.959599
469.593043	2550.952396
469.964238	2548.903167
470.335373	2550.952396
470.706449	2551.670760
471.077467	2551.731254
471.448425	2565.060065
471.819324	2571.600962
472.190164	2571.290931
472.560945	2562.927657
472.931667	2554.574465
473.302330	2550.695297
473.672934	2547.831921
474.043479	2549.009031
474.413965	2548.550286
474.784393	2545.018958
475.154761	2547.179092
475.525070	2544.925696
475.895321	2547.753783
476.265513	2546.080120
476.635645	2547.564740
477.005719	2550.279402
477.375734	2548.817467
477.745691	2551.096068
478.115588	2549.631613
478.485427	2557.392470
478.855207	2564.190466
479.224928	2569.834037
479.594591	2576.596745
479.964194	2573.279666
480.333739	2574.350911
480.703226	2574.250088
481.072653	2577.045408
481.442022	2575.734708
481.811333	2575.039029
482.180584	2570.963256
482.549777	2571.540468
482.918912	2567.016032
483.287988	2571.890828
483.657005	2570.736404
484.025964	2569.539130
484.394864	2569.108111
484.763706	2565.057544
485.132489	2566.763975
485.501213	2568.694737
485.869879	2567.527709
486.238487	2566.645507
486.607036	2568.775395
486.975527	2568.268759
487.343959	2566.857236
487.712333	2570.280179
488.080648	2567.691547
488.448905	2569.380333
488.817104	2569.443348
489.185244	2572.682289
489.553326	2575.084399
489.921350	2583.598908
490.289315	2589.965885
490.657222	2594.576020
491.025070	2593.998808
491.392861	2593.093921
491.760593	2590.696852
492.128267	2590.893457
492.495883	2584.957499
492.863440	2580.695203
493.230939	2579.460121
493.598380	2577.189081
493.965763	2576.170768
494.333088	2573.793864
494.700354	2573.544327
495.067563	2573.796384
495.434713	2570.413770
495.801805	2573.476271
496.168839	2570.174315
496.535815	2573.889646
496.902733	2570.519634
497.269593	2574.048442
497.636395	2572.609192
498.003139	2573.982907
498.369825	2573.410736
498.736453	2574.741601
499.103023	2574.078689
499.469535	2573.279666
499.835989	2573.672876
500.202385	2572.001733
500.568723	2570.378482
500.935003	2573.584656
501.301226	2566.622822
501.667390	2573.851837
502.033497	2575.573391
502.399546	2575.580953
502.765537	2573.947619
503.131470	2576.453072
503.497345	2577.473906
503.863163	2574.050963
504.228923	2574.388720
504.594625	2577.559606
504.960269	2576.082547
505.325856	2579.056828
505.691385	2577.022723
506.056856	2576.614389
506.422270	2578.582960
506.787625	2577.068093
507.152924	2579.649164
507.518164	2579.775193
507.883347	2577.889801
508.248472	2573.781261
508.613540	2579.717219
508.978550	2579.112281
509.343503	2580.037333
509.708398	2580.032292
510.073236	2580.362487
510.438016	2584.342478
510.802738	2580.727971
511.167403	2578.144379
511.532010	2584.541604
511.896561	2586.406831
512.261053	2584.430698
512.625488	2583.883733
512.989866	2583.349371
513.354186	2583.929103
513.718449	2581.370718
514.082655	2584.954978
514.446803	2585.093610
514.810894	2586.505133
515.174927	2587.135277
515.538904	2584.304669
515.902822	2586.369022
516.266684	2583.455235
516.630488	2587.047057
516.994235	2586.195102
517.357925	2585.658219
517.721558	2586.900864
518.085133	2584.206367
518.448651	2582.976325
518.812112	2580.349884
519.175516	2581.413568
519.538863	2577.625141
519.902152	2586.290884
520.265385	2584.770976
520.628560	2587.213415
520.991678	2582.399113
521.354739	2580.896849
521.717743	2581.940368
522.080690	2581.385841
522.443580	2582.754515
522.806413	2583.740060
523.169189	2585.343147
523.531908	2584.637386
523.894569	2582.714185
524.257174	2583.082190
524.619722	2580.722930
524.982213	2584.960019
525.344647	2582.079000
525.707025	2582.240317
526.069345	2583.256109
526.431608	2583.072107
526.793815	2584.158476
527.155964	2577.441138
527.518057	2579.213104
527.880093	2581.688311
528.242072	2577.753690
528.603995	2576.392578
528.965860	2579.316448
529.327669	2576.742939
529.689421	2579.255954
530.051117	2579.573547
530.412755	2578.124215
530.774337	2575.984245
531.135862	2575.888463
531.497331	2577.060531
531.858743	2576.369893
532.220098	2578.255285
532.581396	2574.706312
532.942638	2574.424008
533.303824	2576.473237
533.664953	2572.475602
534.026025	2573.025088
534.387040	2574.209759
534.747999	2572.604151
535.108902	2573.294789
535.469748	2573.400654
535.830537	2573.256981
536.191270	2572.823442
536.551947	2571.374110
536.912567	2568.888821
537.273131	2571.394274
537.633638	2566.839592
537.994089	2569.738255
538.354483	2575.243195
538.714821	2573.902248
539.075103	2570.927968
539.435328	2570.559963
539.795497	2568.546023
540.155609	2570.360838
540.515665	2570.691033
540.875665	2569.466033
541.235609	2572.457958
541.595496	2569.720611
541.955328	2573.980386
542.315102	2571.411918
542.674821	2569.972669
543.034483	2569.418142
543.394090	2569.080385
543.753640	2568.712381
544.113134	2570.300344
544.472571	2570.005437
544.831953	2572.901579
545.191278	2572.694892
545.550548	2570.466702
545.909761	2570.355797
546.268918	2569.040056
546.628019	2575.338977
546.987064	2569.334963
547.346053	2566.718604
547.704986	2568.349417
548.063863	2571.308575
548.422684	2569.430745
548.781449	2567.416804
549.140158	2570.383523
549.498811	2569.140879
549.857408	2568.475446
550.215949	2570.305385
550.574434	2568.225909
550.932864	2565.211299
551.291237	2570.310426
551.649555	2566.355641
552.007817	2569.027453
552.366022	2569.876887
552.724173	2568.775395
553.082267	2571.961404
553.440305	2569.211455
553.798288	2567.368913
554.156215	2568.180539
554.514086	2564.069478
554.871902	2565.702812
555.229661	2565.889334
555.587365	2563.998902
555.945014	2566.695919
556.302606	2568.946794
556.660143	2566.789180
557.017625	2569.024932
557.375050	2568.414953
557.732421	2568.392267
558.089735	2567.174829
558.446994	2569.574418
558.804197	2566.655590
559.161345	2567.454613
559.518437	2568.548543
559.875474	2566.834551
560.232455	2567.152143
560.589381	2566.879921
560.946251	2567.610888
561.303065	2569.213975
561.659825	2568.548543
562.016528	2566.012843
562.373177	2566.264900
562.729770	2567.976372
563.086307	2566.706001
563.442789	2569.219017
563.799216	2568.180539
564.155587	2568.097360
564.511904	2567.431927
564.868164	2568.155333
565.224370	2569.105591
565.580520	2566.985785
565.936615	2568.291444
566.292654	2564.313974
566.648638	2570.839748
567.004567	2566.489232
567.360441	2567.245405
567.716260	2566.005281
568.072023	2566.980744
568.427732	2566.784139
568.783385	2564.757595
569.138982	2564.056875
569.494525	2567.384037
569.850013	2563.940928
570.205445	2566.511917
570.560823	2565.929664
570.916145	2565.435631
571.271412	2566.542164
571.626625	2568.072154
571.981782	2566.249777
572.336884	2562.632749
572.691931	2561.984961
573.046923	2563.003274
573.401860	2559.965979
573.756743	2564.182904
574.111570	2565.279355
574.466342	2564.230795
574.821059	2562.436144
575.175722	2564.553429
575.530330	2562.973027
575.884882	2562.310115
576.239380	2563.358675
576.593823	2561.049827
576.948211	2561.284240
577.302544	2560.850701
577.656823	2564.525702
578.011047	2562.811710
578.365216	2560.364230
578.719330	2560.293654
579.073389	2556.888354
579.427394	2559.958417
579.781344	2561.271637
580.135239	2557.279044
580.489080	2557.677295
580.842866	2559.010680
581.196597	2559.540001
581.550273	2559.751730
581.903895	2560.127296
582.257463	2558.274672
582.610975	2557.268961
582.964434	2558.965310
583.317837	2556.517829
583.671186	2558.688046
584.024481	2557.856256
584.377721	2557.299208
584.730906	2556.991698
585.084037	2555.423899
585.437113	2555.484393
585.790135	2555.814588
586.143103	2555.796944
586.496016	2558.196534
586.848874	2557.236194
587.201679	2559.895403
587.554428	2558.088149
587.907124	2555.887685
588.259765	2556.613611
588.612352	2555.297870
588.964884	2556.936245
589.317362	2553.478014
589.669786	2554.249310
590.022155	2553.036913
590.374470	2553.946841
590.726731	2553.251162
591.078937	2552.288301
591.431090	2556.573282
591.783188	2553.767880
592.135232	2549.508105
592.487222	2555.504558
592.839157	2553.866183
593.191038	2552.588250
593.542866	2554.067829
593.894639	2549.593805
594.246358	2550.954916
594.598022	2552.169834
594.949633	2552.537838
595.301190	2551.678322
595.652692	2549.253527
596.004141	2554.317366
596.355535	2550.352498
596.706876	2547.819318
597.058162	2551.343085
597.409395	2549.210677
597.760573	2549.187992
598.111698	2547.678166
598.462768	2548.237734
598.813785	2548.699000
599.164748	2549.840821
599.515657	2545.956612
599.866511	2548.144473
600.217312	2548.565409
600.568060	2548.033568
600.918753	2551.706048
601.269392	2546.725388
601.619978	2546.617003
601.970510	2548.459545
602.320988	2546.601880
602.671412	2548.247817
603.021783	2547.363094
603.372100	2546.032229
603.722363	2548.162117
604.072572	2544.719009
604.422728	2545.931406
604.772830	2548.968702
605.122878	2547.731098
605.472872	2547.151366
605.822813	2545.742363
606.172701	2545.651622
606.522534	2548.963660
606.872314	2546.569112
607.222041	2547.640357
607.571714	2546.236396
607.921333	2541.835469
608.270899	2544.845038
608.620411	2544.797147
608.969870	2549.765204
609.319276	2544.890408
609.668627	2550.254196
610.017926	2546.662374
610.367171	2544.812270
610.716362	2544.726571
611.065500	2548.857796
611.414585	2547.133722
611.763616	2548.361242
612.112594	2543.972918
612.461518	2545.041643
612.810389	2548.144473
613.159207	2547.673125
613.507971	2549.084648
613.856682	2547.070707
614.205340	2548.255378
614.553945	2547.879812
614.902496	2546.909390
615.250994	2547.864689
615.599439	2544.255223
615.947830	2548.371325
616.296169	2548.194884
616.644454	2546.216232
616.992686	2548.318393
617.340864	2549.828218
617.688990	2547.504246
618.037063	2548.260419
618.385082	2549.787889
618.733048	2552.706717
619.080961	2547.463917
619.428821	2550.037426
619.776628	2549.009031
620.124382	2550.803682
620.472083	2549.724875
620.819731	2549.361912
621.167326	2548.484751
621.514868	2548.625903
621.862357	2547.957950
622.209793	2549.790410
622.557176	2547.516849
622.904506	2545.770089
623.251783	2545.797816
623.599007	2546.352343
623.946179	2545.477703
624.293297	2546.266643
624.640363	2539.735828
624.987376	2541.921168
625.334336	2540.567619
625.681243	2536.852288
626.028097	2536.264994
626.374899	2538.563760
626.721647	2540.555016
627.068343	2542.059800
627.414987	2541.288504
627.761577	2540.607948
628.108115	2539.884542
628.454600	2538.820859
628.801032	2540.741538
629.147412	2537.419418
629.493739	2538.646939
629.840014	2540.519728
630.186236	2537.686599
630.532405	2539.400592
630.878521	2536.123842
631.224585	2538.906558
631.570597	2536.133924
631.916556	2539.304810
632.262462	2538.334387
632.608316	2537.366486
632.954117	2535.939839
633.299866	2538.105015
633.645562	2537.374048
633.991206	2535.566794
634.336797	2535.103008
634.682336	2534.326670
635.027823	2533.499921
635.373257	2532.133768
635.718639	2533.998995
636.063968	2535.677699
636.409245	2530.732327
636.754470	2534.999664
637.099642	2529.376257
637.444762	2532.842050
637.789829	2530.059333
638.134845	2532.925229
638.479808	2529.272913
638.824719	2532.322812
639.169577	2531.380116
639.514383	2528.728469
639.859137	2525.479445
640.203839	2532.481608
640.548489	2529.547656
640.893086	2528.141174
641.237632	2531.014632
641.582125	2530.649148
641.926566	2524.738396
642.270955	2526.724610
642.615292	2523.546163
642.959576	2527.921884
643.303809	2522.593385
643.647990	2529.711494
643.992118	2529.323325
644.336195	2527.989940
644.680219	2528.657893
645.024192	2529.114117
645.368112	2528.294930
645.711981	2530.981865
646.055797	2528.854498
646.399562	2534.979500
646.743274	2530.787780
647.086935	2534.303985
647.430544	2530.359282
647.774101	2533.615868
648.117606	2531.942204
648.461059	2532.968079
648.804460	2535.745755
649.147810	2532.466484
649.491108	2530.260980
649.834354	2531.002029
650.177548	2526.394415
650.520690	2529.340969
650.863781	2528.262162
651.206820	2527.064888
651.549807	2526.994312
651.892742	2526.109589
652.235626	2524.710669
652.578458	2525.106400
652.921238	2522.026255
653.263967	2527.800897
653.606644	2522.001049
653.949269	2526.596061
654.291843	2523.589012
654.634365	2525.734023
654.976836	2523.689836
655.319255	2522.694208
655.661622	2523.689836
656.003938	2523.856194
656.346203	2526.633869
656.688416	2523.057171
657.030577	2522.658920
657.372687	2521.328055
657.714746	2523.271420
658.056753	2523.442819
658.398708	2521.542304
658.740612	2521.585154
659.082465	2523.387366
659.424266	2520.642458
659.766016	2518.202540
660.107715	2521.597757
660.449362	2516.075173
660.790958	2523.067253
661.132503	2522.779907
661.473996	2524.647655
661.815438	2521.804444
662.156829	2525.786956
662.498168	2522.464835
662.839456	2522.767304
663.180693	2519.419978
663.521879	2523.193282
663.863013	2522.777387
664.204097	2521.330576
664.545129	2522.202695
664.886110	2521.824609
665.227040	2522.611029
665.567918	2524.476256
665.908746	2523.992305
666.249522	2527.001874
666.590248	2522.447191
666.930922	2522.036337
667.271545	2525.451719
667.612118	2526.011287
667.952639	2522.442150
668.293109	2521.968282
668.633528	2523.044568
668.973896	2525.736544
669.314213	2525.277799
669.654480	2522.898374
669.994695	2524.186389
670.334859	2523.289064
670.674973	2522.003570
671.015035	2521.048271
671.355047	2523.334434
671.695008	2521.988446
672.034918	2521.708662
672.374777	2524.529188
672.714585	2524.201513
673.054342	2523.344517
673.394049	2522.865607
673.733705	2522.225380
674.073310	2524.597243
674.412864	2520.949968
674.752368	2523.074815
675.091820	2522.149763
675.431223	2520.831501
675.770574	2521.953158
676.109875	2521.960720
676.449125	2519.268744
676.788324	2517.337982
677.127473	2518.832684
677.466571	2513.557116
677.805619	2519.414937
678.144616	2518.870493
678.483562	2518.265554
678.822458	2518.318486
679.161303	2519.588857
679.500098	2517.148938
679.838842	2517.743795
680.177535	2519.971985
680.516179	2521.315452
680.854771	2517.597601
681.193314	2518.938548
681.531805	2519.939217
681.870247	2522.250586
682.208638	2522.908457
682.546978	2525.207223
682.885268	2525.660927
683.223508	2525.912984
683.561697	2524.945083
683.899836	2524.267048
684.237925	2524.319980
684.575963	2525.076153
684.913951	2522.966430
685.251889	2520.163548
685.589776	2520.332427
685.927614	2524.085566
686.265401	2520.367715
686.603137	2519.692201
686.940824	2521.764115
687.278460	2523.203364
687.616046	2523.107582
687.953582	2522.908457
688.291068	2524.393077
688.628504	2524.564476
688.965889	2526.858201
689.303224	2522.704290
689.640510	2524.738396
689.977745	2522.931142
690.314930	2522.737058
690.652065	2521.912829
690.989150	2518.716737
691.326185	2519.298991
691.663170	2519.755215
692.000105	2514.683814
692.336990	2515.550893
692.673825	2514.953516
693.010610	2514.053670
693.347345	2510.645850
693.684030	2509.302383
694.020665	2510.545027
694.357251	2506.252484
694.693786	2512.634585
695.030272	2511.984276
695.366707	2509.536796
695.703093	2509.214162
696.039429	2509.516632
696.375716	2507.411950
696.711952	2512.213649
697.048139	2511.207939
697.384276	2506.769203
697.720363	2509.660304
698.056400	2508.072341
698.392388	2509.133504
698.728326	2508.594100
699.064214	2508.498318
699.400053	2508.190808
699.735842	2507.956394
700.071581	2508.228617
700.407270	2506.466733
700.742910	2507.732063
701.078501	2507.454800
701.414042	2508.543689
701.749533	2506.912876
702.084974	2504.793070
702.420366	2502.385919
702.755709	2505.551764
703.091002	2502.658142
703.426246	2506.610406
703.761440	2504.956908
704.096584	2502.585045
704.431679	2501.503717
704.766725	2502.718636
705.101721	2500.742503
705.436668	2502.655621
705.771565	2501.990189
706.106413	2503.318533
706.441212	2502.264932
706.775961	2503.376506
707.110661	2504.447751
707.445311	2504.014212
707.779913	2505.771054
708.114465	2503.051352
708.448967	2504.039418
708.783421	2504.304078
709.117825	2507.835407
709.452180	2506.174347
709.786485	2508.909173
710.120742	2504.228461
710.454949	2506.212155
710.789107	2509.078051
711.123216	2505.922289
711.457275	2510.416477
711.791286	2512.022085
712.125247	2515.162724
712.459159	2511.989317
712.793023	2513.814215
713.126837	2508.788185
713.460602	2513.443690
713.794318	2512.634585
714.127985	2509.834224
714.461602	2511.598628
714.795171	2512.818587
715.128691	2510.252640
715.462162	2510.106447
715.795584	2506.002947
716.128957	2507.968997
716.462281	2505.665190
716.795556	2504.745179
717.128782	2504.946826
717.461960	2505.319871
717.795088	2501.513800
718.128167	2506.943123
718.461198	2503.341218
718.794180	2503.633605
719.127113	2500.059427
719.459997	2502.852226
719.792833	2501.702843
720.125619	2505.012361
720.458357	2500.283758
720.791046	2502.390961
721.123686	2498.985661
721.456278	2498.484066
721.788821	2499.167143
722.121315	2500.142606
722.453761	2498.350476
722.786158	2497.422903
723.118506	2501.405415
723.450805	2497.427945
723.783056	2499.898110
724.115259	2497.425424
724.447412	2499.220075
724.779518	2500.782832
725.111574	2498.284941
725.443582	2500.800477
725.775542	2499.038593
726.107453	2500.863491
726.439315	2498.660507
726.771129	2504.737618
727.102895	2497.276710
727.434612	2499.522544
727.766281	2499.946001
728.097901	2504.271311
728.429473	2501.947339
728.760996	2502.922802
729.092471	2503.963801
729.423897	2502.799294
729.755276	2505.380365
730.086606	2502.378358
730.417887	2507.225427
730.749120	2504.445231
731.080305	2509.632578
731.411442	2504.901455
731.742530	2507.885818
732.073570	2507.870695
732.404562	2508.924296
732.735506	2505.118225
733.066401	2509.511590
733.397249	2506.948164
733.728048	2508.561333
734.058798	2505.093019
734.389501	2505.541682
734.720156	2502.403563
735.050762	2502.537154
735.381320	2502.461537
735.711831	2501.042452
736.042293	2500.303923
736.372707	2499.086484
736.703073	2499.802328
737.033391	2496.442399
737.363661	2498.458861
737.693883	2495.688747
738.024056	2497.717811
738.354182	2499.207472
738.684260	2501.208810
739.014290	2500.223264
739.344272	2501.019767
739.674207	2499.837616
740.004093	2502.766527
740.333931	2498.746206
740.663722	2506.320540
740.993464	2504.036897
741.323159	2502.622854
741.652806	2500.276197
741.982405	2498.494149
742.311956	2500.503048
742.641460	2499.963645
742.970915	2500.825682
743.300323	2497.997595
743.629683	2496.553304
743.958996	2495.633294
744.288260	2494.756133
744.617477	2498.952894
744.946647	2496.268479
745.275768	2497.644714
745.604842	2498.000116
745.933869	2497.710249
746.262847	2495.119096
746.591778	2498.000116
746.920662	2493.369816
747.249498	2499.119252
747.578286	2495.512306
747.907027	2494.917450
748.235720	2495.053561
748.564365	2497.448109
748.892963	2496.394508
749.221514	2495.857625
749.550017	2496.850733
749.878473	2498.713439
750.206881	2496.649086
750.535242	2495.053561
750.863555	2497.672441
751.191821	2497.780825
751.520039	2496.550784
751.848210	2494.221771
752.176334	2498.209323
752.504411	2497.952225
752.832440	2494.897285
753.160421	2491.973416
753.488356	2494.161277
753.816243	2495.371154
754.144082	2493.475680
754.471875	2493.508448
754.799620	2494.506596
755.127318	2496.318891
755.454969	2493.679847
755.782572	2493.999960
756.110129	2494.947697
756.437638	2494.768736
756.765100	2494.930053
757.092515	2496.182780
757.419882	2493.243787
757.747203	2496.689416
758.074477	2496.185300
758.401703	2495.015752
758.728882	2495.688747
759.056014	2497.465753
759.383099	2495.033397
759.710138	2496.525578
760.037129	2491.983498
760.364073	2495.724035
760.690970	2493.057264
761.017820	2497.473315
761.344623	2493.969713
761.671379	2499.230157
761.998088	2499.043634
762.324751	2500.074550
762.651366	2505.982783
762.977935	2518.043743
763.304456	2524.942562
763.630931	2524.549352
763.957359	2523.049609
764.283740	2520.077849
764.610074	2517.519463
764.936362	2511.775068
765.262602	2508.823473
765.588796	2503.646208
765.914943	2503.379027
766.241044	2500.528254
766.567097	2498.050527
766.893104	2497.140599
767.219064	2495.918119
767.544978	2493.238746
767.870845	2489.961996
768.196665	2490.032572
768.522438	2487.280102
768.848165	2493.478201
769.173846	2491.118941
769.499479	2489.473004
769.825066	2490.156080
770.150607	2491.343272
770.476101	2485.722385
770.801548	2488.893271
771.126949	2490.224136
771.452303	2489.654485
771.777611	2488.079125
772.102872	2487.529639
772.428087	2485.906387
772.753256	2489.346975
773.078378	2485.709782
773.403453	2487.897643
773.728482	2488.368991
774.053465	2485.397231
774.378401	2482.735502
774.703291	2486.697849
775.028135	2484.381438
775.352932	2488.477376
775.677683	2486.019813
776.002388	2481.984370
776.327046	2479.514204
776.651658	2480.257775
776.976224	2475.171250
777.300743	2486.299597
777.625216	2485.026706
777.949643	2484.741881
778.274024	2481.427322
778.598359	2484.956130
778.922647	2484.056284
779.246889	2483.516881
779.571086	2482.458238
779.895236	2485.372025
780.219339	2483.287508
780.543397	2481.119812
780.867409	2481.175265
781.191374	2483.348002
781.515294	2485.762715
781.839167	2484.298259
782.162995	2484.555358
782.486776	2482.919504
782.810511	2482.347333
783.134201	2481.994452
783.457844	2482.667446
783.781441	2484.966212
784.104993	2483.920173
784.428498	2482.828763
784.751958	2481.719709
785.075372	2480.638382
785.398739	2481.928917
785.722061	2483.116109
786.045337	2481.679380
786.368568	2485.815647
786.691752	2485.109885
787.014891	2485.193064
787.337983	2485.840853
787.661030	2486.082828
787.984031	2487.852273
788.306987	2489.049547
788.629897	2489.987202
788.952760	2490.685401
789.275579	2491.769249
789.598351	2489.009218
789.921078	2490.178765
790.243759	2488.132057
790.566395	2486.055102
790.888984	2484.933445
791.211529	2484.164669
791.534027	2484.240286
791.856480	2485.314052
792.178888	2484.310862
792.501249	2480.255254
792.823566	2479.123515
793.145836	2477.704430
793.468062	2484.457056
793.790241	2483.491675
794.112375	2482.964874
794.434464	2486.599546
794.756507	2484.734319
795.078505	2482.342292
795.400457	2484.641058
795.722364	2485.886223
796.044226	2486.735657
796.366042	2484.555358
796.687812	2483.660553
797.009538	2485.775318
797.331218	2488.840339
797.652852	2488.752119
797.974442	2484.368836
798.295986	2486.952427
798.617484	2482.833804
798.938938	2487.252376
799.260346	2483.937817
799.581709	2483.466469
799.903026	2487.663230
800.224299	2482.947230
800.545526	2484.953609
800.866708	2484.857828
801.187845	2483.693321
801.508936	2483.968064
801.829983	2483.506798
802.150984	2481.802888
802.471940	2483.849597
802.792851	2484.217601
803.113717	2483.043012
803.434538	2479.294914
803.755314	2483.113588
804.076045	2482.947230
804.396731	2481.255923
804.717372	2483.191726
805.037967	2481.558392
805.358518	2480.885398
805.679024	2482.944710
805.999485	2483.862200
806.319901	2483.065697
806.640272	2482.664926
806.960598	2482.372539
807.280879	2481.777682
807.601115	2484.527632
807.921306	2480.068731
808.241453	2482.465800
808.561554	2477.407002
808.881611	2481.351705
809.201623	2478.750470
809.521590	2483.768938
809.841513	2483.221973
810.161390	2482.017137
810.481223	2480.608135
810.801011	2482.939668
811.120755	2482.818681
811.440453	2479.078145
811.760107	2482.004534
812.079716	2485.684577
812.399281	2483.063177
812.718801	2480.570326
813.038276	2480.424133
813.357707	2482.014617
813.677093	2482.977477
813.996434	2483.068218
814.315731	2481.344143
814.634983	2482.654843
814.954191	2482.763228
815.273354	2482.518732
815.592473	2480.204842
815.911547	2484.797334
816.230577	2484.693990
816.549562	2483.892447
816.868502	2484.295739
817.187399	2482.571664
817.506250	2486.498723
817.825058	2487.627942
818.143821	2483.211891
818.462539	2488.381594
818.781213	2485.548466
819.099843	2488.810092
819.418429	2492.222953
819.736970	2494.330156
820.055466	2498.534478
820.373919	2503.074037
820.692327	2509.080572
821.010691	2521.688497
821.329011	2542.959646
821.647286	2582.220152
821.965517	2634.983389
822.283704	2669.543019
822.601847	2688.119671
822.919945	2675.100891
823.237999	2655.122799
823.556010	2631.303347
823.873976	2610.135542
824.191897	2586.379104
824.509775	2568.533420
824.827609	2554.997922
825.145398	2541.593493
825.463144	2538.364634
825.780845	2536.675848
826.098502	2541.122146
826.416116	2548.792261
826.733685	2560.386915
827.051210	2567.157185
827.368692	2564.684499
827.686129	2553.687222
828.003522	2545.460058
828.320872	2530.765095
828.638177	2522.474917
828.955439	2512.954698
829.272656	2506.950684
829.589830	2502.963132
829.906960	2498.915085
830.224046	2499.048676
830.541088	2489.707417
830.858086	2488.777325
831.175041	2488.285812
831.491952	2487.045688
831.808819	2489.576347
832.125642	2492.109527
832.442421	2491.910402
832.759157	2497.833758
833.075849	2506.539830
833.392497	2515.860924
833.709101	2519.747653
834.025662	2522.545494
834.342179	2523.725124
834.658653	2515.409740
834.975083	2506.708709
835.291469	2507.235509
835.607811	2500.949191
835.924110	2496.283603
836.240366	2494.801503
836.556578	2490.922336
836.872746	2489.891420
837.188871	2485.664412
837.504952	2484.318424
837.820990	2484.124340
838.136984	2481.598722
838.452935	2480.792137
838.768842	2481.646612
839.084706	2481.752477
839.400526	2488.923518
839.716303	2488.212715
840.032037	2493.422748
840.347727	2488.863024
840.663373	2492.618684
840.978977	2483.615183
841.294537	2488.318580
841.610054	2482.609473
841.925527	2483.925214
842.240957	2479.385655
842.556344	2480.971098
842.871687	2477.298617
843.186987	2477.296097
843.502244	2479.063021
843.817458	2475.226703
844.132629	2476.635706
844.447756	2473.553040
844.762840	2478.064873
845.077881	2475.713174
845.392879	2476.933134
845.707833	2473.868112
846.022745	2476.469347
846.337613	2471.390385
846.652438	2477.154944
846.967221	2473.532875
847.281960	2475.483802
847.596656	2477.016313
847.911309	2475.385499
848.225919	2475.342650
848.540485	2473.585807
848.855009	2474.004223
849.169490	2475.161168
849.483928	2473.351394
849.798323	2474.205869
850.112675	2474.478092
850.426984	2471.957515
850.741251	2472.625468
851.055474	2471.642443
851.369654	2470.735035
851.683792	2473.699233
851.997887	2474.586477
852.311938	2472.945581
852.625947	2470.989613
852.939914	2474.939357
853.253837	2474.352063
853.567718	2475.372897
853.881555	2473.656384
854.195350	2475.342650
854.509103	2474.367186
854.822812	2471.866774
855.136479	2472.751497
855.450103	2473.666466
855.763685	2470.583800
856.077224	2468.279993
856.390720	2472.365848
856.704173	2467.196145
857.017584	2474.483133
857.330953	2472.557412
857.644278	2473.414408
857.957561	2476.983545
858.270802	2472.864923
858.584000	2472.832155
858.897155	2472.302834
859.210268	2473.994141
859.523339	2476.943216
859.836367	2472.746455
860.149352	2474.087402
860.462295	2472.007926
860.775195	2473.374079
861.088054	2473.333750
861.400869	2471.977679
861.713642	2472.968266
862.026373	2470.644294
862.339062	2474.137814
862.651708	2472.199490
862.964312	2472.726291
863.276873	2473.391723
863.589392	2473.215283
863.901869	2473.832824
864.214303	2472.922896
864.526696	2475.713174
864.839045	2474.576394
865.151353	2475.811477
865.463619	2476.484471
865.775842	2476.020685
866.088023	2474.495736
866.400162	2473.590849
866.712258	2475.161168
867.024313	2472.612865
867.336325	2472.307875
867.648296	2476.519759
867.960224	2476.383648
868.272110	2476.481950
868.583954	2474.745273
868.895755	2474.810808
869.207515	2476.867599
869.519233	2475.521611
869.830909	2475.861888
870.142542	2475.841724
870.454134	2474.291569
870.765684	2475.042701
871.077191	2474.762917
871.388657	2476.993627
871.700081	2471.796198
872.011463	2472.443986
872.322803	2469.424335
872.634101	2476.615541
872.945357	2475.478761
873.256571	2477.202835
873.567744	2476.832311
873.878874	2478.511015
874.189963	2480.608135
874.501010	2480.809781
874.812015	2479.431025
875.122979	2479.390696
875.433900	2479.667960
875.744780	2479.128556
876.055618	2476.786940
876.366415	2480.635861
876.677169	2475.990438
876.987882	2479.836838
877.298554	2478.442959
877.609183	2479.594863
877.919771	2481.906232
878.230317	2480.766931
878.540822	2480.454380
878.851285	2483.035450
879.161707	2486.415544
879.472087	2488.515185
879.782425	2496.379385
880.092722	2501.637308
880.402977	2517.637930
880.713191	2533.867925
881.023363	2557.788200
881.333494	2573.624985
881.643583	2578.739236
881.953631	2582.041191
882.263637	2575.835531
882.573602	2569.949984
882.883526	2561.629559
883.193408	2553.662016
883.503248	2545.386962
883.813048	2539.324974
884.122806	2530.951618
884.432522	2525.219826
884.742197	2516.430574
885.051831	2510.444204
885.361424	2506.907834
885.670975	2503.442041
885.980485	2498.690754
886.289954	2496.328973
886.599382	2493.395022
886.908768	2484.368836
887.218113	2482.818681
887.527417	2483.542086
887.836680	2479.892291
888.145901	2483.025368
888.455082	2482.274236
888.764221	2481.487816
889.073319	2481.102168
889.382376	2479.292394
889.691392	2480.761890
890.000366	2478.173258
890.309300	2479.988073
890.618193	2479.952785
890.927044	2478.563947
891.235855	2482.972436
891.544625	2476.146714
891.853353	2480.449338
892.162041	2477.820377
892.470687	2481.565954
892.779293	2479.937661
893.087858	2484.494864
893.396381	2484.986377
893.704864	2491.106338
894.013306	2497.659838
894.321707	2499.688902
894.630068	2506.330622
894.938387	2508.140397
895.246665	2507.583349
895.554903	2504.407422
895.863100	2503.701661
896.171256	2500.555981
896.479371	2496.696977
896.787446	2495.224960
897.095480	2492.391832
897.403473	2490.115751
897.711425	2489.389825
898.019336	2488.066522
898.327207	2488.888230
898.635038	2485.213229
898.942827	2483.836994
899.250576	2480.802219
899.558284	2482.881695
899.865952	2479.698207
900.173579	2480.643423
900.481165	2478.707620
900.788711	2478.163175
901.096216	2477.296097
901.403681	2478.453042
901.711105	2478.316930
902.018489	2475.514049
902.325832	2477.139821
902.633135	2473.495067
902.940397	2478.432877
903.247619	2479.055459
903.554800	2488.552993
903.861941	2499.653614
904.169041	2509.060407
904.476101	2513.380676
904.783121	2513.973012
905.090100	2510.507218
905.397039	2507.734584
905.703938	2501.778460
906.010796	2498.869715
906.317614	2492.616163
906.624391	2493.132882
906.931129	2489.384784
907.237826	2485.525780
907.544483	2486.027375
907.851099	2483.786582
908.157675	2481.288691
908.464211	2481.112250
908.770707	2479.685604
909.077163	2476.408854
909.383578	2474.024388
909.689954	2471.738225
909.996289	2473.124542
910.302584	2473.094295
910.608839	2472.950622
910.915054	2472.887608
911.221229	2473.048925
911.527363	2470.006588
911.833458	2474.838534
912.139513	2473.507670
912.445527	2474.440283
912.751502	2473.787454
913.057436	2472.534727
913.363331	2476.285345
913.669186	2476.741570
913.975000	2478.626961
914.280775	2480.376242
914.586510	2485.689618
914.892205	2486.465956
915.197859	2490.955103
915.503475	2500.072030
915.809050	2504.485560
916.114585	2509.970335
916.420081	2512.750532
916.725536	2514.207425
917.030952	2515.281191
917.336328	2508.662156
917.641665	2506.350787
917.946961	2502.469098
918.252218	2499.847698
918.557435	2494.025166
918.862612	2495.703870
919.167750	2491.123982
919.472848	2491.612974
919.777906	2488.147180
920.082925	2488.938642
920.387904	2487.638024
920.692843	2481.006386
920.997743	2481.228197
921.302603	2478.805922
921.607423	2479.486478
921.912204	2477.659060
922.216946	2475.221662
922.521647	2477.104533
922.826310	2477.807774
923.130932	2474.919193
923.435516	2476.040849
923.740059	2471.438276
924.044564	2471.269397
924.349028	2472.592700
924.653454	2472.597741
924.957840	2472.965746
925.262186	2472.247381
925.566493	2470.911475
925.870761	2470.596403
926.174989	2470.495580
926.479178	2471.460961
926.783328	2471.891980
927.087438	2470.147741
927.391509	2469.391568
927.695541	2470.369551
927.999533	2470.447689
928.303486	2468.590024
928.607400	2471.319809
928.911275	2469.842751
929.215110	2470.798049
929.518906	2466.976855
929.822663	2468.506845
930.126381	2469.071454
930.430060	2469.391568
930.733699	2468.380816
931.037299	2468.794191
931.340861	2470.346866
931.644383	2470.067082
931.947866	2468.332925
932.251309	2470.858543
932.554714	2466.944087
932.858080	2466.462657
933.161407	2464.423510
933.464694	2464.252111
933.767943	2464.912502
934.071153	2468.095991
934.374323	2466.480301
934.677455	2471.261836
934.980548	2468.320322
935.283602	2471.307206
935.586617	2469.031125
935.889593	2470.724953
936.192530	2468.721094
936.495428	2468.915178
936.798287	2470.127576
937.101108	2467.730507
937.403890	2469.142030
937.706632	2468.975672
938.009336	2470.167905
938.312002	2473.590849
938.614628	2468.781588
938.917216	2472.512042
939.219765	2472.234778
939.522275	2472.489357
939.824747	2471.161013
940.127179	2477.076807
940.429573	2470.057000
940.731929	2474.709985
941.034246	2471.970118
941.336524	2473.071610
941.638763	2471.680251
941.940964	2475.405664
942.243126	2470.601444
942.545250	2469.772175
942.847335	2470.856023
943.149381	2470.533389
943.451389	2468.489201
943.753359	2469.850313
944.055290	2469.893162
944.357182	2471.287041
944.659036	2470.051959
944.960851	2471.352576
945.262628	2471.796198
945.564367	2467.987606
945.866067	2469.752010
946.167729	2469.628502
946.469352	2469.394088
946.770937	2470.651856
947.072484	2467.884262
947.373992	2472.010447
947.675462	2466.994499
947.976893	2466.656742
948.278286	2465.935857
948.579641	2466.921402
948.880958	2464.710856
949.182236	2468.282514
949.483476	2470.344346
949.784678	2467.516258
950.085841	2471.735704
950.386967	2467.430559
950.688054	2467.483491
950.989103	2469.278142
951.290114	2468.073306
951.591087	2472.496918
951.892021	2469.404170
952.192917	2470.414922
952.493776	2471.176136
952.794596	2473.154789
953.095378	2469.772175
953.396122	2472.053297
953.696828	2467.700260
953.997496	2469.757051
954.298126	2469.245374
954.598718	2470.903914
954.899272	2467.932153
955.199788	2468.902576
955.500266	2469.489870
955.800706	2471.155971
956.101108	2467.740590
956.401472	2468.791670
956.701798	2469.247895
957.002087	2465.512400
957.302337	2469.220168
957.602550	2469.709160
957.902724	2468.055662
958.202861	2467.370065
958.502960	2468.779067
958.803022	2464.002574
959.103045	2466.934005
959.403031	2467.685137
959.702979	2467.107925
960.002889	2466.273614
960.302762	2465.870322
960.602596	2466.419807
960.902393	2468.622792
961.202153	2467.042390
961.501875	2464.302523
961.801559	2467.473408
962.101205	2463.251442
962.400814	2467.894345
962.700385	2464.990640
962.999918	2459.631894
963.299414	2458.341358
963.598873	2465.144395
963.898293	2457.461677
964.197677	2465.651031
964.497022	2465.867801
964.796331	2466.248408
965.095601	2465.676237
965.394835	2465.835033
965.694030	2465.202369
965.993189	2465.220013
966.292309	2464.927626
966.591393	2464.776391
966.890439	2465.956021
967.189447	2465.121710
967.488419	2462.749847
967.787353	2464.899899
968.086249	2467.791001
968.385108	2461.197172
968.683930	2465.018367
968.982714	2463.811010
969.281462	2462.631380
969.580172	2463.692543
969.878844	2462.477625
970.177480	2464.426031
970.476078	2465.913171
970.774639	2465.179683
971.073162	2466.618933
971.371649	2464.020218
971.670098	2467.700260
971.968510	2463.775722
972.266885	2466.109776
972.565223	2467.259159
972.863524	2464.423510
973.161788	2465.908130
973.460014	2464.463840
973.758204	2466.719756
974.056356	2467.236474
974.354471	2466.664303
974.652550	2463.594241
974.950591	2464.519292
975.248595	2468.312761
975.546563	2464.945270
975.844493	2465.126751
976.142386	2466.374437
976.440243	2467.596917
976.738062	2466.681947
977.035845	2466.129941
977.333590	2465.290589
977.631299	2464.287399
977.928971	2463.115331
978.226606	2462.356637
978.524204	2463.495938
978.821765	2461.688684
979.119290	2465.101546
979.416777	2465.277986
979.714228	2467.115487
980.011642	2467.249077
980.309020	2470.213276
980.606360	2465.943418
980.903664	2464.844447
981.200931	2466.707153
981.498162	2466.404684
981.795356	2464.564663
982.092513	2466.707153
982.389633	2466.361834
982.686717	2470.026753
982.983764	2469.202524
983.280775	2469.986424
983.577749	2471.700416
983.874686	2471.851651
984.171587	2472.423822
984.468451	2470.901393
984.765279	2470.583800
985.062070	2467.181022
985.358824	2467.357462
985.655543	2466.452575
985.952224	2467.586834
986.248869	2466.286217
986.545478	2467.816207
986.842050	2466.147585
987.138586	2465.711525
987.435086	2466.339149
987.731549	2464.310084
988.027975	2465.761937
988.324366	2463.190948
988.620719	2465.678758
988.917037	2465.736731
989.213318	2466.497945
989.509563	2464.725980
989.805772	2463.420321
990.101944	2463.818572
990.398080	2464.340331
990.694180	2463.337142
990.990244	2463.125413
991.286271	2462.883438
991.582262	2464.226905
991.878217	2465.114148
992.174136	2464.622636
992.470019	2461.965948
992.765865	2462.752368
993.061676	2462.717080
993.357450	2461.819754
993.653188	2458.414455
993.948890	2463.919395
994.244556	2465.761937
994.540186	2466.460137
994.835780	2465.363686
995.131337	2466.271093
995.426859	2465.169601
995.722345	2466.359313
996.017795	2465.956021
996.313208	2465.212451
996.608586	2465.832513
996.903928	2466.755044
997.199234	2466.266052
997.494504	2465.257821
997.789738	2469.812504
998.084936	2467.929633
998.380099	2467.289406
998.675225	2466.838223
998.970316	2466.059365
999.265371	2464.138685
999.560390	2464.751185
999.855373	2464.428552
1000.150320	2462.888479
1000.445232	2464.647842
1000.740108	2465.139354
1001.034948	2465.320836
1001.329752	2462.349076
1001.624521	2464.665486
1001.919254	2465.275465
1002.213951	2461.214816
1002.508613	2464.511731
1002.803239	2461.794549
1003.097829	2463.775722
1003.392384	2463.342183
1003.686903	2463.233798
1003.981386	2461.348407
1004.275834	2463.407718
1004.570246	2461.736575
1004.864623	2463.939560
1005.158964	2463.264045
1005.453270	2463.737913
1005.747540	2464.645321
1006.041775	2465.260342
1006.335974	2461.925619
1006.630138	2462.538119
1006.924266	2464.058027
1007.218359	2460.531740
1007.512416	2463.473253
1007.806438	2458.943776
1008.100425	2461.277830
1008.394376	2457.144084
1008.688292	2461.615588
1008.982172	2464.108438
1009.276017	2464.088274
1009.569827	2465.537605
1009.863602	2462.664148
1010.157341	2461.729014
1010.451045	2461.774384
1010.744714	2461.035855
1011.038347	2463.279168
1011.331945	2462.976699
1011.625508	2464.088274
1011.919036	2463.727831
1012.212528	2464.393263
1012.505986	2462.669189
1012.799408	2462.036524
1013.092795	2464.025259
1013.386147	2463.846298
1013.679464	2463.997533
1013.972745	2462.132306
1014.265992	2461.885289
1014.559204	2462.709518
1014.852380	2461.522326
1015.145521	2464.640280
1015.438628	2462.253294
1015.731699	2462.470063
1016.024736	2461.827316
1016.317737	2459.848663
1016.610703	2461.045937
1016.903635	2464.355455
1017.196531	2461.373612
1017.489393	2462.081894
1017.782219	2462.253294
1018.075011	2462.031483
1018.367768	2461.983592
1018.660490	2461.106431
1018.953177	2461.106431
1019.245829	2461.106431
