Dividing Wavelength (nm)	Counts (n)	Blue Motor Position (mm): 0.000000	Red Motor Position (mm): 35.500000	
326.493990	2053.171221
326.888308	2053.171221
327.282561	2053.171221
327.676750	2026.294309
328.070874	2028.235153
328.464933	2034.282017
328.858929	2042.141176
329.252859	2052.737682
329.646726	2066.381564
330.040528	2083.617269
330.434265	2097.636718
330.827938	2121.861983
331.221547	2139.949643
331.615091	2162.234064
332.008571	2181.743329
332.401986	2204.804087
332.795338	2221.747405
333.188625	2240.588718
333.581847	2261.096132
333.975006	2276.569953
334.368100	2295.489404
334.761129	2312.634368
335.154095	2330.018787
335.546996	2350.319514
335.939833	2389.922818
336.332606	2405.021074
336.725315	2414.258988
337.117960	2423.882551
337.510540	2435.847730
337.903056	2442.436518
338.295508	2448.919442
338.687896	2457.862449
339.080220	2462.434775
339.472480	2467.687658
339.864676	2470.455251
340.256807	2473.805098
340.648875	2474.266363
341.040879	2477.389358
341.432818	2476.544965
341.824694	2478.014461
342.216506	2476.212249
342.608253	2478.911787
342.999937	2477.825418
343.391557	2480.235089
343.783113	2476.182002
344.174605	2473.802577
344.566033	2473.883236
344.957397	2474.490695
345.348697	2473.177474
345.739934	2472.713688
346.131106	2466.651700
346.522215	2464.955352
346.913260	2464.683130
347.304241	2464.151288
347.695159	2461.504682
348.086012	2461.005608
348.476802	2456.277006
348.867528	2455.387242
349.258191	2451.447580
349.648789	2455.901440
350.039324	2446.741663
350.429796	2454.958744
350.820203	2454.283229
351.210548	2450.386417
351.600828	2451.238373
351.991045	2451.739967
352.381198	2452.397838
352.771288	2451.019082
353.161314	2447.833073
353.551276	2449.337858
353.941175	2449.405913
354.331010	2449.572271
354.720782	2449.395831
355.110490	2451.397169
355.500135	2450.817436
355.889717	2451.936572
356.279235	2450.678804
356.668689	2450.482199
357.058080	2452.506223
357.447408	2454.061419
357.836672	2452.501182
358.225873	2452.912036
358.615010	2456.866821
359.004084	2454.711728
359.393095	2455.162911
359.782043	2453.307766
360.170927	2457.658282
360.559748	2457.131481
360.948505	2457.118878
361.337199	2460.498972
361.725830	2460.602316
362.114398	2458.837912
362.502903	2459.876390
362.891344	2463.309415
363.279722	2460.488890
363.668037	2459.795731
364.056289	2462.230608
364.444478	2461.187090
364.832603	2466.024077
365.220665	2464.955352
365.608665	2462.568366
365.996601	2465.633387
366.384474	2466.492904
366.772284	2465.525003
367.160031	2466.225723
367.547715	2469.457103
367.935336	2465.852677
368.322893	2466.051803
368.710388	2466.346711
369.097820	2465.877883
369.485189	2465.119190
369.872495	2472.945581
370.259738	2469.492391
370.646918	2471.511373
371.034035	2471.639922
371.421090	2470.024232
371.808081	2475.375417
372.195010	2474.233596
372.581875	2476.759214
372.968678	2477.154944
373.355418	2478.077476
373.742096	2483.441263
374.128710	2485.556027
374.515262	2488.285812
374.901751	2488.248003
375.288177	2492.419558
375.674540	2497.173366
376.060841	2500.024139
376.447079	2503.371465
376.833254	2505.889521
377.219367	2514.063752
377.605417	2520.213960
377.991404	2522.608508
378.377329	2531.682585
378.763191	2535.932278
379.148991	2545.762528
379.534727	2555.008004
379.920402	2565.158367
380.306013	2573.153637
380.691563	2586.079156
381.077049	2595.518716
381.462474	2605.767382
381.847835	2620.409413
382.233134	2635.139665
382.618371	2644.556540
383.003545	2660.554642
383.388657	2675.201714
383.773706	2695.537729
384.158693	2708.853937
384.543618	2726.049313
384.928480	2738.100191
385.313280	2759.351175
385.698017	2780.090482
386.082692	2806.385140
386.467305	2821.637151
386.851856	2844.733198
387.236344	2872.197404
387.620770	2887.512429
388.005133	2908.090419
388.389435	2941.117539
388.773674	2953.896864
389.157851	2990.697287
389.541965	3014.718385
389.926018	3026.741537
390.310008	3059.693039
390.693936	3084.457707
391.077802	3110.212962
391.461606	3141.629433
391.845348	3159.301198
392.229027	3191.373018
392.612645	3228.798545
392.996200	3260.126795
393.379694	3298.426962
393.763125	3342.930268
394.146494	3367.576469
394.529801	3404.999474
394.913047	3446.931792
395.296230	3452.963533
395.679351	3478.088643
396.062410	3527.096221
396.445408	3506.339270
396.828343	3549.201680
397.211217	3580.421546
397.594028	3554.136970
397.976778	3602.413580
398.359466	3635.322232
398.742092	3646.354797
399.124656	3659.318124
399.507158	3723.411354
399.889598	3726.045357
400.271977	3788.535500
400.654294	3778.644756
401.036549	3838.503417
401.418742	3836.265145
401.800874	3904.933222
402.182944	3930.501954
402.564952	4015.130324
402.946898	4010.326105
403.328783	4008.249149
403.710606	4056.198084
404.092367	4129.771204
404.474067	4189.788661
404.855705	4173.334335
405.237282	4147.758041
405.618797	4242.972834
406.000250	4322.862520
406.381642	4403.294129
406.762972	4406.797731
407.144240	4375.353534
407.525447	4433.745219
407.906593	4450.139052
408.287677	4532.657699
408.668700	4564.222884
409.049661	4598.810240
409.430560	4637.211230
409.811399	4622.808653
410.192176	4670.767670
410.572891	4753.185494
410.953545	4857.983521
411.334138	4757.868726
411.714669	4863.274212
412.095139	4777.821613
412.475547	4890.060383
412.855894	4889.982245
413.236180	4995.571733
413.616405	4924.178912
413.996568	5024.215569
414.376670	5029.526425
414.756711	5025.672463
415.136691	5094.527063
415.516609	5179.510834
415.896466	5214.844281
416.276262	5296.369821
416.655997	5406.990381
417.035670	5498.711654
417.415283	5638.321369
417.794834	5711.823913
418.174324	5672.167676
418.553753	5674.453839
418.933121	5838.435012
419.312428	5852.895562
419.691674	5777.621053
420.070859	6006.570096
420.449983	5884.370006
420.829045	6074.910498
421.208047	6005.541700
421.586988	6159.102808
421.965867	6236.915538
422.344686	6317.763043
422.723444	6480.345296
423.102141	6100.209528
423.480777	6487.619681
423.859352	6302.339633
424.237866	6673.108937
424.616319	6669.542320
424.994712	6830.070303
425.373044	6746.314052
425.751314	7057.958183
426.129524	6777.175996
426.507673	7041.488733
426.885762	7089.145281
427.263789	7125.618029
427.641756	7214.125567
428.019662	7297.539020
428.397508	7340.164496
428.775292	7315.714900
429.153016	7486.468863
429.530679	7420.301198
429.908282	7468.020760
430.285824	7411.048160
430.663305	7701.121194
431.040726	7579.026968
431.418086	7585.010818
431.795385	7716.216929
432.172624	7904.128459
432.549802	7791.297354
432.926920	7925.875997
433.303977	7866.375258
433.680974	7912.441322
434.057910	8109.482382
434.434786	8159.835947
434.811601	8120.451932
435.188355	8453.513405
435.565050	8347.402158
435.941683	8356.365329
436.318257	8690.477883
436.694770	8643.446438
437.071222	8870.399184
437.447614	8652.593612
437.823946	8611.911500
438.200218	8764.391281
438.576429	8642.453331
438.952580	8813.451790
439.328670	8822.281371
439.704700	8891.408193
440.080670	8785.649826
440.456580	9059.460097
440.832429	9032.273155
441.208218	8772.321016
441.583947	8884.630362
441.959616	9003.495728
442.335224	9041.553919
442.710773	9115.832800
443.086261	9302.685688
443.461689	9019.403089
443.837057	9184.069859
444.212365	9402.495493
444.587612	9391.150377
444.962800	9279.647615
445.337927	9411.342718
445.712995	8951.360115
446.088002	9625.899267
446.462949	9678.246609
446.837837	9665.109362
447.212664	9694.451398
447.587431	10522.508808
447.962139	11519.901096
448.336786	12465.109881
448.711374	12251.997622
449.085901	11037.112313
449.460369	10960.779162
449.834776	10733.380273
450.209124	11646.736527
450.583412	11465.408744
450.957640	11785.471602
451.331808	11380.477904
451.705917	10805.940121
452.079965	10682.391523
452.453954	10885.953315
452.827883	10826.041722
453.201752	10799.459718
453.575562	10804.800820
453.949311	11145.048458
454.323001	11208.849301
454.696632	11135.853393
455.070202	11722.379041
455.443713	11776.021959
455.817164	11943.612598
456.190556	12263.735949
456.563888	12123.314609
456.937160	12384.925288
457.310373	11881.195551
457.683526	11889.944474
458.056619	11903.737071
458.429653	11970.691156
458.802628	12115.707508
459.175542	12161.488746
459.548398	12706.782796
459.921194	13288.945325
460.293930	13569.979569
460.666607	14428.384726
461.039224	15228.390635
461.411782	15577.707309
461.784280	15252.847793
462.156719	15199.545153
462.529099	15109.585763
462.901419	14465.404439
463.273680	14062.538109
463.645882	14285.256286
464.018024	14161.402697
464.390106	14535.186611
464.762130	15584.785089
465.134094	17107.947038
465.505999	19407.214787
465.877845	21673.341990
466.249631	22925.236930
466.621358	22481.433910
466.993026	21676.921209
467.364634	20940.552305
467.736184	20137.471292
468.107674	19517.971457
468.479105	19375.450476
468.850477	19103.853272
469.221790	18676.655813
469.593043	18011.435233
469.964238	17611.969161
470.335373	17662.907500
470.706449	18394.081495
471.077467	19238.852851
471.448425	21721.006100
471.819324	23599.566875
472.190164	23514.678885
472.560945	21769.612905
472.931667	20189.891730
473.302330	19867.071361
473.672934	19303.727460
474.043479	19721.984433
474.413965	19512.940386
474.784393	19321.177414
475.154761	20000.888790
475.525070	20122.453694
475.895321	19957.103848
476.265513	20487.632358
476.635645	21082.790982
477.005719	21141.933798
477.375734	21509.638081
477.745691	22137.667547
478.115588	22786.332977
478.485427	23971.369615
478.855207	25777.015141
479.224928	27599.820754
479.594591	29035.422902
479.964194	28683.041207
480.333739	29156.718105
480.703226	29377.424862
481.072653	29804.032506
481.442022	30326.669090
481.811333	30728.590203
482.180584	30310.842387
482.549777	30090.798542
482.918912	29843.088845
483.287988	29789.108170
483.657005	29644.633742
484.025964	29276.334603
484.394864	29465.750918
484.763706	29395.015968
485.132489	28857.850779
485.501213	28943.086608
485.869879	29104.713562
486.238487	29032.362922
486.607036	29307.554469
486.975527	28987.811725
487.343959	29339.502782
487.712333	29698.921928
488.080648	29638.906991
488.448905	30085.578428
488.817104	29961.266094
489.185244	30792.935491
489.553326	31738.479512
489.921350	33626.840290
490.289315	36156.332494
490.657222	37069.575322
491.025070	37651.447984
491.392861	37394.165136
491.760593	36622.956817
492.128267	35622.499507
492.495883	34643.840147
492.863440	33727.678491
493.230939	32747.237082
493.598380	32177.989990
493.965763	32015.790865
494.333088	31522.176204
494.700354	31320.383856
495.067563	31283.170059
495.434713	31159.258497
495.801805	31439.768462
496.168839	31279.532866
496.535815	31112.816867
496.902733	31247.322414
497.269593	31065.987069
497.636395	31215.986601
498.003139	31490.313591
498.369825	31244.363256
498.736453	31640.565181
499.103023	31483.934011
499.469535	31577.220563
499.835989	31692.839426
500.202385	31553.549825
500.568723	31596.074478
500.935003	31909.130132
501.301226	31767.168719
501.667390	32509.776051
502.033497	32711.107133
502.399546	32517.242000
502.765537	32100.278083
503.131470	32589.345623
503.497345	33016.200284
503.863163	31949.597994
504.228923	32743.824221
504.594625	33131.816627
504.960269	32590.767228
505.325856	33261.429733
505.691385	32927.533949
506.056856	33244.854419
506.422270	33738.471601
506.787625	33241.108842
507.152924	33709.860532
507.518164	33877.627612
507.883347	33458.397696
508.248472	33603.189717
508.613540	34297.490192
508.978550	34520.828431
509.343503	34348.486505
509.708398	34709.929674
510.073236	35291.928365
510.438016	35384.413373
510.802738	35047.936518
511.167403	35602.662567
511.532010	35846.379670
511.896561	36368.854937
512.261053	37102.738552
512.625488	36886.483135
512.989866	36792.790770
513.354186	36846.630293
513.718449	36810.712072
514.082655	37685.253962
514.446803	37357.281534
514.810894	37979.054928
515.174927	37978.117274
515.538904	37971.982190
515.902822	38596.596275
516.266684	38264.832899
516.630488	38627.115420
516.994235	38608.566494
517.357925	39178.489101
517.721558	39415.902242
518.085133	39787.014344
518.448651	39964.276437
518.812112	39846.114311
519.175516	39965.100665
519.538863	40417.718143
519.902152	40465.452828
520.265385	40995.187357
520.628560	40971.703142
520.991678	40918.450913
521.354739	41113.445264
521.717743	41466.220169
522.080690	41320.450165
522.443580	41998.308917
522.806413	41983.082112
523.169189	42094.337856
523.531908	42280.900878
523.894569	42128.519400
524.257174	42272.172120
524.619722	42579.082607
524.982213	42713.361302
525.344647	42722.657189
525.707025	42799.655773
526.069345	43199.197463
526.431608	43086.134464
526.793815	43427.105507
527.155964	42940.213225
527.518057	43164.073223
527.880093	42972.799243
528.242072	43559.206423
528.603995	43248.963733
528.965860	43104.930406
529.327669	43284.912201
529.689421	43301.484995
530.051117	43230.820621
530.412755	43428.068368
530.774337	43429.774798
531.135862	43325.359899
531.497331	43417.597891
531.858743	43359.790980
532.220098	43711.040936
532.581396	43361.920868
532.942638	43087.193106
533.303824	43263.870425
533.664953	43265.357566
534.026025	42876.278791
534.387040	43383.499527
534.747999	43350.472407
535.108902	43626.100014
535.469748	42882.310532
535.830537	43080.952158
536.191270	43246.934669
536.551947	42919.383177
536.912567	43104.388482
537.273131	43167.234027
537.633638	42737.851227
537.994089	42829.872449
538.354483	42501.612676
538.714821	43037.941033
539.075103	43225.340886
539.435328	43010.791899
539.795497	42685.705532
540.155609	42716.391035
540.515665	43198.169067
540.875665	42419.502362
541.235609	42587.576952
541.595496	42636.965136
541.955328	43079.192795
542.315102	42445.676033
542.674821	42246.860487
543.034483	42051.369582
543.394090	41969.226500
543.753640	41836.838238
544.113134	42711.543966
544.472571	41778.537294
544.831953	42709.255282
545.191278	41911.049064
545.550548	41515.620957
545.909761	41984.972544
546.268918	41988.755930
546.628019	42240.720361
546.987064	41595.553492
547.346053	40872.624304
547.704986	41571.920563
548.063863	41113.588937
548.422684	41164.103819
548.781449	40643.188790
549.140158	40998.355722
549.498811	40645.580817
549.857408	39958.373245
550.215949	40567.947048
550.574434	40294.320779
550.932864	40115.836206
551.291237	40590.861613
551.649555	40213.853881
552.007817	40217.110467
552.366022	39821.977266
552.724173	39732.514430
553.082267	39894.925283
553.440305	40090.819480
553.798288	39262.018500
554.156215	39441.884349
554.514086	39449.393147
554.871902	38933.728479
555.229661	38922.794217
555.587365	38489.476797
555.945014	38421.673277
556.302606	38276.644322
556.660143	38165.955707
557.017625	38192.797331
557.375050	37762.260107
557.732421	37905.822087
558.089735	37787.097872
558.446994	37494.768923
558.804197	37708.957467
559.161345	37407.254492
559.518437	36685.283123
559.875474	36708.787503
560.232455	36703.670732
560.589381	36540.546555
560.946251	36213.542028
561.303065	36527.028701
561.659825	36088.027380
562.016528	35731.806846
562.373177	35217.551181
562.729770	35522.319178
563.086307	34946.117814
563.442789	35163.131925
563.799216	34854.724215
564.155587	34570.786266
564.511904	34346.207903
564.868164	34181.969631
565.224370	34206.567942
565.580520	33793.929335
565.936615	33729.400045
566.292654	33262.523664
566.648638	33318.495595
567.004567	33058.472879
567.360441	32903.154929
567.716260	32483.249499
568.072023	32555.363205
568.427732	32267.563732
568.783385	31733.017422
569.138982	31812.438280
569.494525	31681.776614
569.850013	31206.055528
570.205445	31088.354668
570.560823	30704.483406
570.916145	30406.742777
571.271412	30348.426710
571.626625	29904.159903
571.981782	29733.831918
572.336884	29268.243552
572.691931	29246.775798
573.046923	28816.732607
573.401860	28488.089706
573.756743	28278.039948
574.111570	28158.557041
574.466342	27886.143169
574.821059	27760.232790
575.175722	27238.004540
575.530330	27064.646821
575.884882	26655.511816
576.239380	26384.645578
576.593823	26228.551291
576.948211	25972.503525
577.302544	25506.247206
577.656823	25273.638285
578.011047	25218.833381
578.365216	24922.274903
578.719330	24553.753954
579.073389	24334.156251
579.427394	24141.521160
579.781344	23892.273911
580.135239	23557.513569
580.489080	23384.785994
580.842866	22924.639554
581.196597	22961.860913
581.550273	22761.674173
581.903895	22511.960618
582.257463	22523.459489
582.610975	22045.479967
582.964434	21999.975992
583.317837	21558.484341
583.671186	21354.667970
584.024481	21277.220724
584.377721	20869.797190
584.730906	20768.255749
585.084037	20639.817231
585.437113	20324.729993
585.790135	20181.813281
586.143103	19787.567324
586.496016	19669.153141
586.848874	19521.001191
587.201679	19355.500110
587.554428	18946.591957
587.907124	18873.013796
588.259765	18600.504142
588.612352	18484.882758
588.964884	18078.243125
589.317362	18009.940531
589.669786	17830.253643
590.022155	17588.547961
590.374470	17580.950942
590.726731	17247.062720
591.078937	16825.206363
591.431090	16774.971265
591.783188	16427.098882
592.135232	16185.920000
592.487222	16109.153309
592.839157	15996.105434
593.191038	15709.614140
593.542866	15477.078316
593.894639	15123.453977
594.246358	15059.086004
594.598022	14892.271703
594.949633	14608.300986
595.301190	14446.316110
595.652692	14280.341161
596.004141	14266.629222
596.355535	13788.538794
596.706876	13641.667298
597.058162	13414.719593
597.409395	13403.818097
597.760573	13326.201972
598.111698	13073.937592
598.462768	12891.611661
598.813785	12753.095877
599.164748	12506.366684
599.515657	12438.311107
599.866511	12174.666322
600.217312	12208.663864
600.568060	11827.605565
600.918753	11897.997717
601.269392	11745.071795
601.619978	11551.136086
601.970510	11474.611370
602.320988	11377.982533
602.671412	11317.362658
603.021783	11171.663230
603.372100	10944.975144
603.722363	10842.112921
604.072572	10739.898485
604.422728	10620.082861
604.772830	10455.978180
605.122878	10375.869204
605.472872	10240.620088
605.822813	10177.701447
606.172701	10013.773206
606.522534	9967.341658
606.872314	9898.686184
607.222041	9757.879195
607.571714	9714.225324
607.921333	9520.463534
608.270899	9450.267988
608.620411	9415.080734
608.969870	9276.874981
609.319276	9178.517028
609.668627	9091.357998
610.017926	9057.211743
610.367171	8984.475455
610.716362	8900.625943
611.065500	8789.269375
611.414585	8731.228050
611.763616	8661.690374
612.112594	8560.025424
612.461518	8491.170824
612.810389	8462.653017
613.159207	8341.294800
613.507971	8248.517405
613.856682	8242.392403
614.205340	8128.812686
614.553945	8144.480592
614.902496	7976.032957
615.250994	7946.769059
615.599439	7876.560909
615.947830	7819.046385
616.296169	7736.726863
616.644454	7664.035945
616.992686	7612.054088
617.340864	7592.930470
617.688990	7466.024463
618.037063	7482.108265
618.385082	7393.734317
618.733048	7359.192331
619.080961	7280.504961
619.428821	7215.080866
619.776628	7147.088304
620.124382	7057.774181
620.472083	7000.083216
620.819731	6941.613393
621.167326	6820.643345
621.514868	6743.478403
621.862357	6619.798735
622.209793	6555.035031
622.557176	6443.275171
622.904506	6346.452250
623.251783	6252.681747
623.599007	6152.209030
623.946179	6079.936528
624.293297	5994.834290
624.640363	5885.499224
624.987376	5819.475233
625.334336	5744.616618
625.681243	5655.816693
626.028097	5590.039718
626.374899	5534.213980
626.721647	5474.604857
627.068343	5413.800980
627.414987	5344.593499
627.761577	5278.675371
628.108115	5261.474954
628.454600	5165.693031
628.801032	5132.665912
629.147412	5084.089353
629.493739	5037.693094
629.840014	4970.930573
630.186236	4959.605621
630.532405	4891.582812
630.878521	4863.377556
631.224585	4815.552129
631.570597	4765.216208
631.916556	4742.019339
632.262462	4703.076425
632.608316	4667.967309
632.954117	4623.746308
633.299866	4589.423612
633.645562	4549.487591
633.991206	4485.361593
634.336797	4429.588788
634.682336	4383.676479
635.027823	4336.246783
635.373257	4295.179023
635.718639	4244.533071
636.063968	4210.931260
636.409245	4142.338801
636.754470	4109.440231
637.099642	4071.558480
637.444762	4017.971015
637.789829	3995.616018
638.134845	3953.028350
638.479808	3923.096499
638.824719	3896.859814
639.169577	3850.070345
639.514383	3834.883869
639.859137	3793.072539
640.203839	3774.881535
640.548489	3746.320878
640.893086	3724.112075
641.237632	3690.626210
641.582125	3675.419570
641.926566	3648.187257
642.270955	3626.240593
642.615292	3604.674537
642.959576	3585.684511
643.303809	3564.158784
643.647990	3554.671332
643.992118	3536.089639
644.336195	3516.325795
644.680219	3500.884741
645.024192	3487.442504
645.368112	3489.673215
645.711981	3475.066472
646.055797	3483.628872
646.399562	3465.495841
646.743274	3479.316164
647.086935	3478.292810
647.430544	3468.475163
647.774101	3456.794810
648.117606	3446.163016
648.461059	3439.667489
648.804460	3416.911721
649.147810	3388.746794
649.491108	3363.901468
649.834354	3345.622244
650.177548	3314.803150
650.520690	3286.315589
650.863781	3274.486522
651.206820	3260.164604
651.549807	3240.332705
651.892742	3217.594580
652.235626	3205.556305
652.578458	3194.392670
652.921238	3171.435255
653.263967	3169.421314
653.606644	3152.246103
653.949269	3139.691109
654.291843	3121.427009
654.634365	3120.043212
654.976836	3107.120214
655.319255	3100.806169
655.661622	3088.707400
656.003938	3081.080134
656.346203	3067.554718
656.688416	3065.124882
657.030577	3052.491751
657.372687	3045.514794
657.714746	3040.748383
658.056753	3035.976931
658.398708	3017.992614
658.740612	3017.188550
659.082465	3015.726616
659.424266	3007.736387
659.766016	2996.953359
660.107715	2993.890858
660.449362	2985.928355
660.790958	2987.503716
661.132503	2978.437201
661.473996	2977.280256
661.815438	2973.718681
662.156829	2970.883032
662.498168	2963.230560
662.839456	2960.737709
663.180693	2956.888788
663.521879	2953.549024
663.863013	2947.194650
664.204097	2943.781788
664.545129	2944.865637
664.886110	2941.906479
665.227040	2939.499328
665.567918	2932.968513
665.908746	2931.962803
666.249522	2930.052206
666.590248	2926.409972
666.930922	2925.232863
667.271545	2922.709765
667.612118	2922.445105
667.952639	2916.534352
668.293109	2911.203332
668.633528	2907.281314
668.973896	2902.708988
669.314213	2900.037176
669.654480	2896.407545
669.994695	2891.580640
670.334859	2887.714075
670.674973	2880.641337
671.015035	2881.833569
671.355047	2876.605893
671.695008	2874.324771
672.034918	2870.430479
672.374777	2870.357383
672.714585	2865.500231
673.054342	2868.078781
673.394049	2862.430168
673.733705	2862.896475
674.073310	2855.954806
674.412864	2855.107892
674.752368	2850.265864
675.091820	2855.856504
675.431223	2841.620285
675.770574	2842.008454
676.109875	2832.957062
676.449125	2831.104438
676.788324	2825.087821
677.127473	2814.067859
677.466571	2811.282621
677.805619	2813.117601
678.144616	2811.897642
678.483562	2809.573670
678.822458	2806.614513
679.161303	2799.388019
679.500098	2797.679068
679.838842	2794.989612
680.177535	2793.784776
680.516179	2794.727472
680.854771	2794.787966
681.193314	2798.437761
681.531805	2805.109728
681.870247	2811.776654
682.208638	2819.771924
682.546978	2820.361739
682.885268	2821.490958
683.223508	2817.717654
683.561697	2810.465954
683.899836	2808.557878
684.237925	2803.171405
684.575963	2800.371044
684.913951	2794.840898
685.251889	2791.415434
685.589776	2793.875517
685.927614	2794.432565
686.265401	2790.142543
686.603137	2790.840742
686.940824	2793.789817
687.278460	2791.796041
687.616046	2794.253604
687.953582	2799.516568
688.291068	2798.152936
688.628504	2801.112093
688.965889	2800.025725
689.303224	2792.239663
689.640510	2792.693367
689.977745	2787.316976
690.314930	2777.010337
690.652065	2773.116046
690.989150	2765.163625
691.326185	2756.641555
691.663170	2751.857500
692.000105	2745.137642
692.336990	2735.526682
692.673825	2734.422669
693.010610	2728.668192
693.347345	2719.420195
693.684030	2711.276211
694.020665	2712.130687
694.357251	2702.071064
694.693786	2704.563915
695.030272	2701.670293
695.366707	2696.634180
695.703093	2691.950948
696.039429	2690.637727
696.375716	2690.720907
696.711952	2690.080680
697.048139	2686.824095
697.384276	2683.990966
697.720363	2685.578930
698.056400	2681.427539
698.392388	2681.493074
698.728326	2679.758917
699.064214	2677.724812
699.400053	2676.769513
699.735842	2672.257681
700.071581	2669.626198
700.407270	2668.857422
700.742910	2665.041269
701.078501	2662.603871
701.414042	2662.593789
701.749533	2660.194199
702.084974	2656.171359
702.420366	2657.570279
702.755709	2654.931235
703.091002	2650.235400
703.426246	2651.785555
703.761440	2651.702376
704.096584	2649.726243
704.431679	2643.684421
704.766725	2646.192395
705.101721	2644.644760
705.436668	2644.979997
705.771565	2642.645943
706.106413	2645.322796
706.441212	2642.424132
706.775961	2645.380769
707.110661	2643.122332
707.445311	2648.539052
707.779913	2643.321457
708.114465	2646.084010
708.448967	2648.839000
708.783421	2653.635658
709.117825	2654.674136
709.452180	2653.779331
709.786485	2657.245124
710.120742	2661.789725
710.454949	2659.140598
710.789107	2664.005312
711.123216	2666.258707
711.457275	2676.928310
711.791286	2680.699093
712.125247	2681.979546
712.459159	2678.239010
712.793023	2686.012469
713.126837	2674.803463
713.460602	2677.031653
713.794318	2677.109791
714.127985	2675.221879
714.461602	2664.816937
714.795171	2664.663182
715.128691	2658.404590
715.462162	2651.553662
715.795584	2649.723723
716.128957	2647.770276
716.462281	2645.461427
716.795556	2642.073772
717.128782	2636.926754
717.461960	2633.889459
717.795088	2633.834006
718.128167	2631.184880
718.461198	2628.480301
718.794180	2622.612397
719.127113	2621.362191
719.459997	2621.236162
719.792833	2616.505040
720.125619	2617.755246
720.458357	2614.526387
720.791046	2614.294494
721.123686	2612.779627
721.456278	2610.642178
721.788821	2610.677466
722.121315	2608.459358
722.453761	2608.242588
722.786158	2609.749893
723.118506	2607.685541
723.450805	2606.460541
723.783056	2607.105808
724.115259	2606.405088
724.447412	2605.061620
724.779518	2607.196549
725.111574	2606.889039
725.443582	2610.712754
725.775542	2610.077568
726.107453	2613.389607
726.439315	2610.478340
726.771129	2617.271295
727.102895	2614.647374
727.434612	2616.885647
727.766281	2618.561830
728.097901	2624.628859
728.429473	2626.708335
728.760996	2625.400156
729.092471	2624.770011
729.423897	2628.175311
729.755276	2622.388066
730.086606	2624.328910
730.417887	2627.456946
730.749120	2633.975158
731.080305	2633.758389
731.411442	2636.775519
731.742530	2637.866929
732.073570	2639.467495
732.404562	2639.880870
732.735506	2642.401447
733.066401	2638.915489
733.397249	2635.699233
733.728048	2628.984416
734.058798	2627.444343
734.389501	2618.655092
734.720156	2620.104423
735.050762	2611.509256
735.381320	2608.287959
735.711831	2604.464244
736.042293	2600.270004
736.372707	2602.939295
736.703073	2600.343100
737.033391	2600.113728
737.363661	2599.009715
737.693883	2601.631115
738.024056	2601.595827
738.354182	2602.538523
738.684260	2606.979779
739.014290	2608.287959
739.344272	2611.960439
739.674207	2614.170985
740.004093	2615.166613
740.333931	2615.287601
740.663722	2616.759618
740.993464	2617.067128
741.323159	2614.697786
741.652806	2614.266767
741.982405	2610.271653
742.311956	2610.732918
742.641460	2608.381220
742.970915	2604.968359
743.300323	2599.775971
743.629683	2598.563573
743.958996	2598.636670
744.288260	2594.470156
744.617477	2592.511668
744.946647	2594.820516
745.275768	2595.922008
745.604842	2587.740216
745.933869	2589.308015
746.262847	2590.278437
746.591778	2590.038982
746.920662	2588.372881
747.249498	2588.100658
747.578286	2588.113261
747.907027	2588.463621
748.235720	2591.818509
748.564365	2593.517378
748.892963	2592.708273
749.221514	2592.196596
749.550017	2594.139961
749.878473	2590.323807
750.206881	2590.235587
750.535242	2586.603436
750.863555	2586.850452
751.191821	2589.464290
751.520039	2586.361460
751.848210	2585.882551
752.176334	2585.128898
752.504411	2587.140318
752.832440	2585.106213
753.160421	2584.949937
753.488356	2585.701069
753.816243	2583.132601
754.144082	2583.235945
754.471875	2582.089082
754.799620	2582.270564
755.127318	2581.529514
755.454969	2580.054977
755.782572	2580.223855
756.110129	2578.716550
756.437638	2581.085893
756.765100	2578.144379
757.092515	2580.244020
757.419882	2580.929617
757.747203	2581.317786
758.074477	2583.480441
758.401703	2579.639082
758.728882	2584.019844
759.056014	2588.143508
759.383099	2586.041347
759.710138	2583.341809
760.037129	2581.035481
760.364073	2588.030082
760.690970	2581.058166
761.017820	2588.624938
761.344623	2589.630648
761.671379	2594.084508
761.998088	2594.757502
762.324751	2608.219903
762.651366	2628.182872
762.977935	2662.530774
763.304456	2686.350226
763.630931	2703.180118
763.957359	2696.384643
764.283740	2683.552386
764.610074	2668.680982
764.936362	2649.547282
765.262602	2634.496918
765.588796	2618.455966
765.914943	2606.100098
766.241044	2598.523244
766.567097	2591.193406
766.893104	2583.331727
767.219064	2578.439287
767.544978	2574.005592
767.870845	2568.508214
768.196665	2565.370096
768.522438	2566.670713
768.848165	2562.993192
769.173846	2561.039744
769.499479	2561.296843
769.825066	2560.336503
770.150607	2559.403890
770.476101	2555.832232
770.801548	2555.300391
771.126949	2555.665874
771.452303	2554.690411
771.777611	2551.582540
772.102872	2550.360060
772.428087	2547.849565
772.753256	2548.812426
773.078378	2548.699000
773.403453	2547.093392
773.728482	2547.158927
774.053465	2543.496529
774.378401	2542.712630
774.703291	2541.107022
775.028135	2542.674821
775.352932	2540.829759
775.677683	2542.873947
776.002388	2536.627957
776.327046	2535.786084
776.651658	2535.932278
776.976224	2532.842050
777.300743	2535.113090
777.625216	2537.278266
777.949643	2536.496887
778.274024	2538.152906
778.598359	2535.738193
778.922647	2538.888914
779.246889	2536.232226
779.571086	2534.823224
779.895236	2535.471012
780.219339	2537.578214
780.543397	2538.876312
780.867409	2536.743903
781.191374	2537.343801
781.515294	2536.264994
781.839167	2540.068544
782.162995	2540.676003
782.486776	2538.984696
782.810511	2535.148378
783.134201	2537.598379
783.457844	2536.156609
783.781441	2534.853471
784.104993	2536.542257
784.428498	2534.845909
784.751958	2535.100487
785.075372	2535.160981
785.398739	2535.271887
785.722061	2535.496218
786.045337	2532.804242
786.368568	2535.710467
786.691752	2532.965559
787.014891	2535.660055
787.337983	2543.035263
787.661030	2545.984338
787.984031	2553.170503
788.306987	2556.346430
788.629897	2557.921791
788.952760	2559.754250
789.275579	2558.093190
789.598351	2554.965154
789.921078	2552.361398
790.243759	2548.356201
790.566395	2544.950902
790.888984	2542.085006
791.211529	2540.764224
791.534027	2540.676003
791.856480	2534.913965
792.178888	2532.731145
792.501249	2533.978831
792.823566	2530.172759
793.145836	2530.782739
793.468062	2534.293903
793.790241	2533.507483
794.112375	2534.538399
794.434464	2533.421783
794.756507	2535.344983
795.078505	2534.735004
795.400457	2535.360107
795.722364	2541.774975
796.044226	2544.567774
796.366042	2545.855789
796.687812	2547.892415
797.009538	2547.065666
797.331218	2548.215049
797.652852	2546.269164
797.974442	2545.165151
798.295986	2543.927548
798.617484	2541.774975
798.938938	2543.824204
799.260346	2539.740869
799.581709	2538.909079
799.903026	2539.241795
800.224299	2537.936136
800.545526	2531.488501
800.866708	2534.200641
801.187845	2533.739376
801.508936	2532.075795
801.829983	2531.528830
802.150984	2529.973634
802.471940	2530.868439
802.792851	2528.650331
803.113717	2530.586134
803.434538	2530.533202
803.755314	2528.473891
804.076045	2529.779549
804.396731	2527.614374
804.717372	2528.778880
805.037967	2528.975485
805.358518	2529.542615
805.679024	2531.271731
805.999485	2528.799045
806.319901	2528.201668
806.640272	2531.710311
806.960598	2532.857174
807.280879	2533.250384
807.601115	2533.194931
807.921306	2532.055630
808.241453	2532.204344
808.561554	2529.008253
808.881611	2530.497914
809.201623	2527.972296
809.521590	2532.360620
809.841513	2534.147709
810.161390	2532.254756
810.481223	2528.428520
810.801011	2529.277955
811.120755	2530.941535
811.440453	2529.086391
811.760107	2530.288706
812.079716	2529.456916
812.399281	2525.797038
812.718801	2529.754344
813.038276	2528.209230
813.357707	2528.582275
813.677093	2528.451205
813.996434	2529.277955
814.315731	2525.822244
814.634983	2527.163191
814.954191	2528.889786
815.273354	2527.117820
815.592473	2529.214940
815.911547	2531.939684
816.230577	2534.598892
816.549562	2533.699047
816.868502	2537.469830
817.187399	2537.225334
817.506250	2537.812628
817.825058	2540.050900
818.143821	2541.727084
818.462539	2545.341591
818.781213	2547.731098
819.099843	2554.657644
819.418429	2565.859087
819.736970	2572.571384
820.055466	2588.125864
820.373919	2603.687906
820.692327	2624.880917
821.010691	2661.209992
821.329011	2739.657907
821.647286	2871.574821
821.965517	3042.840462
822.283704	3167.200686
822.601847	3239.591655
822.919945	3195.073225
823.237999	3124.265178
823.556010	3042.762324
823.873976	2963.265848
824.191897	2887.875392
824.509775	2826.978254
824.827609	2780.876902
825.145398	2744.358783
825.463144	2726.445043
825.780845	2719.589074
826.098502	2730.929150
826.416116	2764.483070
826.733685	2801.149902
827.051210	2821.337203
827.368692	2813.357056
827.686129	2782.220369
828.003522	2739.617578
828.320872	2699.462267
828.638177	2671.574604
828.955439	2643.949081
829.272656	2623.605505
829.589830	2605.180087
829.906960	2588.990422
830.224046	2575.419636
830.541088	2566.257339
830.858086	2559.393808
831.175041	2554.816440
831.491952	2552.812581
831.808819	2552.184958
832.125642	2553.949362
832.442421	2561.856411
832.759157	2581.279977
833.075849	2606.876436
833.392497	2643.412198
833.709101	2671.746003
834.025662	2678.541479
834.342179	2663.513799
834.658653	2640.944553
834.975083	2621.866307
835.291469	2603.297217
835.607811	2587.077304
835.924110	2576.097671
836.240366	2565.299519
836.556578	2555.489434
836.872746	2548.988866
837.188871	2540.350849
837.504952	2536.098636
837.820990	2530.583613
838.136984	2528.642769
838.452935	2527.770650
838.768842	2526.737213
839.084706	2529.766947
839.400526	2540.560057
839.716303	2558.987995
840.032037	2572.278997
840.347727	2570.867474
840.663373	2568.566187
840.978977	2554.609753
841.294537	2544.625748
841.610054	2539.375386
841.925527	2531.891793
842.240957	2528.400794
842.556344	2524.819054
842.871687	2519.876203
843.186987	2513.657939
843.502244	2512.364883
843.817458	2511.389420
844.132629	2508.916734
844.447756	2509.125942
844.762840	2506.396157
845.077881	2506.222237
845.392879	2503.648728
845.707833	2503.310971
846.022745	2501.092863
846.337613	2503.457165
846.652438	2499.033552
846.967221	2504.097391
847.281960	2502.176712
847.596656	2500.881135
847.911309	2499.872904
848.225919	2500.984479
848.540485	2500.510610
848.855009	2499.759478
849.169490	2499.910713
849.483928	2497.622029
849.798323	2498.090856
850.112675	2499.971207
850.426984	2497.117914
850.741251	2498.302585
851.055474	2499.618326
851.369654	2499.799807
851.683792	2496.109683
851.997887	2500.021618
852.311938	2499.618326
852.625947	2499.343583
852.939914	2501.836434
853.253837	2500.140085
853.567718	2499.462050
853.881555	2494.746051
854.195350	2501.022287
854.509103	2496.896103
854.822812	2496.641525
855.136479	2498.635301
855.450103	2499.835096
855.763685	2497.385095
856.077224	2497.276710
856.390720	2496.187821
856.704173	2493.969713
857.017584	2501.107987
857.330953	2497.755620
857.644278	2500.034221
857.957561	2503.517658
858.270802	2498.168994
858.584000	2498.370640
858.897155	2500.407267
859.210268	2499.963645
859.523339	2498.655466
859.836367	2498.345435
860.149352	2501.599499
860.462295	2500.288799
860.775195	2502.315343
861.088054	2499.071361
861.400869	2499.525065
861.713642	2499.973727
862.026373	2498.070692
862.339062	2498.421052
862.651708	2498.176556
862.964312	2499.855260
863.276873	2503.278204
863.589392	2499.603203
863.901869	2502.101094
864.214303	2505.650067
864.526696	2504.929182
864.839045	2503.326095
865.151353	2503.280724
865.463619	2504.147803
865.775842	2507.051507
866.088023	2504.344408
866.400162	2504.684686
866.712258	2504.727535
867.024313	2503.318533
867.336325	2502.338028
867.648296	2504.427587
867.960224	2503.857936
868.272110	2505.950015
868.583954	2503.873060
868.895755	2504.019253
869.207515	2504.707371
869.519233	2508.364728
869.830909	2505.816425
870.142542	2504.810714
870.454134	2506.134017
870.765684	2504.044459
871.077191	2508.006806
871.388657	2506.933040
871.700081	2506.411281
872.011463	2507.832886
872.322803	2504.631753
872.634101	2512.455624
872.945357	2513.035357
873.256571	2512.458145
873.567744	2514.225069
873.878874	2511.157527
874.189963	2514.363701
874.501010	2514.449401
874.812015	2514.209946
875.122979	2514.010820
875.433900	2514.149452
875.744780	2516.937210
876.055618	2513.627693
876.366415	2518.847807
876.677169	2515.250944
876.987882	2519.823271
877.298554	2519.273785
877.609183	2523.367202
877.919771	2522.905936
878.230317	2525.524816
878.540822	2531.624612
878.851285	2534.694674
879.161707	2541.152393
879.472087	2555.955741
879.782425	2570.186918
880.092722	2603.244284
880.402977	2651.651964
880.713191	2711.195553
881.023363	2781.900256
881.333494	2830.590241
881.643583	2854.571009
881.953631	2858.324148
882.263637	2846.328723
882.573602	2820.505412
882.883526	2794.805610
883.193408	2771.419697
883.503248	2745.183012
883.813048	2720.584702
884.122806	2697.604602
884.432522	2670.858760
884.742197	2651.679691
885.051831	2631.073974
885.361424	2612.411623
885.670975	2593.086359
885.980485	2581.852148
886.289954	2575.452403
886.599382	2561.982440
886.908768	2552.331151
887.218113	2545.288659
887.527417	2540.436549
887.836680	2529.401463
888.145901	2535.052596
888.455082	2530.008922
888.764221	2526.273427
889.073319	2520.768487
889.382376	2525.035824
889.691392	2523.309228
890.000366	2521.159176
890.309300	2523.362161
890.618193	2523.576410
890.927044	2521.552386
891.235855	2521.426358
891.544625	2521.179341
891.853353	2524.798889
892.162041	2522.699249
892.470687	2527.125382
892.779293	2530.528161
893.087858	2537.245498
893.396381	2543.932589
893.704864	2555.582695
894.013306	2578.058680
894.321707	2597.000815
894.630068	2614.047477
894.938387	2620.207767
895.246665	2621.342027
895.554903	2612.872888
895.863100	2601.348811
896.171256	2588.811461
896.479371	2585.789289
896.787446	2577.630182
897.095480	2566.592575
897.403473	2559.267779
897.711425	2553.954403
898.019336	2548.565409
898.327207	2545.568443
898.635038	2539.466127
898.942827	2536.564942
899.250576	2533.857843
899.558284	2525.726462
899.865952	2529.527492
900.173579	2524.705628
900.481165	2520.420647
900.788711	2518.172293
901.096216	2516.972498
901.403681	2516.601973
901.711105	2518.338651
902.018489	2515.356808
902.325832	2515.586181
902.633135	2515.792868
902.940397	2522.548014
903.247619	2530.197965
903.554800	2560.598643
903.861941	2595.672471
904.169041	2628.603809
904.476101	2644.138124
904.783121	2643.576036
905.090100	2634.852319
905.397039	2616.479834
905.703938	2602.382247
906.010796	2589.882706
906.317614	2579.858372
906.624391	2567.928481
906.931129	2561.674930
907.237826	2553.089845
907.544483	2544.822352
907.851099	2537.852957
908.157675	2528.791483
908.464211	2525.734023
908.770707	2517.106089
909.077163	2512.992507
909.383578	2511.275994
909.689954	2507.215345
909.996289	2508.309275
910.302584	2503.270642
910.608839	2501.271824
910.915054	2501.302071
911.221229	2502.511948
911.527363	2503.005981
911.833458	2502.022956
912.139513	2502.663183
912.445527	2502.884994
912.751502	2503.247957
913.057436	2505.536641
913.363331	2510.860099
913.669186	2514.822446
913.975000	2519.346882
914.280775	2522.389218
914.586510	2534.825744
914.892205	2551.378373
915.197859	2570.023081
915.503475	2593.761874
915.809050	2617.951851
916.114585	2634.118831
916.420081	2640.823566
916.725536	2644.695172
917.030952	2636.861219
917.336328	2629.465846
917.641665	2620.013683
917.946961	2609.192846
918.252218	2602.132710
918.557435	2588.088055
918.862612	2584.513877
919.167750	2576.069945
919.472848	2568.225909
919.777906	2559.383725
920.082925	2553.546069
920.387904	2543.050387
920.692843	2539.816487
920.997743	2531.773326
921.302603	2527.019518
921.607423	2524.408200
921.912204	2520.350071
922.216946	2515.767662
922.521647	2515.989473
922.826310	2512.044770
923.130932	2507.638802
923.435516	2507.585870
923.740059	2503.023625
924.044564	2504.117556
924.349028	2505.650067
924.653454	2502.401043
924.957840	2501.894407
925.262186	2499.262925
925.566493	2496.961638
925.870761	2496.777636
926.174989	2498.345435
926.479178	2494.861997
926.783328	2496.076915
927.087438	2493.228663
927.391509	2494.889724
927.695541	2492.593478
927.999533	2494.640187
928.303486	2490.740854
928.607400	2491.555000
928.911275	2490.486276
929.215110	2488.989053
929.518906	2490.892089
929.822663	2488.931080
930.126381	2487.824547
930.430060	2488.673981
930.733699	2488.552993
931.037299	2489.750267
931.340861	2487.297746
931.644383	2489.599033
931.947866	2489.493168
932.251309	2490.113230
932.554714	2487.955617
932.858080	2488.137098
933.161407	2483.269864
933.464694	2484.986377
933.767943	2484.099134
934.071153	2485.765235
934.374323	2487.769094
934.677455	2487.204485
934.980548	2489.614156
935.283602	2488.389156
935.586617	2484.235245
935.889593	2487.585092
936.192530	2485.740029
936.495428	2489.409989
936.798287	2485.490492
937.101108	2489.392345
937.403890	2490.193889
937.706632	2490.521564
938.009336	2495.421565
938.312002	2492.202789
938.614628	2494.751092
938.917216	2496.805362
939.219765	2498.970538
939.522275	2496.334014
939.824747	2499.688902
940.127179	2497.886690
940.429573	2498.461381
940.731929	2498.300064
941.034246	2500.377020
941.336524	2498.224447
941.638763	2499.825013
941.940964	2499.877945
942.243126	2496.404590
942.545250	2496.422234
942.847335	2496.639004
943.149381	2494.592296
943.451389	2494.536843
943.753359	2494.123468
944.055290	2494.239415
944.357182	2491.665906
944.659036	2492.764877
944.960851	2491.844867
945.262628	2492.669095
945.564367	2491.058447
945.866067	2492.313694
946.167729	2491.212202
946.469352	2493.299240
946.770937	2489.402428
947.072484	2488.928559
947.373992	2490.191368
947.675462	2490.582058
947.976893	2488.434526
948.278286	2485.402272
948.579641	2486.110554
948.880958	2483.232055
949.182236	2490.556852
949.483476	2488.134577
949.784678	2489.480566
950.085841	2491.171873
950.386967	2491.227325
950.688054	2490.380412
950.989103	2490.544249
951.290114	2488.583240
951.591087	2491.736482
951.892021	2487.481748
952.192917	2493.442912
952.493776	2492.568272
952.794596	2495.290495
953.095378	2491.391163
953.396122	2496.150012
953.696828	2491.766729
953.997496	2490.700525
954.298126	2493.521050
954.598718	2492.704383
954.899272	2491.711276
955.199788	2489.694815
955.500266	2492.462408
955.800706	2489.974599
956.101108	2489.006697
956.401472	2487.731285
956.701798	2485.702221
957.002087	2486.536532
957.302337	2483.315234
957.602550	2483.990749
957.902724	2482.458238
958.202861	2484.058805
958.502960	2477.361632
958.803022	2480.923207
959.103045	2479.728453
959.403031	2479.970429
959.702979	2482.521253
960.002889	2478.873978
960.302762	2478.861375
960.602596	2479.269708
960.902393	2478.853813
961.202153	2479.264667
961.501875	2479.952785
961.801559	2477.762403
962.101205	2480.187198
962.400814	2477.638895
962.700385	2477.376755
962.999918	2474.684779
963.299414	2473.479943
963.598873	2474.490695
963.898293	2473.094295
964.197677	2475.496405
964.497022	2476.582773
964.796331	2478.294245
965.095601	2477.822897
965.394835	2477.008751
965.694030	2475.201497
965.993189	2476.262660
966.292309	2476.371045
966.591393	2475.128401
966.890439	2475.236785
967.189447	2474.868781
967.488419	2478.871457
967.787353	2474.097485
968.086249	2475.526652
968.385108	2475.849286
968.683930	2475.846765
968.982714	2473.356435
969.281462	2475.824080
969.580172	2474.936837
969.878844	2478.024543
970.177480	2479.574698
970.476078	2473.369038
970.774639	2476.078658
971.073162	2476.527321
971.371649	2476.222331
971.670098	2477.376755
971.968510	2474.861219
972.266885	2477.643936
972.565223	2480.945892
972.863524	2478.470686
973.161788	2478.657208
973.460014	2479.262147
973.758204	2476.809625
974.056356	2478.062352
974.354471	2478.090078
974.652550	2476.887763
974.950591	2478.263998
975.248595	2478.281642
975.546563	2477.679224
975.844493	2479.733495
976.142386	2478.803402
976.440243	2476.844913
976.738062	2478.357260
977.035845	2476.451703
977.333590	2478.669811
977.631299	2477.205356
977.928971	2474.732670
978.226606	2470.974490
978.524204	2472.975828
978.821765	2471.002216
979.119290	2477.283494
979.416777	2477.994297
979.714228	2479.274750
980.011642	2475.957670
980.309020	2475.808956
980.606360	2475.972794
980.903664	2477.407002
981.200931	2479.110912
981.498162	2480.802219
981.795356	2483.221973
982.092513	2486.438229
982.389633	2488.089207
982.686717	2490.100628
982.983764	2492.328818
983.280775	2496.586072
983.577749	2498.176556
983.874686	2494.524240
984.171587	2499.981289
984.468451	2494.529281
984.765279	2491.426451
985.062070	2491.620535
985.358824	2487.063332
985.655543	2486.874289
985.952224	2483.758856
986.248869	2483.912611
986.545478	2481.775162
986.842050	2478.490850
987.138586	2475.957670
987.435086	2477.744759
987.731549	2474.667135
988.027975	2476.224852
988.324366	2475.496405
988.620719	2476.101343
988.917037	2472.486836
989.213318	2473.384161
989.509563	2471.241671
989.805772	2473.147227
990.101944	2470.291413
990.398080	2475.022536
990.694180	2471.569346
990.990244	2474.594038
991.286271	2471.987762
991.582262	2471.866774
991.878217	2475.806436
992.174136	2471.773513
992.470019	2472.915334
992.765865	2471.501290
993.061676	2468.206896
993.357450	2470.906434
993.653188	2469.716722
993.948890	2472.648153
994.244556	2473.605972
994.540186	2474.546147
994.835780	2474.702423
995.131337	2477.144862
995.426859	2477.890953
995.722345	2480.257775
996.017795	2479.541931
996.313208	2483.353043
996.608586	2486.087869
996.903928	2485.414875
997.199234	2485.127529
997.494504	2484.000831
997.789738	2486.367653
998.084936	2481.003865
998.380099	2482.942189
998.675225	2481.485296
998.970316	2480.328351
999.265371	2479.335243
999.560390	2478.581591
999.855373	2477.648977
1000.150320	2473.885756
1000.445232	2474.702423
1000.740108	2473.091774
1001.034948	2473.164871
1001.329752	2473.817701
1001.624521	2471.934830
1001.919254	2471.846609
1002.213951	2469.031125
1002.508613	2468.872329
1002.803239	2469.608337
1003.097829	2472.305354
1003.392384	2469.504993
1003.686903	2471.218986
1003.981386	2471.627319
1004.275834	2470.694706
1004.570246	2471.294603
1004.864623	2471.173615
1005.158964	2470.031794
1005.453270	2471.057669
1005.747540	2469.976341
1006.041775	2466.918882
1006.335974	2469.618419
1006.630138	2471.138327
1006.924266	2468.312761
1007.218359	2469.716722
1007.512416	2467.513738
1007.806438	2463.826134
1008.100425	2469.416773
1008.394376	2462.207923
1008.688292	2468.600106
1008.982172	2468.559777
1009.276017	2468.844602
1009.569827	2468.307719
1009.863602	2469.472226
1010.157341	2469.255456
1010.451045	2467.818728
1010.744714	2469.908286
1011.038347	2471.546661
1011.331945	2467.705302
1011.625508	2466.896196
1011.919036	2467.357462
1012.212528	2465.429221
1012.505986	2466.039200
1012.799408	2468.907617
1013.092795	2467.848974
1013.386147	2469.250415
1013.679464	2468.428707
1013.972745	2465.245218
1014.265992	2468.537092
1014.559204	2469.033646
1014.852380	2469.245374
1015.145521	2468.910137
1015.438628	2467.579273
1015.731699	2465.918212
1016.024736	2466.404684
1016.317737	2467.347380
1016.610703	2467.440641
1016.903635	2470.326702
1017.196531	2466.548357
1017.489393	2469.361321
1017.782219	2464.103397
1018.075011	2467.975003
1018.367768	2467.181022
1018.660490	2468.292596
1018.953177	2468.292596
1019.245829	2468.292596
