Dividing Wavelength (nm)	Counts (n)	Blue Motor Position (mm): 0.000000	Red Motor Position (mm): 6.000000	
326.493990	2056.480738
326.888308	2056.480738
327.282561	2056.480738
327.676750	2028.298168
328.070874	2030.843950
328.464933	2037.836031
328.858929	2042.748635
329.252859	2055.182641
329.646726	2068.400547
330.040528	2086.994843
330.434265	2101.783067
330.827938	2124.755605
331.221547	2144.085910
331.615091	2164.298416
332.008571	2183.999245
332.401986	2203.984900
332.795338	2224.973744
333.188625	2241.884294
333.581847	2262.777357
333.975006	2281.706889
334.368100	2298.171298
334.761129	2313.481282
335.154095	2329.202120
335.546996	2344.368432
335.939833	2358.269413
336.332606	2375.263143
336.725315	2382.784544
337.117960	2394.956410
337.510540	2404.839593
337.903056	2412.071128
338.295508	2422.203847
338.687896	2426.645103
339.080220	2431.222471
339.472480	2435.210024
339.864676	2440.689758
340.256807	2443.941302
340.648875	2444.359718
341.040879	2443.583380
341.432818	2448.412806
341.824694	2451.092179
342.216506	2447.477672
342.608253	2449.708382
342.999937	2444.871395
343.391557	2446.492126
343.783113	2446.121601
344.174605	2442.781837
344.566033	2443.384255
344.957397	2441.098092
345.348697	2440.546085
345.739934	2436.765220
346.131106	2436.692123
346.522215	2434.416042
346.913260	2433.128027
347.304241	2429.808428
347.695159	2429.316915
348.086012	2429.085022
348.476802	2423.932963
348.867528	2422.491193
349.258191	2420.590678
349.648789	2421.251069
350.039324	2414.753022
350.429796	2418.778383
350.820203	2420.341141
351.210548	2419.043043
351.600828	2418.790986
351.991045	2417.931469
352.381198	2416.358629
352.771288	2416.625810
353.161314	2417.145049
353.551276	2416.081366
353.941175	2416.298135
354.331010	2417.424833
354.720782	2418.806109
355.110490	2419.642941
355.500135	2417.941551
355.889717	2419.070770
356.279235	2419.458939
356.668689	2417.379463
357.058080	2419.383321
357.447408	2418.604463
357.836672	2421.457756
358.225873	2418.932138
358.615010	2421.049423
359.004084	2420.265523
359.393095	2421.818199
359.782043	2419.859710
360.170927	2422.418096
360.559748	2421.341810
360.948505	2424.989084
361.337199	2424.681574
361.725830	2423.862387
362.114398	2428.006215
362.502903	2424.351378
362.891344	2425.962027
363.279722	2424.323652
363.668037	2427.640731
364.056289	2428.986719
364.444478	2428.754826
364.832603	2426.052768
365.220665	2430.831782
365.608665	2428.994281
365.996601	2429.223654
366.384474	2429.992430
366.772284	2428.079312
367.160031	2430.753644
367.547715	2430.983016
367.935336	2430.730959
368.322893	2426.660227
368.710388	2425.531008
369.097820	2431.063675
369.485189	2428.845567
369.872495	2434.146340
370.259738	2433.163315
370.646918	2434.768923
371.034035	2433.619540
371.421090	2434.441248
371.808081	2435.116763
372.195010	2434.723552
372.581875	2438.138934
372.968678	2438.396033
373.355418	2440.392330
373.742096	2442.313010
374.128710	2441.700509
374.515262	2444.324430
374.901751	2447.669236
375.288177	2453.572427
375.674540	2454.167283
376.060841	2460.468725
376.447079	2458.369085
376.833254	2465.240177
377.219367	2470.737556
377.605417	2475.841724
377.991404	2479.373052
378.377329	2483.060656
378.763191	2488.376553
379.148991	2495.129178
379.534727	2501.297030
379.920402	2508.329440
380.306013	2514.018382
380.691563	2525.436595
381.077049	2528.690660
381.462474	2533.121834
381.847835	2544.025850
382.233134	2551.025492
382.618371	2556.608570
383.003545	2567.671382
383.388657	2574.595407
383.773706	2587.417582
384.158693	2593.081318
384.543618	2599.939808
384.928480	2608.003134
385.313280	2620.248096
385.698017	2626.471401
386.082692	2634.582617
386.467305	2643.301293
386.851856	2652.143477
387.236344	2663.677637
387.620770	2666.742658
388.005133	2673.573422
388.389435	2686.718230
388.773674	2684.419464
389.157851	2702.378575
389.541965	2706.222455
389.926018	2707.323947
390.310008	2714.825184
390.693936	2718.389279
391.077802	2723.291802
391.461606	2729.994016
391.845348	2725.094014
392.229027	2727.221381
392.612645	2735.670355
392.996200	2736.446692
393.379694	2743.378279
393.763125	2750.403127
394.146494	2742.700244
394.529801	2743.060686
394.913047	2744.066397
395.296230	2731.939901
395.679351	2729.137019
396.062410	2732.028121
396.445408	2713.149000
396.828343	2709.688248
397.211217	2701.950077
397.594028	2684.732016
397.976778	2681.641788
398.359466	2673.916220
398.742092	2664.511948
399.124656	2650.278250
399.507158	2650.071562
399.889598	2637.950108
400.271977	2633.977679
400.654294	2619.073507
401.036549	2617.488065
401.418742	2602.606578
401.800874	2599.642380
402.182944	2591.972264
402.564952	2585.862386
402.946898	2574.245047
403.328783	2562.453788
403.710606	2558.398180
404.092367	2552.830225
404.474067	2545.213042
404.855705	2535.778522
405.237282	2527.493386
405.618797	2525.373581
406.000250	2520.602129
406.381642	2515.497961
406.762972	2507.999244
407.144240	2499.741834
407.525447	2497.042296
407.906593	2487.794300
408.287677	2492.931235
408.668700	2487.806902
409.049661	2485.253558
409.430560	2479.778865
409.811399	2477.843062
410.192176	2477.558237
410.572891	2474.241158
410.953545	2474.906590
411.334138	2468.915178
411.714669	2471.574387
412.095139	2467.014663
412.475547	2467.397791
412.855894	2465.482153
413.236180	2465.719087
413.616405	2464.242029
413.996568	2464.920064
414.376670	2463.533747
414.756711	2464.935188
415.136691	2466.240846
415.516609	2461.933180
415.896466	2465.174642
416.276262	2461.676082
416.655997	2461.474435
417.035670	2459.049640
417.415283	2464.720938
417.794834	2460.501493
418.174324	2463.987451
418.553753	2461.048458
418.933121	2463.372430
419.312428	2462.303705
419.691674	2458.497634
420.070859	2461.398818
420.449983	2463.427882
420.829045	2461.928139
421.208047	2463.548870
421.586988	2463.037193
421.965867	2463.632049
422.344686	2463.881586
422.723444	2462.858232
423.102141	2459.626853
423.480777	2463.642132
423.859352	2462.323870
424.237866	2462.177676
424.616319	2463.453088
424.994712	2464.247070
425.373044	2463.939560
425.751314	2466.056844
426.129524	2459.427727
426.507673	2461.204734
426.885762	2457.292798
427.263789	2463.004426
427.641756	2463.017028
428.019662	2463.500979
428.397508	2464.269755
428.775292	2461.408900
429.153016	2462.212964
429.530679	2463.291771
429.908282	2464.214303
430.285824	2466.187914
430.663305	2465.179683
431.040726	2464.118521
431.418086	2463.185907
431.795385	2464.380661
432.172624	2464.640280
432.549802	2464.236988
432.926920	2464.809159
433.303977	2467.435600
433.680974	2463.745475
434.057910	2467.854016
434.434786	2463.989971
434.811601	2467.576752
435.188355	2465.625826
435.565050	2465.651031
435.941683	2466.150106
436.318257	2464.783953
436.694770	2464.776391
437.071222	2464.554580
437.447614	2467.596917
437.823946	2466.727318
438.200218	2466.729838
438.576429	2469.305868
438.952580	2467.763275
439.328670	2468.607668
439.704700	2466.765126
440.080670	2470.147741
440.456580	2467.143213
440.832429	2468.085909
441.208218	2469.313430
441.583947	2465.202369
441.959616	2466.276134
442.335224	2470.941722
442.710773	2468.317802
443.086261	2471.864253
443.461689	2467.906948
443.837057	2469.683954
444.212365	2466.893676
444.587612	2465.577935
444.962800	2466.558439
445.337927	2467.163377
445.712995	2465.966103
446.088002	2470.503142
446.462949	2467.924592
446.837837	2467.614561
447.212664	2470.435086
447.587431	2471.881897
447.962139	2472.696044
448.336786	2472.176805
448.711374	2475.325006
449.085901	2472.902731
449.460369	2469.643625
449.834776	2473.074130
450.209124	2472.353245
450.583412	2476.229893
450.957640	2473.724439
451.331808	2471.221506
451.705917	2470.417442
452.079965	2473.094295
452.453954	2471.455920
452.827883	2474.021867
453.201752	2472.186887
453.575562	2472.698564
453.949311	2474.873822
454.323001	2470.223358
454.696632	2473.185036
455.070202	2474.304172
455.443713	2473.747124
455.817164	2473.991620
456.190556	2473.724439
456.563888	2475.350211
456.937160	2476.330716
457.310373	2472.877525
457.683526	2471.493729
458.056619	2474.508339
458.429653	2472.701085
458.802628	2477.044039
459.175542	2475.433390
459.548398	2476.076137
459.921194	2477.228041
460.293930	2478.009420
460.666607	2476.217290
461.039224	2476.623103
461.411782	2477.132259
461.784280	2480.114102
462.156719	2476.602938
462.529099	2480.083855
462.901419	2476.897846
463.273680	2477.107053
463.645882	2471.657566
464.018024	2477.439770
464.390106	2473.280818
464.762130	2480.217445
465.134094	2480.373721
465.505999	2480.988742
465.877845	2483.640389
466.249631	2485.054433
466.621358	2483.403455
466.993026	2480.671149
467.364634	2488.996615
467.736184	2482.367497
468.107674	2481.233238
468.479105	2481.376911
468.850477	2483.660553
469.221790	2481.649133
469.593043	2480.207363
469.964238	2481.003865
470.335373	2478.972280
470.706449	2479.383134
471.077467	2483.040492
471.448425	2480.313227
471.819324	2486.793631
472.190164	2487.670791
472.560945	2480.524956
472.931667	2480.736684
473.302330	2479.279791
473.672934	2480.066211
474.043479	2481.760038
474.413965	2481.888588
474.784393	2483.237097
475.154761	2481.326499
475.525070	2479.506643
475.895321	2484.469659
476.265513	2480.920686
476.635645	2480.850110
477.005719	2482.795996
477.375734	2481.535707
477.745691	2483.852117
478.115588	2483.272385
478.485427	2482.425471
478.855207	2485.946717
479.224928	2485.646768
479.594591	2486.095431
479.964194	2485.918990
480.333739	2486.637355
480.703226	2488.021152
481.072653	2488.684063
481.442022	2487.156594
481.811333	2484.830101
482.180584	2484.532673
482.549777	2487.499392
482.918912	2483.191726
483.287988	2486.201295
483.657005	2488.386635
484.025964	2486.501244
484.394864	2487.660709
484.763706	2486.733137
485.132489	2487.567448
485.501213	2485.656850
485.869879	2486.390338
486.238487	2484.988898
486.607036	2484.923363
486.975527	2486.672643
487.343959	2487.345637
487.712333	2485.354381
488.080648	2486.163486
488.448905	2486.314721
488.817104	2486.241624
489.185244	2484.762046
489.553326	2488.716831
489.921350	2490.657675
490.289315	2488.452170
490.657222	2491.116420
491.025070	2492.563231
491.392861	2490.113230
491.760593	2491.343272
492.128267	2489.047026
492.495883	2491.567603
492.863440	2486.226501
493.230939	2486.607108
493.598380	2488.527788
493.965763	2488.283292
494.333088	2486.072746
494.700354	2487.484269
495.067563	2488.984012
495.434713	2485.755153
495.801805	2487.504433
496.168839	2486.891933
496.535815	2489.188179
496.902733	2482.979998
497.269593	2485.067035
497.636395	2485.896305
498.003139	2485.188023
498.369825	2489.800679
498.736453	2485.293887
499.103023	2486.418065
499.469535	2487.222129
499.835989	2486.831439
500.202385	2481.082003
500.568723	2482.120481
500.935003	2486.140801
501.301226	2482.017137
501.667390	2486.972592
502.033497	2488.893271
502.399546	2487.375884
502.765537	2485.722385
503.131470	2484.966212
503.497345	2490.203971
503.863163	2487.204485
504.228923	2487.789258
504.594625	2488.842860
504.960269	2488.119454
505.325856	2490.496358
505.691385	2488.399238
506.056856	2486.327324
506.422270	2486.413023
506.787625	2487.443939
507.152924	2488.863024
507.518164	2489.087356
507.883347	2485.465287
508.248472	2488.613487
508.613540	2487.673312
508.978550	2486.937303
509.343503	2488.663899
509.708398	2486.975112
510.073236	2491.363437
510.438016	2486.876810
510.802738	2489.876296
511.167403	2487.471666
511.532010	2488.575678
511.896561	2489.735144
512.261053	2487.643065
512.625488	2486.186172
512.989866	2488.467294
513.354186	2487.113744
513.718449	2486.135760
514.082655	2489.213384
514.446803	2487.456542
514.810894	2489.808241
515.174927	2484.184833
515.538904	2490.009887
515.902822	2488.326141
516.266684	2488.598364
516.630488	2488.169866
516.994235	2490.042654
517.357925	2487.567448
517.721558	2490.297233
518.085133	2487.728765
518.448651	2487.272540
518.812112	2484.555358
519.175516	2486.886892
519.538863	2484.885554
519.902152	2487.396048
520.265385	2488.363950
520.628560	2486.609628
520.991678	2489.077273
521.354739	2490.289671
521.717743	2488.303456
522.080690	2490.803868
522.443580	2487.522077
522.806413	2490.564414
523.169189	2489.999804
523.531908	2487.761532
523.894569	2489.588950
524.257174	2488.396718
524.619722	2490.108189
524.982213	2489.485607
525.344647	2489.011738
525.707025	2487.169197
526.069345	2488.736995
526.431608	2489.485607
526.793815	2489.755308
527.155964	2492.028869
527.518057	2491.063488
527.880093	2488.734475
528.242072	2489.901502
528.603995	2490.869403
528.965860	2490.408138
529.327669	2488.237921
529.689421	2488.711790
530.051117	2487.045688
530.412755	2489.538539
530.774337	2488.729434
531.135862	2489.752788
531.497331	2491.154229
531.858743	2489.929228
532.220098	2488.923518
532.581396	2487.948055
532.942638	2491.653303
533.303824	2488.666419
533.664953	2486.932262
534.026025	2488.900833
534.387040	2487.738847
534.747999	2489.644403
535.108902	2488.368991
535.469748	2487.466625
535.830537	2490.367809
536.191270	2486.826398
536.551947	2491.365957
536.912567	2484.058805
537.273131	2487.113744
537.633638	2484.946048
537.994089	2490.405617
538.354483	2488.137098
538.714821	2487.408651
539.075103	2486.962509
539.435328	2488.810092
539.795497	2488.061481
540.155609	2490.907212
540.515665	2487.794300
540.875665	2488.248003
541.235609	2489.941831
541.595496	2487.433857
541.955328	2485.495533
542.315102	2490.854280
542.674821	2489.961996
543.034483	2485.649289
543.394090	2489.644403
543.753640	2488.331183
544.113134	2489.573827
544.472571	2490.745895
544.831953	2487.958137
545.191278	2488.752119
545.550548	2489.727582
545.909761	2490.486276
546.268918	2488.439567
546.628019	2489.001656
546.987064	2490.037613
547.346053	2488.709269
547.704986	2488.638693
548.063863	2489.677171
548.422684	2490.035093
548.781449	2488.374032
549.140158	2489.893940
549.498811	2489.813282
549.857408	2489.871255
550.215949	2487.169197
550.574434	2486.597026
550.932864	2489.667088
551.291237	2489.276399
551.649555	2487.040647
552.007817	2490.665237
552.366022	2490.382932
552.724173	2489.251193
553.082267	2486.589464
553.440305	2490.314877
553.798288	2489.384784
554.156215	2490.793786
554.514086	2486.407982
554.871902	2485.435040
555.229661	2488.421923
555.587365	2482.163331
555.945014	2490.468632
556.302606	2491.055926
556.660143	2488.124495
557.017625	2490.849239
557.375050	2489.997284
557.732421	2490.360247
558.089735	2489.505771
558.446994	2488.565596
558.804197	2487.383446
559.161345	2486.261789
559.518437	2491.353354
559.875474	2489.558703
560.232455	2487.272540
560.589381	2487.756491
560.946251	2491.068529
561.303065	2487.035606
561.659825	2490.216574
562.016528	2490.153560
562.373177	2489.432675
562.729770	2490.670278
563.086307	2489.425113
563.442789	2489.276399
563.799216	2487.595174
564.155587	2485.588795
564.511904	2489.475524
564.868164	2489.112561
565.224370	2489.714979
565.580520	2489.425113
565.936615	2489.430154
566.292654	2488.298415
566.648638	2490.130874
567.004567	2489.369660
567.360441	2490.345123
567.716260	2488.890751
568.072023	2491.517192
568.427732	2488.134577
568.783385	2490.715648
569.138982	2490.788745
569.494525	2491.681029
569.850013	2489.052067
570.205445	2491.275216
570.560823	2491.151708
570.916145	2488.376553
571.271412	2487.930411
571.626625	2491.917963
571.981782	2491.116420
572.336884	2488.462253
572.691931	2484.875472
573.046923	2489.974599
573.401860	2483.867241
573.756743	2489.815802
574.111570	2488.857983
574.466342	2488.086687
574.821059	2491.086173
575.175722	2489.906543
575.530330	2490.279588
575.884882	2488.636172
576.239380	2489.001656
576.593823	2490.012407
576.948211	2490.115751
577.302544	2489.737664
577.656823	2489.220946
578.011047	2489.142808
578.365216	2488.817654
578.719330	2488.419403
579.073389	2486.965030
579.427394	2489.442757
579.781344	2488.260606
580.135239	2488.709269
580.489080	2488.358909
580.842866	2490.090545
581.196597	2491.113899
581.550273	2491.746564
581.903895	2486.455873
582.257463	2488.595843
582.610975	2488.474855
582.964434	2489.094917
583.317837	2488.747078
583.671186	2490.808910
584.024481	2487.590133
584.377721	2488.066522
584.730906	2488.094248
585.084037	2487.960658
585.437113	2488.701707
585.790135	2488.096769
586.143103	2489.152891
586.496016	2490.667757
586.848874	2487.138950
587.201679	2489.941831
587.554428	2493.836122
587.907124	2485.979484
588.259765	2491.625577
588.612352	2491.771770
588.964884	2489.488127
589.317362	2488.600884
589.669786	2489.029382
590.022155	2487.580051
590.374470	2485.258599
590.726731	2490.181286
591.078937	2486.765904
591.431090	2488.585761
591.783188	2486.455873
592.135232	2488.242962
592.487222	2487.544762
592.839157	2490.367809
593.191038	2486.539052
593.542866	2490.458549
593.894639	2486.924701
594.246358	2487.108703
594.598022	2487.542242
594.949633	2488.588281
595.301190	2488.880668
595.652692	2486.105513
596.004141	2487.396048
596.355535	2488.245483
596.706876	2485.198105
597.058162	2487.804382
597.409395	2486.745740
597.760573	2487.932931
598.111698	2487.184320
598.462768	2488.184989
598.813785	2486.128198
599.164748	2485.677015
599.515657	2490.617346
599.866511	2487.174238
600.217312	2488.956286
600.568060	2486.498723
600.918753	2487.391007
601.269392	2488.656337
601.619978	2488.666419
601.970510	2486.201295
602.320988	2487.333034
602.671412	2487.834629
603.021783	2486.067704
603.372100	2489.014259
603.722363	2487.469145
604.072572	2486.937303
604.422728	2486.256748
604.772830	2489.790597
605.122878	2485.598877
605.472872	2485.961840
605.822813	2487.184320
606.172701	2488.159783
606.522534	2484.492344
606.872314	2488.747078
607.222041	2486.314721
607.571714	2486.571820
607.921333	2484.540235
608.270899	2486.221460
608.620411	2482.904380
608.969870	2487.388487
609.319276	2487.622900
609.668627	2487.990905
610.017926	2486.007211
610.367171	2488.812613
610.716362	2488.270689
611.065500	2486.102992
611.414585	2486.042499
611.763616	2489.011738
612.112594	2488.081645
612.461518	2486.909577
612.810389	2489.157932
613.159207	2490.181286
613.507971	2485.853455
613.856682	2490.773622
614.205340	2488.346306
614.553945	2487.748929
614.902496	2487.804382
615.250994	2487.902684
615.599439	2486.970071
615.947830	2488.573158
616.296169	2486.939824
616.644454	2489.856132
616.992686	2486.609628
617.340864	2487.113744
617.688990	2489.518374
618.037063	2486.271871
618.385082	2487.731285
618.733048	2489.220946
619.080961	2486.339927
619.428821	2487.557365
619.776628	2486.148363
620.124382	2486.528970
620.472083	2488.510143
620.819731	2489.041985
621.167326	2487.080976
621.514868	2488.628611
621.862357	2487.063332
622.209793	2487.259937
622.557176	2487.713641
622.904506	2489.019300
623.251783	2487.842191
623.599007	2487.811944
623.946179	2487.088538
624.293297	2487.771614
624.640363	2487.948055
624.987376	2483.607621
625.334336	2482.047384
625.681243	2484.638537
626.028097	2480.976139
626.374899	2487.154073
626.721647	2488.416882
627.068343	2486.077787
627.414987	2487.348158
627.761577	2487.010400
628.108115	2486.150883
628.454600	2485.540904
628.801032	2483.461428
629.147412	2484.807416
629.493739	2487.499392
629.840014	2483.920173
630.186236	2486.909577
630.532405	2486.453353
630.878521	2487.358240
631.224585	2487.307828
631.570597	2483.892447
631.916556	2487.668271
632.262462	2484.935965
632.608316	2487.635503
632.954117	2484.434371
633.299866	2485.245996
633.645562	2486.705410
633.991206	2484.235245
634.336797	2484.076449
634.682336	2484.028558
635.027823	2487.650627
635.373257	2483.968064
635.718639	2483.133753
636.063968	2485.462766
636.409245	2483.433702
636.754470	2484.449494
637.099642	2485.220791
637.444762	2485.303970
637.789829	2484.300780
638.134845	2484.525111
638.479808	2482.601911
638.824719	2482.748105
639.169577	2484.366315
639.514383	2483.708444
639.859137	2483.179123
640.203839	2483.259782
640.548489	2483.678198
640.893086	2483.395893
641.237632	2483.174082
641.582125	2484.197436
641.926566	2484.139463
642.270955	2481.795327
642.615292	2479.231900
642.959576	2479.267188
643.303809	2478.253916
643.647990	2482.077631
643.992118	2483.589977
644.336195	2480.666108
644.680219	2481.578557
645.024192	2483.282467
645.368112	2482.659884
645.711981	2484.935965
646.055797	2484.814978
646.399562	2485.924032
646.743274	2482.816160
647.086935	2484.212560
647.430544	2484.036119
647.774101	2485.130050
648.117606	2484.951089
648.461059	2483.363125
648.804460	2487.638024
649.147810	2484.280615
649.491108	2484.010914
649.834354	2486.082828
650.177548	2481.528145
650.520690	2484.303301
650.863781	2483.688280
651.206820	2483.491675
651.549807	2484.126860
651.892742	2481.742394
652.235626	2484.078969
652.578458	2482.133084
652.921238	2480.638382
653.263967	2484.885554
653.606644	2481.079483
653.949269	2485.518219
654.291843	2479.564616
654.634365	2482.967395
654.976836	2483.098465
655.319255	2482.193578
655.661622	2478.788278
656.003938	2483.229535
656.346203	2482.382621
656.688416	2478.669811
657.030577	2484.162148
657.372687	2482.599391
657.714746	2482.768269
658.056753	2480.126705
658.398708	2479.219297
658.740612	2481.671818
659.082465	2482.460759
659.424266	2477.389358
659.766016	2476.297948
660.107715	2480.925728
660.449362	2475.514049
660.790958	2484.295739
661.132503	2483.418578
661.473996	2479.138638
661.815438	2480.078814
662.156829	2483.375728
662.498168	2486.171048
662.839456	2481.606283
663.180693	2480.429174
663.521879	2483.030409
663.863013	2480.194760
664.204097	2482.468321
664.545129	2483.877323
664.886110	2483.700883
665.227040	2482.344812
665.567918	2480.396406
665.908746	2480.678711
666.249522	2481.228197
666.590248	2481.029071
666.930922	2483.700883
667.271545	2480.600573
667.612118	2482.664926
667.952639	2480.575367
668.293109	2482.044864
668.633528	2483.118629
668.973896	2481.351705
669.314213	2481.490337
669.654480	2482.629638
669.994695	2484.835142
670.334859	2482.319607
670.674973	2481.868423
671.015035	2482.289360
671.355047	2480.585450
671.695008	2481.893629
672.034918	2478.301807
672.374777	2482.609473
672.714585	2476.902887
673.054342	2480.698876
673.394049	2481.071921
673.733705	2482.362456
674.073310	2482.473362
674.412864	2482.407827
674.752368	2479.579739
675.091820	2482.947230
675.431223	2482.062508
675.770574	2484.126860
676.109875	2480.086375
676.449125	2479.496560
676.788324	2477.233082
677.127473	2481.815491
677.466571	2477.671663
677.805619	2480.300624
678.144616	2479.864565
678.483562	2481.578557
678.822458	2480.822384
679.161303	2479.345326
679.500098	2482.606952
679.838842	2481.112250
680.177535	2482.637199
680.516179	2481.873464
680.854771	2479.995635
681.193314	2481.588639
681.531805	2478.805922
681.870247	2479.436067
682.208638	2480.605614
682.546978	2484.068887
682.885268	2481.354226
683.223508	2480.721561
683.561697	2481.767600
683.899836	2481.346664
684.237925	2479.715851
684.575963	2479.829277
684.913951	2478.518577
685.251889	2480.845069
685.589776	2481.089565
685.927614	2482.067549
686.265401	2479.821715
686.603137	2477.701910
686.940824	2480.862713
687.278460	2481.283649
687.616046	2479.108392
687.953582	2483.158959
688.291068	2481.621407
688.628504	2481.134935
688.965889	2481.233238
689.303224	2481.835656
689.640510	2482.773310
689.977745	2479.325161
690.314930	2479.478916
690.652065	2480.958495
690.989150	2484.061325
691.326185	2481.818012
691.663170	2481.641571
692.000105	2478.112764
692.336990	2481.578557
692.673825	2480.212404
693.010610	2479.693165
693.347345	2476.880202
693.684030	2476.124028
694.020665	2476.648308
694.357251	2473.648822
694.693786	2478.427836
695.030272	2476.522280
695.366707	2480.517394
695.703093	2477.399440
696.039429	2480.852631
696.375716	2480.212404
696.711952	2478.657208
697.048139	2478.074955
697.384276	2478.838690
697.720363	2478.601756
698.056400	2476.895325
698.392388	2476.575212
698.728326	2478.019502
699.064214	2479.746098
699.400053	2479.975470
699.735842	2476.686117
700.071581	2480.547641
700.407270	2477.911118
700.742910	2478.407671
701.078501	2479.325161
701.414042	2475.524131
701.749533	2478.352218
702.084974	2476.834831
702.420366	2476.824749
702.755709	2478.818525
703.091002	2478.079996
703.426246	2477.913638
703.761440	2478.879019
704.096584	2478.652167
704.431679	2477.656539
704.766725	2479.811632
705.101721	2479.526807
705.436668	2477.369193
705.771565	2477.243165
706.106413	2477.003710
706.441212	2478.112764
706.775961	2478.042187
707.110661	2479.836838
707.445311	2476.512197
707.779913	2478.808443
708.114465	2479.453711
708.448967	2478.621920
708.783421	2478.006899
709.117825	2477.878350
709.452180	2477.288535
709.786485	2479.647795
710.120742	2476.645788
710.454949	2474.999851
710.789107	2476.229893
711.123216	2475.473720
711.457275	2476.403812
711.791286	2479.118474
712.125247	2478.079996
712.459159	2478.803402
712.793023	2477.686786
713.126837	2479.730974
713.460602	2480.895481
713.794318	2477.664101
714.127985	2480.078814
714.461602	2477.636375
714.795171	2479.267188
715.128691	2478.422795
715.462162	2475.877012
715.795584	2478.238793
716.128957	2475.488843
716.462281	2476.539924
716.795556	2478.440439
717.128782	2481.339102
717.461960	2477.472537
717.795088	2476.799543
718.128167	2476.744090
718.461198	2477.588484
718.794180	2480.083855
719.127113	2474.399954
719.459997	2475.503967
719.792833	2478.150572
720.125619	2476.426498
720.458357	2478.626961
720.791046	2477.822897
721.123686	2478.455562
721.456278	2476.986066
721.788821	2476.711323
722.121315	2478.266519
722.453761	2476.504636
722.786158	2478.246354
723.118506	2475.246868
723.450805	2478.130408
723.783056	2474.558750
724.115259	2474.697382
724.447412	2479.504122
724.779518	2477.217959
725.111574	2476.187043
725.443582	2474.316775
725.775542	2477.343988
726.107453	2476.171919
726.439315	2477.046560
726.771129	2477.961529
727.102895	2472.567494
727.434612	2474.168061
727.766281	2471.821404
728.097901	2475.902218
728.429473	2475.541775
728.760996	2476.701241
729.092471	2476.429018
729.423897	2477.654019
729.755276	2477.548154
730.086606	2478.500932
730.417887	2476.602938
730.749120	2475.284676
731.080305	2477.018833
731.411442	2480.484627
731.742530	2478.274081
732.073570	2477.356591
732.404562	2475.400623
732.735506	2480.368680
733.066401	2478.871457
733.397249	2478.397589
733.728048	2476.640747
734.058798	2477.008751
734.389501	2475.377938
734.720156	2477.923720
735.050762	2474.667135
735.381320	2477.497743
735.711831	2477.351549
736.042293	2477.817856
736.372707	2477.038998
736.703073	2476.532362
737.033391	2474.198308
737.363661	2476.139152
737.693883	2476.973463
738.024056	2477.409523
738.354182	2473.361476
738.684260	2480.373721
739.014290	2473.991620
739.344272	2477.807774
739.674207	2472.844758
740.004093	2476.625623
740.333931	2477.220479
740.663722	2479.236941
740.993464	2473.787454
741.323159	2473.132104
741.652806	2474.858699
741.982405	2479.998155
742.311956	2479.867085
742.641460	2475.667804
742.970915	2476.182002
743.300323	2472.116311
743.629683	2471.092957
743.958996	2472.501959
744.288260	2472.151599
744.617477	2475.718216
744.946647	2474.846096
745.275768	2476.915490
745.604842	2475.292238
745.933869	2475.788792
746.262847	2475.231744
746.591778	2475.624954
746.920662	2474.165540
747.249498	2477.134780
747.578286	2474.760396
747.907027	2476.885243
748.235720	2473.275777
748.564365	2475.665283
748.892963	2477.170068
749.221514	2474.778040
749.550017	2473.452217
749.878473	2475.198977
750.206881	2475.584625
750.535242	2473.636219
750.863555	2476.066055
751.191821	2474.384830
751.520039	2477.722074
751.848210	2475.738380
752.176334	2474.415077
752.504411	2474.692341
752.832440	2474.906590
753.160421	2475.559419
753.488356	2476.799543
753.816243	2476.270222
754.144082	2473.573205
754.471875	2475.874491
754.799620	2470.510704
755.127318	2477.694348
755.454969	2474.115129
755.782572	2473.263174
756.110129	2475.481281
756.437638	2476.819708
756.765100	2472.917855
757.092515	2477.081848
757.419882	2476.360963
757.747203	2473.318626
758.074477	2472.877525
758.401703	2474.031950
758.728882	2473.248050
759.056014	2473.724439
759.383099	2474.596559
759.710138	2471.082875
760.037129	2469.535240
760.364073	2472.020529
760.690970	2468.224540
761.017820	2475.723257
761.344623	2472.958184
761.671379	2476.847434
761.998088	2474.024388
762.324751	2477.336426
762.651366	2476.981025
762.977935	2476.981025
763.304456	2478.337095
763.630931	2480.225007
763.957359	2480.598052
764.283740	2475.904738
764.610074	2479.627630
764.936362	2477.159986
765.262602	2478.468165
765.588796	2476.512197
765.914943	2477.308700
766.241044	2476.250057
766.567097	2473.472382
766.893104	2475.108236
767.219064	2474.536065
767.544978	2472.862402
767.870845	2475.745942
768.196665	2474.629326
768.522438	2473.916003
768.848165	2474.377269
769.173846	2471.581949
769.499479	2472.748976
769.825066	2472.985910
770.150607	2477.573360
770.476101	2475.703092
770.801548	2474.704944
771.126949	2472.643112
771.452303	2475.254429
771.777611	2474.730149
772.102872	2472.922896
772.428087	2473.358956
772.753256	2474.319295
773.078378	2474.357104
773.403453	2474.157978
773.728482	2475.085551
774.053465	2472.461630
774.378401	2472.247381
774.703291	2473.366517
775.028135	2472.622947
775.352932	2474.432721
775.677683	2471.919706
776.002388	2472.199490
776.327046	2468.327884
776.651658	2471.206383
776.976224	2465.809828
777.300743	2473.691672
777.625216	2473.215283
777.949643	2473.517752
778.274024	2472.640591
778.598359	2470.694706
778.922647	2473.916003
779.246889	2473.852989
779.571086	2474.157978
779.895236	2475.965232
780.219339	2474.543627
780.543397	2474.024388
780.867409	2476.693679
781.191374	2472.867443
781.515294	2473.573205
781.839167	2470.241002
782.162995	2474.052114
782.486776	2473.641260
782.810511	2472.141517
783.134201	2471.460961
783.457844	2471.375262
783.781441	2474.508339
784.104993	2476.171919
784.428498	2474.954481
784.751958	2471.231589
785.075372	2471.304685
785.398739	2473.525314
785.722061	2472.842237
786.045337	2471.541620
786.368568	2471.786116
786.691752	2474.213431
787.014891	2467.753193
787.337983	2475.952629
787.661030	2473.570684
787.984031	2472.431383
788.306987	2472.567494
788.629897	2474.478092
788.952760	2475.458596
789.275579	2473.048925
789.598351	2475.884574
789.921078	2474.208390
790.243759	2471.445838
790.566395	2471.065231
790.888984	2473.923565
791.211529	2472.577577
791.534027	2474.873822
791.856480	2470.820735
792.178888	2471.831486
792.501249	2467.480970
792.823566	2470.057000
793.145836	2467.740590
793.468062	2470.735035
793.790241	2472.312916
794.112375	2473.928606
794.434464	2471.276959
794.756507	2472.809470
795.078505	2471.647484
795.400457	2472.209573
795.722364	2471.944912
796.044226	2473.918524
796.366042	2472.144038
796.687812	2471.163533
797.009538	2471.466002
797.331218	2473.578246
797.652852	2474.606641
797.974442	2473.106898
798.295986	2472.804429
798.617484	2472.970787
798.938938	2472.058338
799.260346	2471.254274
799.581709	2469.174798
799.903026	2474.891466
800.224299	2470.520786
800.545526	2470.394757
800.866708	2473.968935
801.187845	2472.456589
801.508936	2475.612351
801.829983	2472.774182
802.150984	2474.558750
802.471940	2471.420632
802.792851	2473.429532
803.113717	2471.518934
803.434538	2473.502628
803.755314	2474.218472
804.076045	2468.867288
804.396731	2474.286528
804.717372	2473.749645
805.037967	2471.644963
805.358518	2473.595890
805.679024	2470.838379
805.999485	2471.304685
806.319901	2470.414922
806.640272	2473.598410
806.960598	2473.432052
807.280879	2473.464820
807.601115	2472.494398
807.921306	2471.007257
808.241453	2471.607155
808.561554	2466.576083
808.881611	2471.430714
809.201623	2466.868470
809.521590	2470.974490
809.841513	2470.392237
810.161390	2470.029273
810.481223	2470.266208
810.801011	2470.873667
811.120755	2470.498101
811.440453	2470.868626
811.760107	2473.316106
812.079716	2471.269397
812.399281	2469.746969
812.718801	2471.644963
813.038276	2470.762761
813.357707	2472.408698
813.677093	2469.275621
813.996434	2472.564974
814.315731	2473.094295
814.634983	2471.556743
814.954191	2472.958184
815.273354	2471.831486
815.592473	2469.358800
815.911547	2472.222175
816.230577	2471.576908
816.549562	2473.167392
816.868502	2471.405508
817.187399	2472.070941
817.506250	2471.655046
817.825058	2471.529017
818.143821	2471.859212
818.462539	2472.592700
818.781213	2471.670169
819.099843	2474.026908
819.418429	2471.110601
819.736970	2474.568833
820.055466	2473.389202
820.373919	2476.794502
820.692327	2474.873822
821.010691	2476.726446
821.329011	2476.260140
821.647286	2479.720892
821.965517	2486.075266
822.283704	2490.140957
822.601847	2489.447798
822.919945	2488.989053
823.237999	2488.719351
823.556010	2486.889412
823.873976	2482.732981
824.191897	2479.935141
824.509775	2475.609831
824.827609	2479.423464
825.145398	2472.081023
825.463144	2478.407671
825.780845	2476.703761
826.098502	2479.068062
826.416116	2479.012610
826.733685	2476.189563
827.051210	2479.821715
827.368692	2479.604945
827.686129	2477.941364
828.003522	2477.107053
828.320872	2473.789974
828.638177	2476.287866
828.955439	2472.814511
829.272656	2471.211424
829.589830	2473.232927
829.906960	2472.822073
830.224046	2473.164871
830.541088	2470.334263
830.858086	2471.541620
831.175041	2473.817701
831.491952	2472.270066
831.808819	2473.973976
832.125642	2473.462299
832.442421	2473.789974
832.759157	2474.962042
833.075849	2474.324337
833.392497	2473.663945
833.709101	2475.761065
834.025662	2477.195274
834.342179	2475.899697
834.658653	2472.915334
834.975083	2473.510190
835.291469	2474.997331
835.607811	2474.611682
835.924110	2472.688482
836.240366	2470.954325
836.556578	2472.136476
836.872746	2470.732514
837.188871	2469.925930
837.504952	2472.212093
837.820990	2472.751497
838.136984	2472.759058
838.452935	2471.047587
838.768842	2472.577577
839.084706	2468.176649
839.400526	2474.730149
839.716303	2470.210755
840.032037	2470.442648
840.347727	2469.938533
840.663373	2469.658749
840.978977	2466.356793
841.294537	2473.318626
841.610054	2472.209573
841.925527	2472.010447
842.240957	2471.934830
842.556344	2472.683441
842.871687	2469.373923
843.186987	2469.565487
843.502244	2470.977010
843.817458	2471.501290
844.132629	2470.997175
844.447756	2470.699747
844.762840	2471.110601
845.077881	2470.679582
845.392879	2469.323512
845.707833	2469.532720
846.022745	2468.738738
846.337613	2469.295786
846.652438	2468.494242
846.967221	2473.394244
847.281960	2471.549181
847.596656	2470.470374
847.911309	2468.907617
848.225919	2469.608337
848.540485	2468.279993
848.855009	2468.892493
849.169490	2472.466671
849.483928	2468.849643
849.798323	2471.647484
850.112675	2468.829479
850.426984	2469.058851
850.741251	2469.494911
851.055474	2470.150261
851.369654	2469.923409
851.683792	2470.273769
851.997887	2470.230920
852.311938	2469.293265
852.625947	2468.799232
852.939914	2471.339973
853.253837	2471.105560
853.567718	2470.256125
853.881555	2471.760910
854.195350	2469.615899
854.509103	2469.353759
854.822812	2470.694706
855.136479	2469.782257
855.450103	2467.344859
855.763685	2469.746969
856.077224	2464.962914
856.390720	2467.775878
856.704173	2464.652883
857.017584	2471.070272
857.330953	2468.721094
857.644278	2469.353759
857.957561	2472.111270
858.270802	2469.562967
858.584000	2469.396609
858.897155	2468.330405
859.210268	2469.066413
859.523339	2468.499283
859.836367	2467.881742
860.149352	2470.399798
860.462295	2469.918368
860.775195	2467.637246
861.088054	2469.169757
861.400869	2469.948615
861.713642	2471.211424
862.026373	2469.187401
862.339062	2469.094139
862.651708	2471.299644
862.964312	2467.735548
863.276873	2472.068420
863.589392	2469.477267
863.901869	2468.443831
864.214303	2470.631691
864.526696	2467.929633
864.839045	2468.590024
865.151353	2470.281331
865.463619	2470.520786
865.775842	2470.422483
866.088023	2469.734366
866.400162	2470.820735
866.712258	2467.105404
867.024313	2470.046918
867.336325	2469.391567
867.648296	2469.285703
867.960224	2470.069603
868.272110	2469.323512
868.583954	2469.787298
868.895755	2469.971300
869.207515	2472.552371
869.519233	2466.250929
869.830909	2470.089767
870.142542	2469.530199
870.454134	2470.868626
870.765684	2469.225209
871.077191	2470.513224
871.388657	2465.159519
871.700081	2464.035342
872.011463	2468.121197
872.322803	2463.420321
872.634101	2469.941053
872.945357	2468.398460
873.256571	2469.164716
873.567744	2466.278655
873.878874	2469.711681
874.189963	2466.034159
874.501010	2467.531382
874.812015	2469.089098
875.122979	2472.547330
875.433900	2466.926443
875.744780	2469.089098
876.055618	2466.215641
876.366415	2471.387864
876.677169	2468.222020
876.987882	2470.288893
877.298554	2468.118676
877.609183	2468.111114
877.919771	2468.295117
878.230317	2470.556074
878.540822	2468.690847
878.851285	2471.564305
879.161707	2469.797380
879.472087	2470.450210
879.782425	2471.249233
880.092722	2470.183029
880.402977	2473.419449
880.713191	2475.067907
881.023363	2473.784933
881.333494	2477.089409
881.643583	2477.275932
881.953631	2477.661580
882.263637	2478.009420
882.573602	2478.584112
882.883526	2479.027733
883.193408	2476.804584
883.503248	2474.273925
883.813048	2472.968266
884.122806	2474.720067
884.432522	2474.057155
884.742197	2472.350725
885.051831	2470.742597
885.361424	2471.828965
885.670975	2471.705457
885.980485	2472.431383
886.289954	2471.460961
886.599382	2470.520786
886.908768	2466.240846
887.218113	2466.908799
887.527417	2468.433748
887.836680	2464.874694
888.145901	2469.656228
888.455082	2468.738738
888.764221	2469.958697
889.073319	2468.060703
889.382376	2469.139510
889.691392	2468.043059
890.000366	2469.263018
890.309300	2468.990796
890.618193	2468.471557
890.927044	2468.479119
891.235855	2470.155302
891.544625	2469.386526
891.853353	2468.693368
892.162041	2468.663121
892.470687	2471.768472
892.779293	2469.656228
893.087858	2468.895014
893.396381	2468.738738
893.704864	2470.755200
894.013306	2471.405508
894.321707	2469.802422
894.630068	2468.481639
894.938387	2471.592031
895.246665	2471.745786
895.554903	2472.875005
895.863100	2471.786116
896.171256	2471.876856
896.479371	2471.329891
896.787446	2469.845271
897.095480	2469.381485
897.403473	2471.022381
897.711425	2469.769654
898.019336	2469.671352
898.327207	2469.779736
898.635038	2468.524489
898.942827	2469.600775
899.250576	2470.908955
899.558284	2467.659931
899.865952	2465.809828
900.173579	2469.923409
900.481165	2469.565487
900.788711	2468.446351
901.096216	2467.634725
901.403681	2469.247895
901.711105	2468.053141
902.018489	2469.527679
902.325832	2466.346711
902.633135	2463.982409
902.940397	2468.002730
903.247619	2464.108438
903.554800	2468.854685
903.861941	2473.563122
904.169041	2470.089767
904.476101	2471.425673
904.783121	2470.188070
905.090100	2471.080354
905.397039	2469.777216
905.703938	2470.568677
906.010796	2472.363328
906.317614	2469.295786
906.624391	2468.179170
906.931129	2470.369551
907.237826	2469.943574
907.544483	2467.705302
907.851099	2469.752010
908.157675	2468.809314
908.464211	2467.755713
908.770707	2466.558439
909.077163	2469.845271
909.383578	2467.233954
909.689954	2469.683954
909.996289	2469.646146
910.302584	2468.383337
910.608839	2470.871146
910.915054	2466.417287
911.221229	2471.173615
911.527363	2467.591876
911.833458	2468.186732
912.139513	2468.527010
912.445527	2467.435600
912.751502	2468.595065
913.057436	2465.530044
913.363331	2470.059520
913.669186	2468.660600
913.975000	2465.565332
914.280775	2468.164047
914.586510	2470.258646
914.892205	2469.368882
915.197859	2469.106742
915.503475	2469.230251
915.809050	2471.750828
916.114585	2471.428194
916.420081	2469.464664
916.725536	2470.172946
917.030952	2471.178657
917.336328	2472.522124
917.641665	2469.371403
917.946961	2467.294447
918.252218	2469.295786
918.557435	2465.804787
918.862612	2468.819397
919.167750	2468.980713
919.472848	2468.668162
919.777906	2470.031794
920.082925	2469.789819
920.387904	2470.160343
920.692843	2467.559108
920.997743	2469.721763
921.302603	2468.088429
921.607423	2468.267390
921.912204	2470.150261
922.216946	2465.593058
922.521647	2469.688996
922.826310	2467.067596
923.130932	2468.302678
923.435516	2464.655403
923.740059	2470.944243
924.044564	2466.291258
924.349028	2470.397278
924.653454	2468.756382
924.957840	2466.223202
925.262186	2466.402163
925.566493	2469.290744
925.870761	2466.165229
926.174989	2468.748820
926.479178	2466.790332
926.783328	2465.318315
927.087438	2469.217648
927.391509	2468.564818
927.695541	2465.862760
927.999533	2467.453244
928.303486	2467.183542
928.607400	2467.962400
928.911275	2467.019705
929.215110	2468.567339
929.518906	2465.041052
929.822663	2469.124386
930.126381	2468.786629
930.430060	2466.772688
930.733699	2466.077009
931.037299	2467.120528
931.340861	2467.236474
931.644383	2467.687658
931.947866	2467.475929
932.251309	2465.300671
932.554714	2469.043728
932.858080	2467.541464
933.161407	2461.040896
933.464694	2466.077009
933.767943	2462.316308
934.071153	2468.269911
934.374323	2466.878552
934.677455	2469.318471
934.980548	2466.797894
935.283602	2467.909468
935.586617	2465.255301
935.889593	2465.817389
936.192530	2465.570373
936.495428	2465.777060
936.798287	2466.462657
937.101108	2466.013994
937.403890	2468.095991
937.706632	2466.876032
938.009336	2467.690178
938.312002	2467.722946
938.614628	2465.716566
938.917216	2468.874849
939.219765	2466.807976
939.522275	2467.831330
939.824747	2463.793366
940.127179	2466.119859
940.429573	2464.753706
940.731929	2466.818058
941.034246	2464.695733
941.336524	2468.229582
941.638763	2466.021556
941.940964	2466.008953
942.243126	2465.436782
942.545250	2466.739921
942.847335	2468.043059
943.149381	2463.180866
943.451389	2468.209417
943.753359	2467.967442
944.055290	2467.791001
944.357182	2468.960549
944.659036	2468.877370
944.960851	2465.577935
945.262628	2467.443162
945.564367	2467.856536
945.866067	2465.923254
946.167729	2467.269242
946.469352	2468.753862
946.770937	2466.059365
947.072484	2467.470888
947.373992	2468.012812
947.675462	2464.950311
947.976893	2464.294961
948.278286	2460.098200
948.579641	2464.693212
948.880958	2459.079887
949.182236	2468.050621
949.483476	2464.158850
949.784678	2466.850826
950.085841	2465.676237
950.386967	2463.818572
950.688054	2464.718418
950.989103	2465.174642
951.290114	2467.213789
951.591087	2466.939046
951.892021	2466.273614
952.192917	2464.269755
952.493776	2467.349900
952.794596	2466.709674
953.095378	2464.509210
953.396122	2466.727318
953.696828	2463.193469
953.997496	2460.884620
954.298126	2463.843778
954.598718	2465.366206
954.899272	2464.640280
955.199788	2465.557770
955.500266	2467.944756
955.800706	2465.605661
956.101108	2465.809828
956.401472	2467.395271
956.701798	2466.066927
957.002087	2466.971814
957.302337	2465.663634
957.602550	2465.388891
957.902724	2465.000722
958.202861	2465.958542
958.502960	2467.100363
958.803022	2466.344190
959.103045	2465.570373
959.403031	2466.629015
959.702979	2463.397636
960.002889	2467.107925
960.302762	2466.185394
960.602596	2467.281845
960.902393	2467.110445
961.202153	2465.164560
961.501875	2466.439972
961.801559	2465.325877
962.101205	2466.896196
962.400814	2466.533233
962.700385	2466.944087
962.999918	2462.780094
963.299414	2461.078705
963.598873	2463.417800
963.898293	2461.547532
964.197677	2465.030969
964.497022	2463.783284
964.796331	2467.884262
965.095601	2465.146916
965.394835	2464.577266
965.694030	2464.836885
965.993189	2468.549695
966.292309	2465.494756
966.591393	2465.386371
966.890439	2464.478963
967.189447	2464.864611
967.488419	2465.096504
967.787353	2466.321505
968.086249	2464.922585
968.385108	2464.962914
968.683930	2465.787142
968.982714	2465.867801
969.281462	2467.044910
969.580172	2464.799076
969.878844	2466.434931
970.177480	2466.376958
970.476078	2465.348562
970.774639	2467.070116
971.073162	2464.597430
971.371649	2463.732872
971.670098	2465.789663
971.968510	2465.141875
972.266885	2464.965434
972.565223	2466.036680
972.863524	2464.529375
973.161788	2465.588017
973.460014	2465.736731
973.758204	2464.584827
974.056356	2466.054324
974.354471	2464.965434
974.652550	2465.893007
974.950591	2466.371916
975.248595	2464.186576
975.546563	2465.651031
975.844493	2465.467029
976.142386	2466.636577
976.440243	2465.368727
976.738062	2464.940229
977.035845	2467.957359
977.333590	2467.649849
977.631299	2466.404684
977.928971	2463.503500
978.226606	2458.248097
978.524204	2465.799745
978.821765	2460.544343
979.119290	2465.381330
979.416777	2466.266052
979.714228	2465.656072
980.011642	2466.094653
980.309020	2462.391925
980.606360	2466.336628
980.903664	2466.248408
981.200931	2466.487863
981.498162	2464.736062
981.795356	2465.651031
982.092513	2464.085753
982.389633	2465.283027
982.686717	2468.789150
982.983764	2465.023408
983.280775	2465.797225
983.577749	2464.872173
983.874686	2465.898048
984.171587	2466.649180
984.468451	2465.293109
984.765279	2465.915692
985.062070	2464.504169
985.358824	2464.569704
985.655543	2463.475773
985.952224	2464.123562
986.248869	2464.725980
986.545478	2464.955352
986.842050	2465.721607
987.138586	2463.747996
987.435086	2465.998871
987.731549	2465.686319
988.027975	2466.175311
988.324366	2464.814200
988.620719	2466.699591
988.917037	2464.340331
989.213318	2465.020887
989.509563	2463.571555
989.805772	2465.467029
990.101944	2466.621453
990.398080	2466.326546
990.694180	2465.542647
990.990244	2466.502986
991.286271	2464.395784
991.582262	2467.259159
991.878217	2464.335290
992.174136	2466.324025
992.470019	2465.489714
992.765865	2462.855712
993.061676	2461.058540
993.357450	2464.030300
993.653188	2461.272789
993.948890	2461.519806
994.244556	2462.896041
994.540186	2465.746813
994.835780	2464.695733
995.131337	2464.126082
995.426859	2465.961062
995.722345	2467.221351
996.017795	2466.089612
996.313208	2465.424179
996.608586	2465.288068
996.903928	2464.899899
997.199234	2465.593058
997.494504	2466.346711
997.789738	2462.129785
998.084936	2463.931998
998.380099	2464.413428
998.675225	2466.689509
998.970316	2466.142544
999.265371	2466.795373
999.560390	2462.696915
999.855373	2467.773357
1000.150320	2464.867132
1000.445232	2464.345373
1000.740108	2462.210444
1001.034948	2464.824282
1001.329752	2465.537605
1001.624521	2466.576083
1001.919254	2462.359158
1002.213951	2466.364355
1002.508613	2466.417287
1002.803239	2463.271607
1003.097829	2460.534260
1003.392384	2463.480815
1003.686903	2465.383850
1003.981386	2462.351596
1004.275834	2463.080043
1004.570246	2464.390743
1004.864623	2465.343521
1005.158964	2464.940229
1005.453270	2464.078191
1005.747540	2464.592389
1006.041775	2465.986268
1006.335974	2465.091463
1006.630138	2465.262862
1006.924266	2466.298820
1007.218359	2461.683643
1007.512416	2462.858232
1007.806438	2460.937552
1008.100425	2463.783284
1008.394376	2460.884620
1008.688292	2466.510548
1008.982172	2463.866463
1009.276017	2468.199335
1009.569827	2464.647842
1009.863602	2465.560291
1010.157341	2464.463840
1010.451045	2462.535598
1010.744714	2463.432924
1011.038347	2463.374950
1011.331945	2464.945270
1011.625508	2467.422997
1011.919036	2464.312605
1012.212528	2465.804787
1012.505986	2463.231278
1012.799408	2466.732359
1013.092795	2467.226392
1013.386147	2466.213120
1013.679464	2463.803448
1013.972745	2464.841926
1014.265992	2464.410908
1014.559204	2463.977368
1014.852380	2464.668006
1015.145521	2465.207410
1015.438628	2467.314612
1015.731699	2466.177832
1016.024736	2464.088274
1016.317737	2465.371247
1016.610703	2462.059209
1016.903635	2468.002730
1017.196531	2463.037193
1017.489393	2464.337811
1017.782219	2464.534416
1018.075011	2462.132306
1018.367768	2462.180197
1018.660490	2465.237657
1018.953177	2465.237657
1019.245829	2465.237657
