Dividing Wavelength (nm)	Counts (n)	Blue Motor Position (mm): 0.000000	Red Motor Position (mm): 42.000000	
326.493990	2057.073074
326.888308	2057.073074
327.282561	2057.073074
327.676750	2027.254649
328.070874	2030.891841
328.464933	2037.735208
328.858929	2043.678728
329.252859	2056.392518
329.646726	2064.602037
330.040528	2084.938052
330.434265	2101.253746
330.827938	2119.903495
331.221547	2143.357463
331.615091	2161.034269
332.008571	2184.430264
332.401986	2205.101515
332.795338	2224.046172
333.188625	2243.084089
333.581847	2260.594537
333.975006	2277.386620
334.368100	2296.845474
334.761129	2313.957671
335.154095	2331.069868
335.546996	2361.074815
335.939833	2422.425658
336.332606	2434.831937
336.725315	2447.636468
337.117960	2458.323714
337.510540	2467.407873
337.903056	2476.600417
338.295508	2483.960502
338.687896	2491.618015
339.080220	2495.860146
339.472480	2500.361896
339.864676	2503.777278
340.256807	2507.069151
340.648875	2510.575274
341.040879	2507.792557
341.432818	2511.409585
341.824694	2514.356139
342.216506	2513.700789
342.608253	2514.824967
342.999937	2512.069976
343.391557	2511.288597
343.783113	2510.207270
344.174605	2506.416322
344.566033	2509.473782
344.957397	2508.044615
345.348697	2505.241733
345.739934	2500.971876
346.131106	2500.084633
346.522215	2499.068840
346.913260	2498.852071
347.304241	2496.356699
347.695159	2495.872749
348.086012	2495.928201
348.476802	2490.955103
348.867528	2487.630462
349.258191	2483.418578
349.648789	2490.019969
350.039324	2482.697693
350.429796	2486.791110
350.820203	2487.249855
351.210548	2485.387149
351.600828	2485.407313
351.991045	2486.818836
352.381198	2482.274236
352.771288	2486.097951
353.161314	2484.356233
353.551276	2485.525780
353.941175	2487.133908
354.331010	2487.600215
354.720782	2484.880513
355.110490	2487.368322
355.500135	2485.457725
355.889717	2485.114926
356.279235	2485.500575
356.668689	2484.431850
357.058080	2487.791779
357.447408	2486.352530
357.836672	2487.670791
358.225873	2488.376553
358.615010	2488.295894
359.004084	2487.295225
359.393095	2488.855462
359.782043	2489.041985
360.170927	2489.359578
360.559748	2490.831595
360.948505	2492.333859
361.337199	2493.032058
361.725830	2493.090032
362.114398	2492.119610
362.502903	2493.826040
362.891344	2497.798469
363.279722	2490.990391
363.668037	2496.618839
364.056289	2497.175887
364.444478	2495.842502
364.832603	2498.892400
365.220665	2500.253511
365.608665	2500.523213
365.996601	2495.945845
366.384474	2502.396002
366.772284	2501.294510
367.160031	2500.838285
367.547715	2502.108656
367.935336	2499.716628
368.322893	2500.578666
368.710388	2500.566063
369.097820	2499.535147
369.485189	2497.407780
369.872495	2506.307937
370.259738	2503.416835
370.646918	2504.735097
371.034035	2502.572442
371.421090	2508.644512
371.808081	2506.169305
372.195010	2509.783813
372.581875	2511.298679
372.968678	2512.402692
373.355418	2513.751201
373.742096	2514.676253
374.128710	2517.327899
374.515262	2519.974505
374.901751	2522.512726
375.288177	2525.986081
375.674540	2528.801566
376.060841	2533.018491
376.447079	2538.573842
376.833254	2542.548792
377.219367	2546.397713
377.605417	2555.335679
377.991404	2561.289282
378.377329	2567.555436
378.763191	2576.014492
379.148991	2581.048084
379.534727	2591.369847
379.920402	2599.294540
380.306013	2604.499532
380.691563	2623.731534
381.077049	2632.291413
381.462474	2638.895324
381.847835	2657.111534
382.233134	2668.998575
382.618371	2678.722960
383.003545	2696.112421
383.388657	2709.733618
383.773706	2729.358830
384.158693	2742.574215
384.543618	2762.602719
384.928480	2773.501694
385.313280	2797.341310
385.698017	2813.286480
386.082692	2838.714060
386.467305	2855.468335
386.851856	2876.537837
387.236344	2906.628485
387.620770	2924.169179
388.005133	2944.401850
388.389435	2979.876450
388.773674	2992.126454
389.157851	3026.076104
389.541965	3053.656257
389.926018	3065.238308
390.310008	3100.009667
390.693936	3126.183337
391.077802	3151.757111
391.461606	3181.610824
391.845348	3199.643031
392.229027	3229.698391
392.612645	3269.538629
392.996200	3302.154895
393.379694	3340.079495
393.763125	3381.837893
394.146494	3408.530803
394.529801	3444.786781
394.913047	3490.598267
395.296230	3495.888958
395.679351	3519.602545
396.062410	3571.067685
396.445408	3548.558933
396.828343	3591.106272
397.211217	3622.580716
397.594028	3597.848815
397.976778	3645.275990
398.359466	3680.556505
398.742092	3687.417516
399.124656	3702.540977
399.507158	3764.983229
399.889598	3771.241822
400.271977	3836.393694
400.654294	3826.739885
401.036549	3883.982187
401.418742	3885.403792
401.800874	3953.998772
402.182944	3979.539778
402.564952	4064.412644
402.946898	4062.703693
403.328783	4053.387641
403.710606	4102.682564
404.092367	4173.500693
404.474067	4240.616095
404.855705	4226.493302
405.237282	4199.729817
405.618797	4295.907470
406.000250	4371.560066
406.381642	4459.200526
406.762972	4454.643323
407.144240	4422.808436
407.525447	4491.836956
407.906593	4509.168443
408.287677	4594.275722
408.668700	4615.912355
409.049661	4655.306451
409.430560	4692.048901
409.811399	4679.032642
410.192176	4725.517122
410.572891	4809.525430
410.953545	4913.544598
411.334138	4809.903516
411.714669	4914.772119
412.095139	4831.555272
412.475547	4945.011481
412.855894	4952.616061
413.236180	5053.010640
413.616405	4979.903827
413.996568	5087.401392
414.376670	5090.463893
414.756711	5079.711111
415.136691	5155.063758
415.516609	5237.965533
415.896466	5271.695894
416.276262	5350.559705
416.655997	5468.373991
417.035670	5561.398402
417.415283	5702.951482
417.794834	5778.488131
418.174324	5732.704372
418.553753	5738.726030
418.933121	5908.955713
419.312428	5918.453247
419.691674	5840.058264
420.070859	6069.188788
420.449983	5947.855777
420.829045	6142.842567
421.208047	6065.531431
421.586988	6232.708696
421.965867	6300.381145
422.344686	6382.771243
422.723444	6548.763836
423.102141	6167.582029
423.480777	6560.814714
423.859352	6374.385283
424.237866	6742.071921
424.616319	6736.584625
424.994712	6899.597897
425.373044	6811.901984
425.751314	7130.429811
426.129524	6850.376071
426.507673	7120.027390
426.885762	7166.300141
427.263789	7206.896553
427.641756	7288.285982
428.019662	7375.137501
428.397508	7412.255517
428.775292	7394.795480
429.153016	7567.248312
429.530679	7497.241809
429.908282	7555.633494
430.285824	7488.838205
430.663305	7784.464070
431.040726	7663.148702
431.418086	7672.691607
431.795385	7799.955535
432.172624	7992.794793
432.549802	7872.462451
432.926920	8008.215683
433.303977	7951.669060
433.680974	7995.985844
434.057910	8197.863891
434.434786	8250.564113
434.811601	8204.034263
435.188355	8549.683497
435.565050	8435.398019
435.941683	8447.486706
436.318257	8779.892829
436.694770	8733.857012
437.071222	8963.413514
437.447614	8737.269873
437.823946	8706.327271
438.200218	8859.626238
438.576429	8735.059327
438.952580	8898.359944
439.328670	8909.389989
439.704700	8989.811516
440.080670	8880.173982
440.456580	9153.636413
440.832429	9129.363257
441.208218	8870.121921
441.583947	8981.954878
441.959616	9103.355945
442.335224	9133.653279
442.710773	9216.892812
443.086261	9398.681860
443.461689	9111.399106
443.837057	9285.870920
444.212365	9499.983847
444.587612	9480.585487
444.962800	9382.250219
445.337927	9510.479529
445.712995	9047.893170
446.088002	9722.954082
446.462949	9786.649060
446.837837	9776.317216
447.212664	9791.972519
447.587431	10632.022834
447.962139	11642.849797
448.336786	12597.719953
448.711374	12382.558466
449.085901	11156.559933
449.460369	11074.139588
449.834776	10850.382933
450.209124	11773.488779
450.583412	11588.710326
450.957640	11905.390569
451.331808	11501.705052
451.705917	10919.938254
452.079965	10792.046701
452.453954	11001.849442
452.827883	10944.639908
453.201752	10919.318192
453.575562	10927.336147
453.949311	11271.838518
454.323001	11332.344967
454.696632	11248.089643
455.070202	11846.038544
455.443713	11898.448900
455.817164	12070.737895
456.190556	12397.175292
456.563888	12266.990014
456.937160	12527.806711
457.310373	12006.919408
457.683526	12012.900737
458.056619	12037.294880
458.429653	12105.078235
458.802628	12249.756830
459.175542	12300.445632
459.548398	12858.541692
459.921194	13436.709106
460.293930	13714.857290
460.666607	14577.917952
461.039224	15387.184461
461.411782	15745.209728
461.784280	15412.314613
462.156719	15363.917015
462.529099	15271.258087
462.901419	14620.319097
463.273680	14225.221184
463.645882	14435.764975
464.018024	14323.609384
464.390106	14691.437174
464.762130	15761.472490
465.134094	17306.853325
465.505999	19614.554924
465.877845	21904.756157
466.249631	23177.342514
466.621358	22722.569943
466.993026	21900.115775
467.364634	21161.692601
467.736184	20343.624237
468.107674	19729.379806
468.479105	19584.691128
468.850477	19306.948757
469.221790	18874.732829
469.593043	18201.733750
469.964238	17810.285633
470.335373	17868.689921
470.706449	18600.851982
471.077467	19448.832032
471.448425	21951.976645
471.819324	23843.178114
472.190164	23772.460807
472.560945	22002.604953
472.931667	20408.813918
473.302330	20075.472661
473.672934	19512.630355
474.043479	19936.561146
474.413965	19716.592919
474.784393	19530.773467
475.154761	20214.177489
475.525070	20339.125007
475.895321	20177.248516
476.265513	20709.992613
476.635645	21314.958801
477.005719	21371.833099
477.375734	21737.959500
477.745691	22378.929609
478.115588	23017.585828
478.485427	24223.873449
478.855207	26044.985235
479.224928	27884.013282
479.594591	29340.349696
479.964194	28981.275869
480.333739	29454.158785
480.703226	29678.648927
481.072653	30121.980599
481.442022	30634.025719
481.811333	31068.190053
482.180584	30624.064399
482.549777	30405.966440
482.918912	30166.562043
483.287988	30100.502763
483.657005	29962.571753
484.025964	29580.243084
484.394864	29782.993250
484.763706	29706.564317
485.132489	29161.192129
485.501213	29255.822148
485.869879	29427.680124
486.238487	29340.279119
486.607036	29618.674320
486.975527	29300.433839
487.343959	29653.100360
487.712333	30017.754744
488.080648	29962.097885
488.448905	30420.885734
488.817104	30284.890527
489.185244	31142.063121
489.553326	32089.701742
489.921350	34014.961246
490.289315	36552.322690
490.657222	37496.503079
491.025070	38075.837521
491.392861	37803.201838
491.760593	37047.348875
492.128267	36025.141506
492.495883	35034.065784
492.863440	34133.534225
493.230939	33132.449292
493.598380	32560.845460
493.965763	32406.550864
494.333088	31889.446947
494.700354	31699.440817
495.067563	31649.500626
495.434713	31523.078570
495.801805	31824.746257
496.168839	31651.486841
496.535815	31514.851407
496.902733	31628.577317
497.269593	31434.939036
497.636395	31603.409357
498.003139	31877.207025
498.369825	31630.051855
498.736453	32054.315362
499.103023	31880.009907
499.469535	31967.612557
499.835989	32102.029884
500.202385	31963.375468
500.568723	32000.019615
500.935003	32313.178612
501.301226	32171.859947
501.667390	32921.845007
502.033497	33138.997750
502.399546	32938.989972
502.765537	32527.125182
503.131470	33027.230328
503.497345	33461.195537
503.863163	32383.270816
504.228923	33178.565767
504.594625	33565.318049
504.960269	33029.178734
505.325856	33712.933116
505.691385	33379.445665
506.056856	33710.382292
506.422270	34202.545101
506.787625	33708.723752
507.152924	34180.505176
507.518164	34364.618197
507.883347	33925.463121
508.248472	34073.718414
508.613540	34783.651507
508.978550	35003.216443
509.343503	34851.334039
509.708398	35202.639448
510.073236	35804.822919
510.438016	35901.426550
510.802738	35571.946817
511.167403	36128.255788
511.532010	36386.995529
511.896561	36905.369818
512.261053	37659.854108
512.625488	37446.772097
512.989866	37354.798765
513.354186	37412.393948
513.718449	37386.255565
514.082655	38283.654047
514.446803	37955.880744
514.810894	38597.614588
515.174927	38598.965617
515.538904	38600.120041
515.902822	39249.849155
516.266684	38940.801218
516.630488	39299.466711
516.994235	39304.273452
517.357925	39876.063806
517.721558	40142.735803
518.085133	40528.399196
518.448651	40708.451567
518.812112	40600.235638
519.175516	40747.835582
519.538863	41215.647097
519.902152	41269.695828
520.265385	41819.113542
520.628560	41836.515605
520.991678	41803.380100
521.354739	42023.612988
521.717743	42383.952145
522.080690	42280.421968
522.443580	42981.815347
522.806413	42993.929240
523.169189	43137.791167
523.531908	43361.147050
523.894569	43200.309037
524.257174	43397.574428
524.619722	43746.218108
524.982213	43909.886729
525.344647	43942.666832
525.707025	44068.279783
526.069345	44513.028019
526.431608	44431.552891
526.793815	44829.433520
527.155964	44333.520092
527.518057	44599.718221
527.880093	44464.721162
528.242072	45106.850736
528.603995	44827.941338
528.965860	44723.778497
529.327669	44938.720694
529.689421	45014.360687
530.051117	44987.002345
530.412755	45266.410817
530.774337	45311.193908
531.135862	45248.338281
531.497331	45414.439259
531.858743	45398.776394
532.220098	45811.528427
532.581396	45518.748294
532.942638	45294.485003
533.303824	45547.694599
533.664953	45598.509430
534.026025	45276.813238
534.387040	45842.861718
534.747999	45891.196302
535.108902	46241.367451
535.469748	45538.343259
535.830537	45832.915522
536.191270	46078.830568
536.551947	45823.821280
536.912567	46084.713595
537.273131	46216.398616
537.633638	45852.427308
537.994089	46022.140273
538.354483	45777.498118
538.714821	46431.653364
539.075103	46729.477172
539.435328	46578.562670
539.795497	46327.147724
540.155609	46475.428224
540.515665	47058.367090
540.875665	46338.034096
541.235609	46597.290556
541.595496	46749.609020
541.955328	47332.545365
542.315102	46760.303827
542.674821	46661.330854
543.034483	46552.520069
543.394090	46567.691421
543.753640	46546.163174
544.113134	47599.396323
544.472571	46727.470793
544.831953	47844.555197
545.191278	47101.995756
545.550548	46795.884291
545.909761	47432.551775
546.268918	47578.251204
546.628019	47975.413468
546.987064	47410.405986
547.346053	46724.640185
547.704986	47650.193510
548.063863	47279.177190
548.422684	47490.378851
548.781449	47048.662869
549.140158	47587.355527
549.498811	47328.835076
549.857408	46720.882004
550.215949	47565.456755
550.574434	47401.709996
550.932864	47357.211731
551.291237	48073.542048
551.649555	47798.847055
552.007817	47986.355293
552.366022	47690.948718
552.724173	47755.498173
553.082267	48153.635901
553.440305	48523.656593
553.798288	47755.581352
554.156215	48162.737704
554.514086	48363.428559
554.871902	47938.676060
555.229661	48106.034806
555.587365	47791.292886
555.945014	47923.212320
556.302606	47946.184858
556.660143	48045.089776
557.017625	48268.032284
557.375050	47956.068040
557.732421	48351.627218
558.089735	48429.225699
558.446994	48284.781518
558.804197	48771.424263
559.161345	48612.358216
559.518437	47966.619175
559.875474	48196.216007
560.232455	48428.283003
560.589381	48464.715422
560.946251	48304.739446
561.303065	48951.126275
561.659825	48637.271598
562.016528	48427.020194
562.373177	47998.499432
562.729770	48645.213936
563.086307	48146.885796
563.442789	48705.773317
563.799216	48550.593999
564.155587	48462.270463
564.511904	48418.044420
564.868164	48473.492071
565.224370	48778.907856
565.580520	48512.344244
565.936615	48705.191064
566.292654	48344.156228
566.648638	48708.631651
567.004567	48653.463784
567.360441	48718.955934
567.716260	48438.277091
568.072023	48828.880814
568.427732	48744.222197
568.783385	48253.670037
569.138982	48695.963232
569.494525	48821.218261
569.850013	48445.395200
570.205445	48560.154547
570.560823	48312.626331
570.916145	48196.054690
571.271412	48445.922001
571.626625	48089.439327
571.981782	48161.464813
572.336884	47756.080426
572.691931	48070.262778
573.046923	47720.552894
573.401860	47553.511741
573.756743	47572.499247
574.111570	47732.137466
574.466342	47634.134915
574.821059	47786.690312
575.175722	47271.060932
575.530330	47348.556070
575.884882	47005.029162
576.239380	46902.935714
576.593823	46992.678335
576.948211	46933.653985
577.302544	46459.624206
577.656823	46474.603995
578.011047	46732.338027
578.365216	46568.082111
578.719330	46250.948163
579.073389	46259.104750
579.427394	46285.545602
579.781344	46191.596139
580.135239	45952.526979
580.489080	46023.556837
580.842866	45514.266708
581.196597	45992.725140
581.550273	45983.343553
581.903895	45908.860505
582.257463	46356.630913
582.610975	45766.107631
582.964434	46082.858450
583.317837	45581.515700
583.671186	45562.442495
584.024481	45827.844121
584.377721	45356.579416
584.730906	45574.064875
585.084037	45696.146498
585.437113	45434.225788
585.790135	45538.746551
586.143103	45105.086332
586.496016	45265.679850
586.848874	45375.032559
587.201679	45393.926804
587.554428	44874.977824
587.907124	45138.471374
588.259765	44921.177478
588.612352	45062.506227
588.964884	44492.865924
589.317362	44806.682792
589.669786	44818.048074
590.022155	44683.164441
590.374470	45165.544891
590.726731	44708.241661
591.078937	44038.781471
591.431090	44398.457716
591.783188	43900.880707
592.135232	43708.008682
592.487222	43963.990913
592.839157	44107.502480
593.191038	43753.290846
593.542866	43552.620156
593.894639	42906.122422
594.246358	43215.130029
594.598022	43205.418246
594.949633	42755.757406
595.301190	42739.343409
595.652692	42674.637678
596.004141	43175.526725
596.355535	42031.419215
596.706876	42050.915878
597.058162	41749.308684
597.409395	42251.611774
597.760573	42482.423523
598.111698	42054.749675
598.462768	41960.094450
598.813785	41972.336892
599.164748	41573.816037
599.515657	41835.905625
599.866511	41331.661691
600.217312	41999.889318
600.568060	40940.142998
600.918753	41760.915941
601.269392	41652.163129
601.619978	41369.369522
601.970510	41564.694069
602.320988	41683.564476
602.671412	41941.444701
603.021783	41767.701334
603.372100	41349.865297
603.722363	41440.424585
604.072572	41459.175157
604.422728	41440.628752
604.772830	41200.397607
605.122878	41366.554037
605.472872	41214.109545
605.822813	41435.816971
606.172701	41166.054746
606.522534	41466.189923
606.872314	41654.739159
607.222041	41493.313851
607.571714	41790.600775
607.921333	41249.543815
608.270899	41438.758484
608.620411	41795.959522
608.969870	41555.146123
609.319276	41523.568336
609.668627	41547.133209
610.017926	41918.328490
610.367171	42019.771629
610.716362	42038.242417
611.065500	41929.056066
611.414585	42113.159004
611.763616	42232.672159
612.112594	42122.754841
612.461518	42218.193965
612.810389	42559.543095
613.159207	42323.319667
613.507971	42264.784309
613.856682	42748.377156
614.205340	42532.726677
614.553945	43203.837845
614.902496	42504.158458
615.250994	42898.911051
615.599439	42945.491313
615.947830	43017.022765
616.296169	42974.682114
616.644454	42970.626506
616.992686	43083.261006
617.340864	43453.546359
617.688990	42924.973817
618.037063	43569.470213
618.385082	43341.632744
618.733048	43639.832117
619.080961	43469.920027
619.428821	43461.110611
619.776628	43442.130666
620.124382	43254.816513
620.472083	43330.317874
620.819731	43442.135708
621.167326	42974.702279
621.514868	42948.289153
621.862357	42355.328473
622.209793	42435.124897
622.557176	41984.402894
622.904506	41735.284194
623.251783	41349.799762
623.599007	41011.422393
623.946179	40904.126474
624.293297	40603.716555
624.640363	40034.799658
624.987376	39854.505312
625.334336	39631.691353
625.681243	39191.835556
626.028097	39054.111233
626.374899	38861.869352
626.721647	38773.477760
627.068343	38494.157508
627.414987	38167.858743
627.761577	37886.179231
628.108115	38160.828854
628.454600	37374.005562
628.801032	37561.574293
629.147412	37393.333345
629.493739	37251.974350
629.840014	36776.444829
630.186236	37124.556666
630.532405	36524.734976
630.878521	36699.211831
631.224585	36440.814888
631.570597	36063.050983
631.916556	36178.080032
632.262462	36018.414087
632.608316	35898.583339
632.954117	35722.079940
633.299866	35656.653325
633.645562	35531.136156
633.991206	34981.662989
634.336797	34579.545271
634.682336	34420.733801
635.027823	34161.721837
635.373257	34016.274466
635.718639	33672.369471
636.063968	33537.937022
636.409245	32892.545821
636.754470	32802.152892
637.099642	32545.613613
637.444762	31984.477738
637.789829	32065.738617
638.134845	31640.396303
638.479808	31516.399041
638.824719	31455.292695
639.169577	30926.334504
639.514383	30964.014609
639.859137	30547.353161
640.203839	30651.591620
640.548489	30340.045791
640.893086	30293.344542
641.237632	29969.667177
641.582125	30007.924494
641.926566	29754.588869
642.270955	29748.037889
642.615292	29620.501738
642.959576	29449.566294
643.303809	29410.172197
643.647990	29435.572051
643.992118	29354.744710
644.336195	29142.222267
644.680219	29155.394802
645.024192	29256.391799
645.368112	29663.038994
645.711981	29607.611508
646.055797	30134.064245
646.399562	29872.014986
646.743274	30552.187628
647.086935	30815.116568
647.430544	30717.804655
647.774101	30692.470336
648.117606	30910.878327
648.461059	30971.624230
648.804460	30597.749576
649.147810	30124.957401
649.491108	29809.252621
649.834354	29675.296560
650.177548	28925.959288
650.520690	28418.428521
650.863781	28351.285393
651.206820	28148.386513
651.549807	27742.934071
651.892742	27176.706629
652.235626	27045.119911
652.578458	26872.783026
652.921238	26215.492182
653.263967	26394.286785
653.606644	26078.743322
653.949269	25939.423473
654.291843	25545.416971
654.634365	25779.949092
654.976836	25335.553737
655.319255	25358.574166
655.661622	25185.140829
656.003938	25011.722616
656.346203	24815.929242
656.688416	24964.434073
657.030577	24712.288160
657.372687	24518.254149
657.714746	24560.642691
658.056753	24666.522045
658.398708	24097.600107
658.740612	24103.314255
659.082465	24214.426327
659.424266	24070.531632
659.766016	23983.929650
660.107715	23812.280882
660.449362	23819.272962
660.790958	23732.098809
661.132503	23629.544096
661.473996	23620.134782
661.815438	23631.552996
662.156829	23647.336848
662.498168	23434.010341
662.839456	23353.036807
663.180693	23399.455752
663.521879	23378.660992
663.863013	23287.887456
664.204097	23207.324776
664.545129	23461.126708
664.886110	23333.555268
665.227040	23352.499925
665.567918	23271.128140
665.908746	23246.020673
666.249522	23255.674483
666.590248	23206.775290
666.930922	23212.721331
667.271545	23172.525691
667.612118	23150.478205
667.952639	22946.997071
668.293109	22915.860384
668.633528	22737.811872
668.973896	22658.103668
669.314213	22568.020769
669.654480	22367.339996
669.994695	22301.071508
670.334859	22181.487777
670.674973	21978.692240
671.015035	22046.848640
671.355047	21924.041091
671.695008	21805.684881
672.034918	21687.757169
672.374777	21665.770177
672.714585	21532.708921
673.054342	21553.223897
673.394049	21380.929861
673.733705	21474.831434
674.073310	21216.847865
674.412864	21187.730161
674.752368	20941.643715
675.091820	21050.454500
675.431223	20722.086342
675.770574	20523.772390
676.109875	20343.941830
676.449125	20154.649023
676.788324	20019.329331
677.127473	19629.479260
677.466571	19512.045581
677.805619	19281.377504
678.144616	19177.239869
678.483562	19079.862421
678.822458	18808.499630
679.161303	18696.530562
679.500098	18598.717053
679.838842	18477.454618
680.177535	18452.037121
680.516179	18534.039050
680.854771	18518.209827
681.193314	18875.562099
681.531805	19400.315968
681.870247	19823.009156
682.208638	20274.144534
682.546978	20460.581527
682.885268	20524.460508
683.223508	20204.425377
683.561697	19982.876747
683.899836	19823.656944
684.237925	19503.447893
684.575963	19317.741868
684.913951	19018.178862
685.251889	19041.055618
685.589776	18969.330081
685.927614	18883.723727
686.265401	18940.514846
686.603137	18927.390202
686.940824	19144.565630
687.278460	19275.418861
687.616046	19328.920626
687.953582	19666.282203
688.291068	19562.189938
688.628504	19711.579491
688.965889	19679.676549
689.303224	19490.166973
689.640510	19274.171175
689.977745	18859.874028
690.314930	18382.990957
690.652065	18090.699816
690.989150	17633.714178
691.326185	17096.843897
691.663170	16688.891042
692.000105	16226.793675
692.336990	15827.662840
692.673825	15533.536719
693.010610	15211.038984
693.347345	14872.076840
693.684030	14472.845182
694.020665	14317.212160
694.357251	13904.361824
694.693786	13861.131410
695.030272	13692.194783
695.366707	13383.419068
695.703093	13175.277388
696.039429	13164.433866
696.375716	12984.525167
696.711952	12940.052108
697.048139	12821.280003
697.384276	12692.586907
697.720363	12716.358468
698.056400	12615.149743
698.392388	12479.472128
698.728326	12446.066922
699.064214	12334.554078
699.400053	12304.201291
699.735842	12060.375803
700.071581	11932.302769
700.407270	11777.236877
700.742910	11648.483287
701.078501	11477.106741
701.414042	11340.811585
701.749533	11161.235603
702.084974	10971.239556
702.420366	11037.394618
702.755709	10812.387757
703.091002	10620.995310
703.426246	10616.632191
703.761440	10548.924454
704.096584	10402.673019
704.431679	10338.849491
704.766725	10282.814545
705.101721	10202.183810
705.436668	10229.688346
705.771565	10065.334127
706.106413	10165.154015
706.441212	10179.022229
706.775961	10182.389720
707.110661	10185.658908
707.445311	10316.527262
707.779913	10235.566331
708.114465	10328.568058
708.448967	10433.081259
708.783421	10675.482621
709.117825	10805.839298
709.452180	10873.927642
709.786485	11038.004597
710.120742	11345.525064
710.454949	11375.368695
710.789107	11575.137019
711.123216	11864.065711
711.457275	11957.248919
711.791286	12165.030157
712.125247	12232.074982
712.459159	12103.470107
712.793023	12405.815829
713.126837	11954.713218
713.460602	12030.146524
713.794318	11855.147909
714.127985	11698.531862
714.461602	11279.922009
714.795171	11226.773124
715.128691	10772.227405
715.462162	10501.588019
715.795584	10276.329101
716.128957	10124.466862
716.462281	9926.853631
716.795556	9773.877297
717.128782	9542.226196
717.461960	9257.826981
717.795088	9213.986586
718.128167	9054.015651
718.461198	8837.558587
718.794180	8754.326617
719.127113	8608.725491
719.459997	8499.859253
719.792833	8317.810585
720.125619	8301.807442
720.458357	8154.078949
720.791046	8066.677944
721.123686	7980.683421
721.456278	7862.566666
721.788821	7841.408943
722.121315	7717.507464
722.453761	7730.395174
722.786158	7669.208169
723.118506	7677.389962
723.450805	7609.881350
723.783056	7654.596385
724.115259	7586.276147
724.447412	7557.286992
724.779518	7618.095910
725.111574	7623.983978
725.443582	7692.125255
725.775542	7660.025708
726.107453	7831.283786
726.439315	7780.315200
726.771129	7906.553254
727.102895	8046.767907
727.434612	8130.153633
727.766281	8183.544493
728.097901	8287.740102
728.429473	8299.314591
728.760996	8291.485679
729.092471	8307.241806
729.423897	8242.435253
729.755276	8156.695308
730.086606	8158.371492
730.417887	8319.537180
730.749120	8481.353177
731.080305	8536.163123
731.411442	8654.390783
731.742530	8661.700456
732.073570	8684.322634
732.404562	8774.123228
732.735506	8730.499603
733.066401	8656.626535
733.397249	8481.965678
733.728048	8249.132425
734.058798	7932.280783
734.389501	7647.017010
734.720156	7435.659073
735.050762	7207.710699
735.381320	7049.821761
735.711831	6930.976559
736.042293	6785.977851
736.372707	6771.880264
736.703073	6686.309198
737.033391	6721.597275
737.363661	6702.471137
737.693883	6721.115845
738.024056	6777.405369
738.354182	6825.200548
738.684260	6930.074192
739.014290	7011.907243
739.344272	7081.283602
739.674207	7179.107192
740.004093	7230.116107
740.333931	7237.634988
740.663722	7249.484221
740.993464	7248.107986
741.323159	7187.462905
741.652806	7076.018117
741.982405	7001.328381
742.311956	6864.821497
742.641460	6814.777963
742.970915	6684.290216
743.300323	6554.750206
743.629683	6467.278625
743.958996	6350.714545
744.288260	6231.445887
744.617477	6120.583352
744.946647	6086.424493
745.275768	5978.594213
745.604842	5902.533283
745.933869	5828.907231
746.262847	5802.562161
746.591778	5759.757724
746.920662	5707.987595
747.249498	5694.686510
747.578286	5721.059307
747.907027	5756.531386
748.235720	5822.129400
748.564365	5839.009704
748.892963	5808.064581
749.221514	5823.687117
749.550017	5782.841168
749.878473	5757.222024
750.206881	5679.600857
750.535242	5647.750847
750.863555	5612.661896
751.191821	5563.394699
751.520039	5555.961518
751.848210	5517.507597
752.176334	5518.916599
752.504411	5485.942412
752.832440	5433.637920
753.160421	5455.082988
753.488356	5418.937915
753.816243	5385.580600
754.144082	5326.672197
754.471875	5306.293333
754.799620	5287.033604
755.127318	5271.123723
755.454969	5254.321557
755.782572	5236.652313
756.110129	5228.959512
756.437638	5195.972722
756.765100	5185.169529
757.092515	5184.597358
757.419882	5184.494015
757.747203	5179.878838
758.074477	5193.694120
758.401703	5181.315567
758.728882	5221.692689
759.056014	5228.500767
759.383099	5253.996403
759.710138	5275.857366
760.037129	5306.061440
760.364073	5310.958921
760.690970	5308.660154
761.017820	5299.855779
761.344623	5332.288042
761.671379	5391.246857
761.998088	5499.976984
762.324751	5813.050282
762.651366	6491.748386
762.977935	7497.995461
763.304456	8290.999208
763.630931	8652.770052
763.957359	8452.898384
764.283740	7952.500851
764.610074	7424.394615
764.936362	6804.007537
765.262602	6344.345047
765.588796	5875.699221
765.914943	5544.182862
766.241044	5268.678763
766.567097	5065.938679
766.893104	4884.376482
767.219064	4761.392493
767.544978	4643.031242
767.870845	4542.119945
768.196665	4478.062003
768.522438	4415.123197
768.848165	4362.773335
769.173846	4303.272596
769.499479	4265.181638
769.825066	4220.295204
770.150607	4161.858148
770.476101	4134.159528
770.801548	4097.389352
771.126949	4057.551634
771.452303	4026.959392
771.777611	3977.039366
772.102872	3969.591061
772.428087	3931.522788
772.753256	3892.635327
773.078378	3867.517778
773.403453	3827.647292
773.728482	3794.557158
774.053465	3770.742748
774.378401	3746.313316
774.703291	3718.097978
775.028135	3686.870551
775.352932	3675.028880
775.677683	3652.384017
776.002388	3624.909729
776.327046	3615.432359
776.651658	3594.088114
776.976224	3573.613468
777.300743	3569.031059
777.625216	3548.435425
777.949643	3536.296326
778.274024	3535.759443
778.598359	3511.496370
778.922647	3509.921009
779.246889	3500.786439
779.571086	3500.700739
779.895236	3501.439268
780.219339	3498.827950
780.543397	3494.111951
780.867409	3507.849095
781.191374	3506.798015
781.515294	3497.013135
781.839167	3510.508304
782.162995	3497.877693
782.486776	3488.007114
782.810511	3472.319043
783.134201	3454.516208
783.457844	3446.364662
783.781441	3431.523505
784.104993	3419.326434
784.428498	3410.731266
784.751958	3402.708270
785.075372	3392.976322
785.398739	3377.996534
785.722061	3386.871485
786.045337	3381.227913
786.368568	3397.941859
786.691752	3392.845253
787.014891	3447.602266
787.337983	3502.031604
787.661030	3610.393726
787.984031	3724.588464
788.306987	3796.669402
788.629897	3835.398066
788.952760	3824.952796
789.275579	3781.694654
789.598351	3710.453068
789.921078	3639.670227
790.243759	3564.254566
790.566395	3508.610309
790.888984	3458.844039
791.211529	3419.936413
791.534027	3376.416132
791.856480	3340.293744
792.178888	3319.327585
792.501249	3301.222281
792.823566	3271.585338
793.145836	3268.550563
793.468062	3263.413627
793.790241	3251.246803
794.112375	3254.904160
794.434464	3279.618417
794.756507	3280.825773
795.078505	3303.614309
795.400457	3347.817666
795.722364	3405.226326
796.044226	3456.517546
796.366042	3504.789115
796.687812	3492.955006
797.009538	3505.759537
797.331218	3483.951505
797.652852	3466.922488
797.974442	3437.240174
798.295986	3419.646547
798.617484	3383.652708
798.938938	3359.523226
799.260346	3340.487829
799.581709	3306.240750
799.903026	3293.862197
800.224299	3273.143054
800.545526	3246.523242
800.866708	3227.167731
801.187845	3218.257492
801.508936	3198.574307
801.829983	3191.078111
802.150984	3169.133968
802.471940	3158.623162
802.792851	3153.171155
803.113717	3145.836276
803.434538	3141.919299
803.755314	3127.892289
804.076045	3132.245325
804.396731	3117.638582
804.717372	3123.604787
805.037967	3121.351392
805.358518	3127.985550
805.679024	3138.541726
805.999485	3139.093732
806.319901	3144.407109
806.640272	3145.710247
806.960598	3158.943276
807.280879	3157.254489
807.601115	3164.846467
807.921306	3155.651402
808.241453	3154.958244
808.561554	3154.086124
808.881611	3146.894918
809.201623	3144.719660
809.521590	3137.215903
809.841513	3130.307001
810.161390	3133.472846
810.481223	3112.103395
810.801011	3109.597941
811.120755	3100.158381
811.440453	3090.814602
811.760107	3081.876636
812.079716	3073.531006
812.399281	3062.291754
812.718801	3060.822257
813.038276	3054.170455
813.357707	3038.462219
813.677093	3046.137376
813.996434	3027.608615
814.315731	3030.613143
814.634983	3027.137267
814.954191	3027.338913
815.273354	3040.564381
815.592473	3042.837941
815.911547	3058.951989
816.230577	3067.905078
816.549562	3086.685897
816.868502	3095.301229
817.187399	3107.941922
817.506250	3121.767287
817.825058	3122.641927
818.143821	3148.782830
818.462539	3175.861388
818.781213	3214.244733
819.099843	3278.806791
819.418429	3394.415572
819.736970	3510.546112
820.055466	3648.129283
820.373919	3808.874035
820.692327	4047.371024
821.010691	4472.486487
821.329011	5569.103806
821.647286	7645.902915
821.965517	10427.689745
822.283704	12385.000905
822.601847	13274.877985
822.919945	12159.787357
823.237999	10789.745414
823.556010	9446.356052
823.873976	8281.610059
824.191897	7262.845799
824.509775	6515.388877
824.827609	5832.078117
825.145398	5378.989292
825.463144	5100.586529
825.780845	5042.242735
826.098502	5189.734294
826.416116	5621.632629
826.733685	6108.313183
827.051210	6342.086611
827.368692	6190.007602
827.686129	5719.851950
828.003522	5198.032033
828.320872	4732.872165
828.638177	4369.026886
828.955439	4095.592181
829.272656	3866.610370
829.589830	3677.902338
829.906960	3507.859178
830.224046	3382.127759
830.541088	3283.800054
830.858086	3217.443346
831.175041	3164.354954
831.491952	3139.529792
831.808819	3130.465798
832.125642	3154.091165
832.442421	3226.910632
832.759157	3394.075294
833.075849	3692.751057
833.392497	4067.790218
833.709101	4352.474258
834.025662	4397.358171
834.342179	4236.363882
834.658653	3995.875637
834.975083	3768.196965
835.291469	3584.083944
835.607811	3426.903288
835.924110	3321.117195
836.240366	3222.910477
836.556578	3128.900519
836.872746	3053.376473
837.188871	2994.538646
837.504952	2943.650718
837.820990	2905.837023
838.136984	2879.224772
838.452935	2863.846732
838.768842	2861.537884
839.084706	2888.359343
839.400526	3002.599451
839.716303	3164.894358
840.032037	3302.769916
840.347727	3322.901763
840.663373	3234.878176
840.978977	3114.439970
841.294537	3027.139788
841.610054	2959.558079
841.925527	2913.867582
842.240957	2875.096067
842.556344	2835.490242
842.871687	2804.726601
843.186987	2770.361055
843.502244	2747.731315
843.817458	2727.707852
844.132629	2711.805532
844.447756	2701.536702
844.762840	2693.538912
845.077881	2687.522294
845.392879	2677.308917
845.707833	2672.257681
846.022745	2667.718122
846.337613	2662.142605
846.652438	2658.371822
846.967221	2655.984836
847.281960	2652.168682
847.596656	2652.481234
847.911309	2650.510143
848.225919	2647.460245
848.540485	2644.869092
848.855009	2643.818011
849.169490	2640.291724
849.483928	2640.803401
849.798323	2638.005561
850.112675	2636.957001
850.426984	2633.960035
850.741251	2636.306692
851.055474	2632.482977
851.369654	2633.082874
851.683792	2631.265538
851.997887	2632.737555
852.311938	2632.122534
852.625947	2635.699233
852.939914	2629.816206
853.253837	2632.094808
853.567718	2629.377626
853.881555	2630.748820
854.195350	2632.180507
854.509103	2629.196144
854.822812	2629.496093
855.136479	2628.956690
855.450103	2627.056175
855.763685	2626.781432
856.077224	2624.762450
856.390720	2625.516102
856.704173	2627.419138
857.017584	2631.661269
857.330953	2628.001391
857.644278	2632.611526
857.957561	2634.176804
858.270802	2633.468522
858.584000	2634.945580
858.897155	2634.086064
859.210268	2630.653038
859.523339	2629.982564
859.836367	2629.211268
860.149352	2625.884106
860.462295	2626.305043
860.775195	2627.262862
861.088054	2625.422841
861.400869	2623.693725
861.713642	2622.814044
862.026373	2624.497789
862.339062	2624.719600
862.651708	2621.891512
862.964312	2629.990126
863.276873	2629.236474
863.589392	2634.580097
863.901869	2637.060344
864.214303	2641.549492
864.526696	2643.520583
864.839045	2650.779845
865.151353	2648.201294
865.463619	2650.618528
865.775842	2652.151038
866.088023	2650.807571
866.400162	2650.484937
866.712258	2649.529638
867.024313	2651.697335
867.336325	2648.246665
867.648296	2650.404279
867.960224	2647.530821
868.272110	2648.163486
868.583954	2648.488640
868.895755	2649.582571
869.207515	2648.977632
869.519233	2654.439722
869.830909	2654.558189
870.142542	2656.562048
870.454134	2654.979126
870.765684	2656.771256
871.077191	2661.192348
871.388657	2660.829385
871.700081	2660.158911
872.011463	2666.203255
872.322803	2667.556805
872.634101	2672.628205
872.945357	2679.055677
873.256571	2682.511387
873.567744	2687.514733
873.878874	2687.033302
874.189963	2686.935000
874.501010	2690.899867
874.812015	2687.900381
875.122979	2692.780218
875.433900	2694.365661
875.744780	2692.697039
876.055618	2692.387008
876.366415	2695.794828
876.677169	2694.229550
876.987882	2694.463963
877.298554	2699.608461
877.609183	2706.842517
877.919771	2710.711602
878.230317	2720.597305
878.540822	2734.170612
878.851285	2754.985536
879.161707	2783.551234
879.472087	2835.091991
879.782425	2915.453024
880.092722	3074.375399
880.402977	3375.425545
880.713191	3854.831714
881.023363	4417.923558
881.333494	4814.753106
881.643583	4965.990242
881.953631	4866.127505
882.263637	4676.519627
882.573602	4464.428202
882.883526	4270.472328
883.193408	4087.828804
883.503248	3915.207093
883.813048	3762.424844
884.122806	3621.874954
884.432522	3477.725680
884.742197	3347.411853
885.051831	3230.136971
885.361424	3125.147380
885.670975	3042.873229
885.980485	2974.941160
886.289954	2921.915784
886.599382	2877.024309
886.908768	2841.884946
887.218113	2804.966056
887.527417	2780.488733
887.836680	2758.161463
888.145901	2739.768813
888.455082	2728.925291
888.764221	2715.044474
889.073319	2704.609285
889.382376	2696.077132
889.691392	2693.309539
890.000366	2686.395597
890.309300	2686.080524
890.618193	2687.529856
890.927044	2683.920390
891.235855	2686.889630
891.544625	2688.588498
891.853353	2689.304342
892.162041	2698.484283
892.470687	2713.670759
892.779293	2725.330948
893.087858	2749.886409
893.396381	2787.470731
893.704864	2842.827642
894.013306	2923.849066
894.321707	3016.392048
894.630068	3082.509301
894.938387	3109.938219
895.246665	3096.369954
895.554903	3053.552913
895.863100	3003.627846
896.171256	2960.800724
896.479371	2925.681526
896.787446	2885.364898
897.095480	2853.706452
897.403473	2833.191476
897.711425	2803.486477
898.019336	2787.009466
898.327207	2766.408790
898.635038	2745.704772
898.942827	2728.867318
899.250576	2711.860985
899.558284	2699.384129
899.865952	2688.323838
900.173579	2675.100891
900.481165	2667.816424
900.788711	2660.254693
901.096216	2657.013231
901.403681	2653.068528
901.711105	2648.350008
902.018489	2647.306490
902.325832	2651.843528
902.633135	2656.806544
902.940397	2674.072496
903.247619	2715.233517
903.554800	2819.045998
903.861941	2966.456898
904.169041	3104.791201
904.476101	3168.491221
904.783121	3153.052688
905.090100	3098.013370
905.397039	3034.900644
905.703938	2976.158599
906.010796	2924.970723
906.317614	2881.309289
906.624391	2842.063907
906.931129	2809.122487
907.237826	2779.520832
907.544483	2750.609814
907.851099	2724.335320
908.157675	2693.647296
908.464211	2665.729386
908.770707	2646.487302
909.077163	2630.121196
909.383578	2619.567541
909.689954	2608.774430
909.996289	2602.094901
910.302584	2599.400405
910.608839	2593.887903
910.915054	2593.519899
911.221229	2590.520412
911.527363	2590.883375
911.833458	2593.323294
912.139513	2588.894640
912.445527	2594.878490
912.751502	2598.820672
913.057436	2607.277207
913.363331	2613.072014
913.669186	2625.339662
913.975000	2642.721560
914.280775	2665.542864
914.586510	2703.974100
914.892205	2752.527973
915.197859	2824.853407
915.503475	2912.176274
915.809050	2993.676609
916.114585	3049.197357
916.420081	3072.653845
916.725536	3072.439596
917.030952	3046.386913
917.336328	3021.249200
917.641665	2988.491782
917.946961	2950.831842
918.252218	2926.072215
918.557435	2888.853376
918.862612	2860.363295
919.167750	2831.361537
919.472848	2805.021508
919.777906	2777.068310
920.082925	2750.307345
920.387904	2725.986298
920.692843	2704.130376
920.997743	2686.151101
921.302603	2670.165602
921.607423	2653.638179
921.912204	2642.295583
922.216946	2634.373409
922.521647	2625.155660
922.826310	2618.186264
923.130932	2613.054370
923.435516	2604.290324
923.740059	2595.400249
924.044564	2590.159970
924.349028	2587.939341
924.653454	2582.930955
924.957840	2578.691345
925.262186	2573.095664
925.566493	2569.768502
925.870761	2567.835220
926.174989	2564.462688
926.479178	2563.396484
926.783328	2557.657130
927.087438	2560.709549
927.391509	2556.704352
927.695541	2550.876778
927.999533	2549.054401
928.303486	2548.706562
928.607400	2546.264122
928.911275	2546.221273
929.215110	2545.591128
929.518906	2544.489636
929.822663	2543.428473
930.126381	2543.292362
930.430060	2545.021478
930.733699	2545.341591
931.037299	2545.034081
931.340861	2543.683052
931.644383	2544.053577
931.947866	2544.570295
932.251309	2544.572815
932.554714	2542.760521
932.858080	2541.031405
933.161407	2537.540406
933.464694	2540.963349
933.767943	2535.521424
934.071153	2539.922351
934.374323	2538.699871
934.677455	2540.136600
934.980548	2538.944367
935.283602	2535.287010
935.586617	2535.720549
935.889593	2539.082999
936.192530	2538.432690
936.495428	2544.371169
936.798287	2543.131045
937.101108	2541.293545
937.403890	2545.734801
937.706632	2549.253527
938.009336	2555.156718
938.312002	2556.724517
938.614628	2561.899261
938.917216	2565.763306
939.219765	2568.566187
939.522275	2569.818914
939.824747	2569.032494
940.127179	2570.365879
940.429573	2569.163564
940.731929	2570.411249
941.034246	2570.519634
941.336524	2570.930488
941.638763	2568.341856
941.940964	2564.984447
942.243126	2562.373130
942.545250	2563.141906
942.847335	2561.420352
943.149381	2560.129816
943.451389	2554.024979
943.753359	2553.518343
944.055290	2553.357026
944.357182	2553.457849
944.659036	2548.787220
944.960851	2547.753783
945.262628	2544.766900
945.564367	2548.998948
945.866067	2545.515511
946.167729	2545.918803
946.469352	2545.775131
946.770937	2543.751107
947.072484	2544.174564
947.373992	2546.737991
947.675462	2543.904863
947.976893	2541.076775
948.278286	2539.609799
948.579641	2541.437218
948.880958	2536.423790
949.182236	2540.517207
949.483476	2540.146682
949.784678	2540.575180
950.085841	2539.725746
950.386967	2541.792619
950.688054	2540.945705
950.989103	2543.274718
951.290114	2541.293545
951.591087	2547.111036
951.892021	2546.564071
952.192917	2549.956768
952.493776	2548.736808
952.794596	2550.574309
953.095378	2551.466593
953.396122	2551.832077
953.696828	2549.437529
953.997496	2549.931562
954.298126	2545.800336
954.598718	2548.426777
954.899272	2544.724050
955.199788	2545.034081
955.500266	2541.664070
955.800706	2539.456044
956.101108	2537.963863
956.401472	2534.699716
956.701798	2533.835158
957.002087	2532.829448
957.302337	2526.341483
957.602550	2528.461288
957.902724	2521.363343
958.202861	2524.241842
958.502960	2520.292098
958.803022	2519.893847
959.103045	2516.899401
959.403031	2517.479134
959.702979	2512.856396
960.002889	2516.513753
960.302762	2511.964112
960.602596	2514.424195
960.902393	2513.819256
961.202153	2512.674914
961.501875	2512.445542
961.801559	2510.691220
962.101205	2511.157527
962.400814	2510.459327
962.700385	2511.777589
962.999918	2503.631084
963.299414	2506.088647
963.598873	2506.570077
963.898293	2502.635457
964.197677	2508.553771
964.497022	2505.859274
964.796331	2509.388082
965.095601	2505.934892
965.394835	2503.903307
965.694030	2506.529748
965.993189	2507.248112
966.292309	2504.853564
966.591393	2505.566888
966.890439	2505.715602
967.189447	2506.839779
967.488419	2505.864316
967.787353	2506.759120
968.086249	2506.267608
968.385108	2503.021105
968.683930	2504.611589
968.982714	2503.104284
969.281462	2503.565549
969.580172	2504.833400
969.878844	2505.594614
970.177480	2510.625685
970.476078	2506.862464
970.774639	2506.900273
971.073162	2506.890190
971.371649	2508.848679
971.670098	2506.766682
971.968510	2506.265087
972.266885	2507.580828
972.565223	2510.013185
972.863524	2508.032012
973.161788	2508.684841
973.460014	2506.834738
973.758204	2506.567557
974.056356	2509.385562
974.354471	2509.965294
974.652550	2510.850017
974.950591	2508.765500
975.248595	2509.057887
975.546563	2508.717609
975.844493	2507.590911
976.142386	2509.259533
976.440243	2504.369613
976.738062	2506.156703
977.035845	2506.857423
977.333590	2505.453462
977.631299	2506.461692
977.928971	2504.450272
978.226606	2500.994561
978.524204	2502.484222
978.821765	2500.031701
979.119290	2503.805004
979.416777	2504.755262
979.714228	2506.421363
980.011642	2503.615961
980.309020	2507.643843
980.606360	2506.204593
980.903664	2505.806342
981.200931	2510.809687
981.498162	2510.701303
981.795356	2517.350585
982.092513	2522.981553
982.389633	2528.471370
982.686717	2539.516538
982.983764	2545.709596
983.280775	2548.295707
983.577749	2547.968032
983.874686	2549.371994
984.171587	2546.985008
984.468451	2545.346633
984.765279	2541.676672
985.062070	2539.713143
985.358824	2532.713501
985.655543	2532.184180
985.952224	2527.218643
986.248869	2524.138498
986.545478	2517.247241
986.842050	2511.885974
987.138586	2509.672907
987.435086	2507.336333
987.731549	2503.568070
988.027975	2502.549757
988.324366	2500.341732
988.620719	2496.271000
988.917037	2495.976092
989.213318	2495.411483
989.509563	2494.425938
989.805772	2495.045999
990.101944	2496.830568
990.398080	2493.029538
990.694180	2493.838643
990.990244	2492.417038
991.286271	2495.373674
991.582262	2494.819147
991.878217	2495.628253
992.174136	2495.839981
992.470019	2495.051041
992.765865	2491.333190
993.061676	2491.615494
993.357450	2494.007522
993.653188	2490.670278
993.948890	2497.836278
994.244556	2499.378871
994.540186	2501.032370
994.835780	2499.462050
995.131337	2504.089829
995.426859	2509.637619
995.722345	2509.793895
996.017795	2512.717764
996.313208	2516.012158
996.608586	2517.887468
996.903928	2520.460977
997.199234	2518.961233
997.494504	2518.552900
997.789738	2519.150277
998.084936	2515.250944
998.380099	2513.040398
998.675225	2513.173989
998.970316	2510.413957
999.265371	2510.131652
999.560390	2504.288955
999.855373	2504.304078
1000.150320	2500.974396
1000.445232	2499.031032
1000.740108	2495.726555
1001.034948	2493.962151
1001.329752	2497.410301
1001.624521	2493.538694
1001.919254	2492.437202
1002.213951	2493.276554
1002.508613	2489.672129
1002.803239	2492.681698
1003.097829	2492.958962
1003.392384	2488.545432
1003.686903	2487.728765
1003.981386	2490.753457
1004.275834	2486.730616
1004.570246	2489.014259
1004.864623	2488.119454
1005.158964	2487.726244
1005.453270	2488.679022
1005.747540	2485.606439
1006.041775	2487.796820
1006.335974	2485.707262
1006.630138	2488.986533
1006.924266	2486.891933
1007.218359	2487.292705
1007.512416	2485.692138
1007.806438	2482.916983
1008.100425	2482.430512
1008.394376	2481.087044
1008.688292	2485.243476
1008.982172	2487.300267
1009.276017	2487.333034
1009.569827	2484.305821
1009.863602	2484.096613
1010.157341	2483.199288
1010.451045	2485.200626
1010.744714	2486.221460
1011.038347	2485.303970
1011.331945	2485.195585
1011.625508	2485.669453
1011.919036	2482.140646
1012.212528	2483.814309
1012.505986	2482.183495
1012.799408	2484.273054
1013.092795	2483.622745
1013.386147	2485.059474
1013.679464	2481.762559
1013.972745	2483.980667
1014.265992	2483.078300
1014.559204	2480.976139
1014.852380	2481.525625
1015.145521	2484.257930
1015.438628	2481.301293
1015.731699	2485.067035
1016.024736	2483.065697
1016.317737	2482.261633
1016.610703	2484.089052
1016.903635	2483.491675
1017.196531	2483.592498
1017.489393	2482.372539
1017.782219	2483.095944
1018.075011	2484.041161
1018.367768	2481.611324
1018.660490	2485.515698
1018.953177	2485.515698
1019.245829	2485.515698
