Dividing Wavelength (nm)	Counts (n)	Blue Motor Position (mm): 0.000000	Red Motor Position (mm): 28.000000	
326.493990	2051.510161
326.888308	2051.510161
327.282561	2051.510161
327.676750	2025.558301
328.070874	2028.313291
328.464933	2032.810000
328.858929	2040.533048
329.252859	2052.926725
329.646726	2063.157747
330.040528	2081.252968
330.434265	2096.779722
330.827938	2120.198402
331.221547	2140.907462
331.615091	2155.582261
332.008571	2179.832732
332.401986	2201.771833
332.795338	2221.366798
333.188625	2239.951012
333.581847	2258.550349
333.975006	2277.333688
334.368100	2291.854732
334.761129	2312.820891
335.154095	2325.832109
335.546996	2344.638133
335.939833	2365.722759
336.332606	2377.579553
336.725315	2393.194527
337.117960	2400.864643
337.510540	2413.323854
337.903056	2420.320976
338.295508	2429.120310
338.687896	2432.530651
339.080220	2438.325457
339.472480	2444.531117
339.864676	2448.153186
340.256807	2450.714092
340.648875	2452.927159
341.040879	2452.513784
341.432818	2453.148970
341.824694	2454.807509
342.216506	2455.828343
342.608253	2454.920935
342.999937	2456.019907
343.391557	2454.116871
343.783113	2452.745678
344.174605	2452.493620
344.566033	2449.768876
344.957397	2450.015893
345.348697	2447.848197
345.739934	2449.915070
346.131106	2445.249482
346.522215	2442.146652
346.913260	2440.785540
347.304241	2439.968873
347.695159	2439.825200
348.086012	2436.465271
348.476802	2435.083995
348.867528	2427.555032
349.258191	2428.059147
349.648789	2428.470001
350.039324	2424.714342
350.429796	2427.038313
350.820203	2426.919846
351.210548	2426.224167
351.600828	2428.059147
351.991045	2427.217274
352.381198	2423.728796
352.771288	2427.555032
353.161314	2428.104518
353.551276	2425.402459
353.941175	2428.064188
354.331010	2425.838519
354.720782	2425.972109
355.110490	2428.303643
355.500135	2427.481935
355.889717	2425.916657
356.279235	2426.118303
356.668689	2427.693663
357.058080	2427.502100
357.447408	2430.234405
357.836672	2428.855649
358.225873	2429.054775
358.615010	2432.858326
359.004084	2430.221802
359.393095	2429.778181
359.782043	2432.117276
360.170927	2433.276741
360.559748	2433.027204
360.948505	2432.074426
361.337199	2436.152720
361.725830	2433.601896
362.114398	2438.224634
362.502903	2433.914447
362.891344	2439.134562
363.279722	2437.912082
363.668037	2439.174891
364.056289	2438.406115
364.444478	2436.258584
364.832603	2436.069541
365.220665	2440.084820
365.608665	2439.714295
365.996601	2439.915941
366.384474	2438.247319
366.772284	2440.755293
367.160031	2442.305448
367.547715	2441.728236
367.935336	2442.663370
368.322893	2440.785540
368.710388	2438.300251
369.097820	2441.125818
369.485189	2438.983328
369.872495	2445.214194
370.259738	2442.590273
370.646918	2447.021447
371.034035	2445.584718
371.421090	2446.383741
371.808081	2445.176385
372.195010	2448.521191
372.581875	2450.845163
372.968678	2451.129988
373.355418	2452.818774
373.742096	2459.921760
374.128710	2458.210288
374.515262	2460.496452
374.901751	2463.352265
375.288177	2468.337966
375.674540	2467.599437
376.060841	2474.624285
376.447079	2477.064204
376.833254	2484.394041
377.219367	2487.511995
377.605417	2497.100270
377.991404	2498.569766
378.377329	2505.753410
378.763191	2510.058556
379.148991	2522.076666
379.534727	2533.157122
379.920402	2540.497042
380.306013	2549.261088
380.691563	2561.306926
381.077049	2572.515931
381.462474	2579.578588
381.847835	2596.322780
382.233134	2610.044801
382.618371	2620.399331
383.003545	2638.726446
383.388657	2654.633807
383.773706	2670.636950
384.158693	2685.594053
384.543618	2704.326981
384.928480	2714.086655
385.313280	2737.858216
385.698017	2758.310177
386.082692	2782.084258
386.467305	2797.442133
386.851856	2817.977274
387.236344	2850.422140
387.620770	2865.855632
388.005133	2882.430946
388.389435	2918.449990
388.773674	2932.028338
389.157851	2963.850622
389.541965	2993.222905
389.926018	3004.250429
390.310008	3036.271838
390.693936	3066.546488
391.077802	3091.923656
391.461606	3122.594036
391.845348	3142.277221
392.229027	3169.955676
392.612645	3211.588045
392.996200	3241.066192
393.379694	3278.902573
393.763125	3325.631548
394.146494	3345.216431
394.529801	3381.442163
394.913047	3426.353802
395.296230	3433.857560
395.679351	3457.263637
396.062410	3507.871780
396.445408	3488.178513
396.828343	3532.026469
397.211217	3559.818350
397.594028	3537.780946
397.976778	3583.632761
398.359466	3619.621558
398.742092	3629.847539
399.124656	3641.250629
399.507158	3707.428376
399.889598	3708.653376
400.271977	3772.892800
400.654294	3765.479783
401.036549	3824.821726
401.418742	3818.379131
401.800874	3889.308166
402.182944	3921.264040
402.564952	4004.395187
402.946898	3998.368488
403.328783	3991.323475
403.710606	4042.281979
404.092367	4111.960808
404.474067	4180.092002
404.855705	4159.821522
405.237282	4132.942090
405.618797	4232.313314
406.000250	4307.023214
406.381642	4391.046646
406.762972	4390.335843
407.144240	4362.629662
407.525447	4426.034774
407.906593	4441.674954
408.287677	4522.346019
408.668700	4548.953229
409.049661	4592.115588
409.430560	4626.967605
409.811399	4612.912868
410.192176	4663.301721
410.572891	4742.576386
410.953545	4850.550340
411.334138	4745.011263
411.714669	4856.413202
412.095139	4770.259882
412.475547	4884.626019
412.855894	4886.554261
413.236180	4985.928006
413.616405	4914.257922
413.996568	5022.637688
414.376670	5019.411350
414.756711	5017.331874
415.136691	5086.491463
415.516609	5173.693343
415.896466	5206.738106
416.276262	5289.692813
416.655997	5399.834463
417.035670	5493.456252
417.415283	5634.711903
417.794834	5709.885589
418.174324	5669.526111
418.553753	5670.415875
418.933121	5837.857800
419.312428	5854.778433
419.691674	5774.145177
420.070859	6001.052553
420.449983	5876.089911
420.829045	6077.090797
421.208047	5998.620196
421.586988	6161.300751
421.965867	6236.547534
422.344686	6316.467467
422.723444	6487.607078
423.102141	6098.331699
423.480777	6493.956411
423.859352	6307.151414
424.237866	6675.687487
424.616319	6668.541651
424.994712	6837.715213
425.373044	6748.333034
425.751314	7064.332722
426.129524	6778.663137
426.507673	7047.550721
426.885762	7095.371106
427.263789	7129.146837
427.641756	7220.253090
428.019662	7303.595966
428.397508	7344.862851
428.775292	7319.752864
429.153016	7498.028229
429.530679	7427.477281
429.908282	7477.853531
430.285824	7418.874552
430.663305	7702.341153
431.040726	7587.937208
431.418086	7588.597599
431.795385	7731.940288
432.172624	7917.230418
432.549802	7796.600648
432.926920	7933.646935
433.303977	7877.067545
433.680974	7914.276302
434.057910	8124.187427
434.434786	8173.953698
434.811601	8129.374775
435.188355	8468.160478
435.565050	8358.200309
435.941683	8365.570476
436.318257	8705.538330
436.694770	8655.025968
437.071222	8882.525680
437.447614	8661.307246
437.823946	8626.296433
438.200218	8777.551213
438.576429	8655.179724
438.952580	8824.081063
439.328670	8828.855035
439.704700	8903.829596
440.080670	8794.849932
440.456580	9070.180111
440.832429	9043.643477
441.208218	8779.723950
441.583947	8897.545798
441.959616	9012.852110
442.335224	9046.486688
442.710773	9131.200758
443.086261	9312.757914
443.461689	9025.515488
443.837057	9197.819606
444.212365	9406.735104
444.587612	9389.869923
444.962800	9286.992576
445.337927	9418.604500
445.712995	8964.149522
446.088002	9635.696750
446.462949	9685.909163
446.837837	9674.435496
447.212664	9700.924239
447.587431	10521.800526
447.962139	11527.162878
448.336786	12483.200061
448.711374	12266.483378
449.085901	11049.753006
449.460369	10982.645166
449.834776	10744.644732
450.209124	11656.589462
450.583412	11474.825619
450.957640	11794.074331
451.331808	11380.896320
451.705917	10809.670575
452.079965	10679.785246
452.453954	10881.849816
452.827883	10826.765128
453.201752	10798.953082
453.575562	10795.089037
453.949311	11142.260700
454.323001	11214.513038
454.696632	11112.202820
455.070202	11698.821729
455.443713	11754.080337
455.817164	11920.889597
456.190556	12228.228582
456.563888	12094.990886
456.937160	12343.295439
457.310373	11832.709734
457.683526	11840.440343
458.056619	11848.173473
458.429653	11906.063563
458.802628	12032.092409
459.175542	12072.940879
459.548398	12595.804315
459.921194	13160.259790
460.293930	13411.301690
460.666607	14241.302465
461.039224	15004.152550
461.411782	15353.907804
461.784280	15013.022461
462.156719	14948.231031
462.529099	14859.065622
462.901419	14201.994068
463.273680	13795.130103
463.645882	13979.893432
464.018024	13836.828007
464.390106	14151.073373
464.762130	15140.170443
465.134094	16548.497428
465.505999	18686.811217
465.877845	20812.481792
466.249631	22002.453719
466.621358	21547.691230
466.993026	20757.477762
467.364634	20003.185036
467.736184	19189.958700
468.107674	18543.312252
468.479105	18358.319550
468.850477	18036.235190
469.221790	17573.033810
469.593043	16900.440543
469.964238	16491.807133
470.335373	16483.721122
470.706449	17063.002631
471.077467	17768.436494
471.448425	19967.468461
471.819324	21603.582503
472.190164	21464.139147
472.560945	19826.411935
472.931667	18325.022729
473.302330	17940.733051
473.672934	17359.435080
474.043479	17663.184764
474.413965	17387.179070
474.784393	17146.653017
475.154761	17654.836613
475.525070	17677.186569
475.895321	17446.586548
476.265513	17810.215057
476.635645	18247.714114
477.005719	18187.434517
477.375734	18410.054391
477.745691	18840.316872
478.115588	19254.601416
478.485427	20111.209401
478.855207	21462.389866
479.224928	22793.085603
479.594591	23825.009795
479.964194	23416.252877
480.333739	23669.933821
480.703226	23690.332850
481.072653	23858.556153
481.442022	24108.887251
481.811333	24253.583489
482.180584	23758.000258
482.549777	23406.132760
482.918912	23059.840779
483.287988	22835.373322
483.657005	22547.629302
484.025964	22106.876180
484.394864	22072.591292
484.763706	21835.868790
485.132489	21273.376844
485.501213	21125.073659
485.869879	21069.245401
486.238487	20846.048315
486.607036	20839.220072
486.975527	20418.258520
487.343959	20472.501335
487.712333	20514.887357
488.080648	20292.138933
488.448905	20364.325735
488.817104	20078.409133
489.185244	20402.918289
489.553326	20765.878845
489.921350	21696.992563
490.289315	23024.330892
490.657222	23348.580428
491.025070	23445.799079
491.392861	23037.916801
491.760593	22324.623779
492.128267	21475.995940
492.495883	20654.847432
492.863440	19889.766636
493.230939	19090.229553
493.598380	18534.081899
493.965763	18194.436680
494.333088	17666.930341
494.700354	17319.398236
495.067563	17060.245120
495.434713	16770.656037
495.801805	16682.987851
496.168839	16354.375197
496.535815	16059.303859
496.902733	15876.413318
497.269593	15556.027827
497.636395	15404.223561
498.003139	15292.960254
498.369825	14962.983968
498.736453	14901.880142
499.103023	14602.846457
499.469535	14417.216049
499.835989	14227.545156
500.202385	13954.390235
500.568723	13744.751332
500.935003	13628.961069
501.301226	13351.561497
501.667390	13396.258887
502.033497	13247.315476
502.399546	12946.535032
502.765537	12572.564596
503.131470	12503.132784
503.497345	12431.795416
503.863163	11872.386135
504.228923	11893.556461
504.594625	11798.099692
504.960269	11435.776842
505.325856	11411.952348
505.691385	11104.394073
506.056856	10987.184725
506.422270	10915.421380
506.787625	10581.949053
507.152924	10493.479323
507.518164	10340.150109
507.883347	10035.823213
508.248472	9868.146874
508.613540	9841.340538
508.978550	9696.102376
509.343503	9472.315474
509.708398	9358.183751
510.073236	9288.275550
510.438016	9120.344633
510.802738	8877.865133
511.167403	8795.585941
511.532010	8666.255139
511.896561	8584.895957
512.261053	8545.204432
512.625488	8335.232813
512.989866	8142.784244
513.354186	7986.163156
513.718449	7813.730488
514.082655	7785.920963
514.446803	7579.795744
514.810894	7512.161103
515.174927	7353.858790
515.538904	7203.894546
515.902822	7146.558982
516.266684	6957.994623
516.630488	6856.848912
516.994235	6713.992694
517.357925	6646.831922
517.721558	6544.514143
518.085133	6447.300533
518.448651	6339.319017
518.812112	6199.432039
519.175516	6097.656184
519.538863	6012.233832
519.902152	5904.726185
520.265385	5830.056614
520.628560	5722.148196
520.991678	5605.367346
521.354739	5518.467936
521.717743	5433.501809
522.080690	5324.123894
522.443580	5280.442296
522.806413	5181.204662
523.169189	5091.625878
523.531908	5012.699053
523.894569	4916.770937
524.257174	4837.292105
524.619722	4767.371301
524.982213	4698.783883
525.344647	4623.486688
525.707025	4547.539185
526.069345	4495.464066
526.431608	4416.592693
526.793815	4364.167214
527.155964	4275.160602
527.518057	4218.119946
527.880093	4150.392044
528.242072	4112.659007
528.603995	4040.174777
528.965860	3980.888287
529.327669	3934.106379
529.689421	3885.600397
530.051117	3834.410000
530.412755	3791.156900
530.774337	3747.530755
531.135862	3698.492931
531.497331	3659.613032
531.858743	3620.057618
532.220098	3588.804985
532.581396	3548.886608
532.942638	3508.262470
533.303824	3476.157882
533.664953	3444.083540
534.026025	3408.243457
534.387040	3388.996332
534.747999	3360.423072
535.108902	3340.999506
535.469748	3301.943166
535.830537	3283.026237
536.191270	3263.542177
536.551947	3234.638721
536.912567	3216.392265
537.273131	3198.334852
537.633638	3174.119669
537.994089	3160.508554
538.354483	3139.270173
538.714821	3133.533340
539.075103	3123.264509
539.435328	3107.649535
539.795497	3091.364088
540.155609	3075.313054
540.515665	3071.491859
540.875665	3049.945968
541.235609	3043.029505
541.595496	3034.086498
541.955328	3030.769419
542.315102	3011.786954
542.674821	3003.400994
543.034483	2991.597133
543.394090	2981.779486
543.753640	2975.667087
544.113134	2976.997951
544.472571	2962.449181
544.831953	2963.512865
545.191278	2951.540124
545.550548	2941.326747
545.909761	2938.319698
546.268918	2933.364244
546.628019	2934.753082
546.987064	2925.673964
547.346053	2908.017323
547.704986	2914.079310
548.063863	2905.151427
548.422684	2899.412073
548.781449	2890.723644
549.140158	2889.745660
549.498811	2883.484547
549.857408	2872.242774
550.215949	2873.964328
550.574434	2871.375696
550.932864	2864.602906
551.291237	2864.925539
551.649555	2862.495703
552.007817	2857.194930
552.366022	2851.556399
552.724173	2846.331243
553.082267	2842.570543
553.440305	2842.409226
553.798288	2836.932012
554.156215	2832.551249
554.514086	2831.127123
554.871902	2820.744867
555.229661	2821.841318
555.587365	2810.014771
555.945014	2815.983497
556.302606	2810.256747
556.660143	2808.386478
557.017625	2806.072589
557.375050	2801.275931
557.732421	2801.333904
558.089735	2798.336938
558.446994	2796.811989
558.804197	2798.599078
559.161345	2789.835032
559.518437	2783.979732
559.875474	2783.571399
560.232455	2782.656429
560.589381	2782.749691
560.946251	2777.751387
561.303065	2775.732404
561.659825	2775.535799
562.016528	2769.930036
562.373177	2764.286465
562.729770	2763.656320
563.086307	2760.029210
563.442789	2759.638521
563.799216	2760.402256
564.155587	2757.143150
564.511904	2755.091400
564.868164	2752.843045
565.224370	2753.884044
565.580520	2750.060328
565.936615	2750.219125
566.292654	2744.386510
566.648638	2742.939699
567.004567	2744.114287
567.360441	2742.339801
567.716260	2739.836868
568.072023	2741.318968
568.427732	2737.709502
568.783385	2734.178173
569.138982	2737.031466
569.494525	2734.357134
569.850013	2729.958727
570.205445	2730.800600
570.560823	2727.130640
570.916145	2724.158880
571.271412	2726.820609
571.626625	2726.792883
571.981782	2721.998746
572.336884	2721.492110
572.691931	2717.673436
573.046923	2719.911708
573.401860	2712.145810
573.756743	2716.967674
574.111570	2716.682849
574.466342	2715.077241
574.821059	2713.002807
575.175722	2714.348795
575.530330	2710.474668
575.884882	2709.738659
576.239380	2707.137424
576.593823	2706.310675
576.948211	2705.947712
577.302544	2702.391178
577.656823	2701.907227
578.011047	2703.419573
578.365216	2702.827237
578.719330	2700.029397
579.073389	2698.759026
579.427394	2699.144675
579.781344	2694.186700
580.135239	2696.886238
580.489080	2696.785415
580.842866	2692.979343
581.196597	2693.266689
581.550273	2692.596216
581.903895	2693.455732
582.257463	2695.688964
582.610975	2690.461287
582.964434	2690.544466
583.317837	2688.941379
583.671186	2689.609332
584.024481	2689.316945
584.377721	2686.491378
584.730906	2688.603622
585.084037	2687.890299
585.437113	2687.043385
585.790135	2686.806451
586.143103	2686.196471
586.496016	2685.894002
586.848874	2685.737726
587.201679	2684.658919
587.554428	2683.925431
587.907124	2684.159845
588.259765	2679.685821
588.612352	2684.598425
588.964884	2679.166582
589.317362	2682.231603
589.669786	2680.676407
590.022155	2677.455110
590.374470	2677.752538
590.726731	2675.862106
591.078937	2671.728359
591.431090	2676.207425
591.783188	2676.280521
592.135232	2673.611230
592.487222	2673.286076
592.839157	2675.637774
593.191038	2673.296158
593.542866	2671.753565
593.894639	2671.861950
594.246358	2673.681807
594.598022	2669.260715
594.949633	2667.763492
595.301190	2669.182577
595.652692	2666.014212
596.004141	2666.777946
596.355535	2664.055723
596.706876	2663.274344
597.058162	2663.181083
597.409395	2662.490445
597.760573	2664.680826
598.111698	2660.552121
598.462768	2661.764519
598.813785	2661.351144
599.164748	2659.755619
599.515657	2661.769560
599.866511	2659.150681
600.217312	2659.523726
600.568060	2655.284116
600.918753	2661.822492
601.269392	2660.363078
601.619978	2655.538694
601.970510	2658.707059
602.320988	2659.836277
602.671412	2659.773263
603.021783	2658.651606
603.372100	2656.385608
603.722363	2657.708911
604.072572	2658.709580
604.422728	2659.458191
604.772830	2656.483910
605.122878	2655.949548
605.472872	2654.475010
605.822813	2654.825371
606.172701	2657.066163
606.522534	2657.945845
606.872314	2658.245793
607.222041	2656.325114
607.571714	2658.157573
607.921333	2652.171203
608.270899	2656.867038
608.620411	2651.006697
608.969870	2656.861997
609.319276	2656.927532
609.668627	2656.370484
610.017926	2658.218067
610.367171	2657.313180
610.716362	2660.443737
611.065500	2657.441729
611.414585	2658.838129
611.763616	2655.425268
612.112594	2657.703869
612.461518	2657.842501
612.810389	2661.439364
613.159207	2657.819816
613.507971	2658.457522
613.856682	2660.582368
614.205340	2658.757471
614.553945	2661.449447
614.902496	2658.644045
615.250994	2661.083963
615.599439	2661.779642
615.947830	2660.481545
616.296169	2659.740496
616.644454	2660.416010
616.992686	2662.515651
617.340864	2663.276865
617.688990	2660.715959
618.037063	2665.497493
618.385082	2661.825013
618.733048	2667.002278
619.080961	2665.230312
619.428821	2663.511279
619.776628	2663.478511
620.124382	2663.602019
620.472083	2663.105466
620.819731	2664.970693
621.167326	2661.144457
621.514868	2661.618325
621.862357	2659.102790
622.209793	2659.024652
622.557176	2657.235042
622.904506	2654.265802
623.251783	2653.020637
623.599007	2654.200267
623.946179	2653.519712
624.293297	2651.125164
624.640363	2651.130205
624.987376	2645.947899
625.334336	2643.684421
625.681243	2644.889256
626.028097	2640.420273
626.374899	2644.170892
626.721647	2647.311531
627.068343	2640.770634
627.414987	2644.347332
627.761577	2641.226858
628.108115	2643.523104
628.454600	2641.393216
628.801032	2641.945223
629.147412	2639.991775
629.493739	2640.647125
629.840014	2639.772485
630.186236	2638.739049
630.532405	2635.729480
630.878521	2638.308030
631.224585	2636.442803
631.570597	2634.708646
631.916556	2636.891466
632.262462	2635.842906
632.608316	2636.170581
632.954117	2635.772330
633.299866	2633.337452
633.645562	2633.834006
633.991206	2633.823924
634.336797	2629.886782
634.682336	2630.179169
635.027823	2629.571710
635.373257	2628.845784
635.718639	2627.308232
636.063968	2625.725310
636.409245	2623.383694
636.754470	2623.993674
637.099642	2622.388066
637.444762	2620.195164
637.789829	2620.817747
638.134845	2616.694083
638.479808	2617.520832
638.824719	2618.675256
639.169577	2618.518981
639.514383	2615.214504
639.859137	2616.318517
640.203839	2615.648043
640.548489	2615.698455
640.893086	2616.167282
641.237632	2615.040584
641.582125	2614.980091
641.926566	2610.649739
642.270955	2611.705861
642.615292	2608.194697
642.959576	2609.581015
643.303809	2609.263422
643.647990	2609.754935
643.992118	2615.877416
644.336195	2613.765172
644.680219	2614.140738
645.024192	2614.516304
645.368112	2613.480347
645.711981	2615.393465
646.055797	2616.467231
646.399562	2617.654423
646.743274	2618.874382
647.086935	2624.034003
647.430544	2621.931842
647.774101	2622.960237
648.117606	2622.383025
648.461059	2625.110289
648.804460	2626.100876
649.147810	2620.111985
649.491108	2619.325565
649.834354	2618.645009
650.177548	2614.312138
650.520690	2613.833228
650.863781	2613.210646
651.206820	2612.908176
651.549807	2611.962960
651.892742	2608.393823
652.235626	2608.111518
652.578458	2607.123452
652.921238	2606.117742
653.263967	2607.105808
653.606644	2605.222937
653.949269	2605.359048
654.291843	2603.995416
654.634365	2603.907196
654.976836	2604.328132
655.319255	2604.015581
655.661622	2604.202104
656.003938	2602.538523
656.346203	2599.612133
656.688416	2598.011567
657.030577	2600.532144
657.372687	2601.311002
657.714746	2599.271855
658.056753	2601.348811
658.398708	2601.724377
658.740612	2601.338728
659.082465	2600.892586
659.424266	2599.896958
659.766016	2597.835126
660.107715	2598.765219
660.449362	2598.067019
660.790958	2599.765888
661.132503	2600.706063
661.473996	2599.816300
661.815438	2602.329315
662.156829	2602.767895
662.498168	2601.374016
662.839456	2599.017277
663.180693	2599.286979
663.521879	2602.556167
663.863013	2599.034921
664.204097	2599.844026
664.545129	2600.247318
664.886110	2602.490632
665.227040	2601.946187
665.567918	2604.391147
665.908746	2601.679006
666.249522	2604.910386
666.590248	2605.538009
666.930922	2603.566918
667.271545	2604.749069
667.612118	2604.290324
667.952639	2601.673965
668.293109	2603.972731
668.633528	2601.920982
668.973896	2604.648246
669.314213	2602.276383
669.654480	2602.777978
669.994695	2601.971393
670.334859	2603.755962
670.674973	2600.174222
671.015035	2599.644901
671.355047	2603.219079
671.695008	2601.227823
672.034918	2599.541557
672.374777	2600.406115
672.714585	2601.679006
673.054342	2602.092381
673.394049	2602.238574
673.733705	2602.878801
674.073310	2601.464757
674.412864	2599.594489
674.752368	2599.440734
675.091820	2600.552308
675.431223	2600.965683
675.770574	2599.838985
676.109875	2596.582400
676.449125	2595.049889
676.788324	2593.373705
677.127473	2591.354723
677.466571	2590.734661
677.805619	2593.943356
678.144616	2593.449322
678.483562	2592.274734
678.822458	2589.683581
679.161303	2594.001329
679.500098	2591.115268
679.838842	2589.917994
680.177535	2590.162490
680.516179	2590.578385
680.854771	2590.817840
681.193314	2595.851432
681.531805	2595.425455
681.870247	2601.595827
682.208638	2606.881477
682.546978	2604.008019
682.885268	2604.204624
683.223508	2605.797629
683.561697	2604.570108
683.899836	2602.236054
684.237925	2600.905189
684.575963	2602.036928
684.913951	2599.692792
685.251889	2599.420569
685.589776	2601.752103
685.927614	2601.293358
686.265401	2599.637339
686.603137	2601.852926
686.940824	2602.561208
687.278460	2607.125973
687.616046	2603.032556
687.953582	2606.379882
688.291068	2605.578339
688.628504	2606.929368
688.965889	2607.771241
689.303224	2607.824173
689.640510	2606.780654
689.977745	2605.996754
690.314930	2600.758996
690.652065	2600.554829
690.989150	2597.154571
691.326185	2596.458891
691.663170	2592.068046
692.000105	2588.851790
692.336990	2583.432550
692.673825	2584.839032
693.010610	2582.464648
693.347345	2578.915676
693.684030	2571.250602
694.020665	2574.960891
694.357251	2568.001578
694.693786	2574.882753
695.030272	2572.233627
695.366707	2570.381002
695.703093	2568.331773
696.039429	2567.953687
696.375716	2569.506362
696.711952	2571.122052
697.048139	2569.629871
697.384276	2567.217678
697.720363	2566.090981
698.056400	2569.289593
698.392388	2565.428069
698.728326	2567.162226
699.064214	2566.650549
699.400053	2565.559139
699.735842	2561.783315
700.071581	2563.391443
700.407270	2562.594940
700.742910	2561.813562
701.078501	2560.787687
701.414042	2560.651576
701.749533	2558.148643
702.084974	2557.521019
702.420366	2558.340207
702.755709	2554.750905
703.091002	2556.356513
703.426246	2556.283416
703.761440	2556.734599
704.096584	2556.033879
704.431679	2553.120092
704.766725	2553.561193
705.101721	2552.517674
705.436668	2552.938610
705.771565	2551.000287
706.106413	2552.016079
706.441212	2554.365257
706.775961	2555.880123
707.110661	2556.979095
707.445311	2554.743343
707.779913	2554.997922
708.114465	2553.364588
708.448967	2556.487583
708.783421	2562.350444
709.117825	2561.339693
709.452180	2561.168294
709.786485	2563.237687
710.120742	2564.535785
710.454949	2560.991853
710.789107	2564.515620
711.123216	2567.532751
711.457275	2573.317475
711.791286	2574.913000
712.125247	2578.451890
712.459159	2574.308061
712.793023	2580.420460
713.126837	2574.547516
713.460602	2577.564647
713.794318	2574.436611
714.127985	2574.925603
714.461602	2566.786660
714.795171	2570.096177
715.128691	2566.713563
715.462162	2564.752554
715.795584	2559.872717
716.128957	2561.604354
716.462281	2561.611915
716.795556	2558.433468
717.128782	2556.454815
717.461960	2554.392983
717.795088	2555.532284
718.128167	2551.335523
718.461198	2551.602704
718.794180	2553.031872
719.127113	2549.223280
719.459997	2545.737322
719.792833	2544.983669
720.125619	2544.121632
720.458357	2544.303114
720.791046	2546.251520
721.123686	2544.945861
721.456278	2544.426622
721.788821	2543.373021
722.121315	2541.170037
722.453761	2538.866229
722.786158	2541.747249
723.118506	2541.674152
723.450805	2542.412681
723.783056	2540.010571
724.115259	2541.243133
724.447412	2544.877805
724.779518	2542.697506
725.111574	2541.832948
725.443582	2545.023999
725.775542	2543.204142
726.107453	2547.738660
726.439315	2546.473330
726.771129	2548.572971
727.102895	2544.202291
727.434612	2547.647919
727.766281	2546.117929
728.097901	2552.540359
728.429473	2552.857952
728.760996	2553.049516
729.092471	2553.021789
729.423897	2551.514484
729.755276	2551.292673
730.086606	2550.140770
730.417887	2555.038251
730.749120	2557.732748
731.080305	2556.729558
731.411442	2558.705690
731.742530	2561.445557
732.073570	2565.912020
732.404562	2565.286917
732.735506	2564.298850
733.066401	2561.589230
733.397249	2560.278530
733.728048	2560.505382
734.058798	2551.932900
734.389501	2554.582026
734.720156	2548.242775
735.050762	2548.106664
735.381320	2546.942158
735.711831	2545.891077
736.042293	2544.008206
736.372707	2538.818338
736.703073	2536.605272
737.033391	2541.031405
737.363661	2539.927392
737.693883	2542.294214
738.024056	2542.437887
738.354182	2541.386806
738.684260	2543.783875
739.014290	2546.884184
739.344272	2547.715975
739.674207	2548.053732
740.004093	2550.602035
740.333931	2547.968033
740.663722	2551.965667
740.993464	2549.777807
741.323159	2552.091696
741.652806	2550.319731
741.982405	2545.281097
742.311956	2545.460058
742.641460	2547.680687
742.970915	2545.029040
743.300323	2540.761703
743.629683	2538.601569
743.958996	2537.469830
744.288260	2536.943029
744.617477	2536.693492
744.946647	2537.179963
745.275768	2536.804397
745.604842	2535.823893
745.933869	2534.709798
746.262847	2536.038142
746.591778	2534.256094
746.920662	2531.601927
747.249498	2534.054448
747.578286	2532.378264
747.907027	2535.463450
748.235720	2536.181815
748.564365	2537.419418
748.892963	2535.178625
749.221514	2536.577545
749.550017	2536.156609
749.878473	2538.485622
750.206881	2534.273738
750.535242	2535.680220
750.863555	2533.492359
751.191821	2534.200641
751.520039	2535.264325
751.848210	2533.368851
752.176334	2537.547968
752.504411	2536.448996
752.832440	2532.032945
753.160421	2533.320960
753.488356	2533.265507
753.816243	2533.618388
754.144082	2529.809796
754.471875	2530.964221
754.799620	2531.332225
755.127318	2527.750485
755.454969	2530.961700
755.782572	2531.531350
756.110129	2529.149405
756.437638	2529.986237
756.765100	2527.788294
757.092515	2531.208717
757.419882	2527.523633
757.747203	2530.666793
758.074477	2531.029756
758.401703	2529.507327
758.728882	2532.305167
759.056014	2533.515044
759.383099	2533.492359
759.710138	2531.501103
760.037129	2532.620240
760.364073	2530.515558
760.690970	2531.987575
761.017820	2535.435724
761.344623	2536.499407
761.671379	2538.218441
761.998088	2541.858154
762.324751	2545.926365
762.651366	2561.437996
762.977935	2582.948599
763.304456	2597.699015
763.630931	2606.848709
763.957359	2602.629264
764.283740	2596.529467
764.610074	2589.245000
764.936362	2573.408215
765.262602	2564.674416
765.588796	2553.145298
765.914943	2548.988866
766.241044	2539.980324
766.567097	2533.888090
766.893104	2531.851464
767.219064	2530.792821
767.544978	2527.788294
767.870845	2522.595905
768.196665	2523.891482
768.522438	2521.191944
768.848165	2521.625483
769.173846	2516.377642
769.499479	2517.350585
769.825066	2517.789165
770.150607	2518.399145
770.476101	2516.438136
770.801548	2514.431757
771.126949	2512.818587
771.452303	2514.235152
771.777611	2512.087620
772.102872	2513.703310
772.428087	2512.279184
772.753256	2512.032167
773.078378	2509.627537
773.403453	2511.414626
773.728482	2507.560664
774.053465	2508.092506
774.378401	2509.191477
774.703291	2506.864985
775.028135	2508.871364
775.352932	2507.868174
775.677683	2505.042607
776.002388	2503.479850
776.327046	2502.516989
776.651658	2501.057575
776.976224	2500.296361
777.300743	2504.273832
777.625216	2505.256857
777.949643	2504.016733
778.274024	2502.383399
778.598359	2503.910868
778.922647	2501.128152
779.246889	2502.103615
779.571086	2502.902638
779.895236	2504.752741
780.219339	2502.350631
780.543397	2504.694768
780.867409	2501.763337
781.191374	2506.459172
781.515294	2505.347597
781.839167	2505.720643
782.162995	2504.825838
782.486776	2505.133348
782.810511	2506.176867
783.134201	2503.237874
783.457844	2503.101763
783.781441	2503.041269
784.104993	2504.936743
784.428498	2500.409787
784.751958	2502.035559
785.075372	2504.339367
785.398739	2504.183091
785.722061	2499.565394
786.045337	2501.107987
786.368568	2501.569252
786.691752	2503.931033
787.014891	2502.872391
787.337983	2507.565705
787.661030	2510.280366
787.984031	2515.293794
788.306987	2515.218177
788.629897	2517.781603
788.952760	2516.987622
789.275579	2516.433095
789.598351	2514.262878
789.921078	2511.323885
790.243759	2510.802126
790.566395	2509.793895
790.888984	2508.205932
791.211529	2507.747187
791.534027	2504.601507
791.856480	2502.280055
792.178888	2500.616474
792.501249	2498.403408
792.823566	2499.328460
793.145836	2496.283603
793.468062	2500.273676
793.790241	2503.875580
794.112375	2500.679489
794.434464	2503.469768
794.756507	2500.818121
795.078505	2500.810559
795.400457	2504.077227
795.722364	2507.737104
796.044226	2506.179388
796.366042	2510.892867
796.687812	2509.395644
797.009538	2509.206601
797.331218	2511.649040
797.652852	2510.960922
797.974442	2508.641991
798.295986	2507.323730
798.617484	2507.348935
798.938938	2506.353307
799.260346	2509.614934
799.581709	2507.210304
799.903026	2505.587052
800.224299	2506.484378
800.545526	2505.423215
800.866708	2500.976917
801.187845	2501.536485
801.508936	2500.729900
801.829983	2502.078409
802.150984	2504.631753
802.471940	2501.387771
802.792851	2497.591782
803.113717	2498.592451
803.434538	2500.175373
803.755314	2498.920126
804.076045	2497.964827
804.396731	2498.985661
804.717372	2496.850733
805.037967	2497.296875
805.358518	2498.174035
805.679024	2498.226968
805.999485	2500.346773
806.319901	2499.134375
806.640272	2500.001454
806.960598	2501.012205
807.280879	2500.790394
807.601115	2500.863491
807.921306	2502.975734
808.241453	2502.300220
808.561554	2496.661689
808.881611	2500.082112
809.201623	2496.747389
809.521590	2501.332318
809.841513	2499.903151
810.161390	2501.657473
810.481223	2500.056906
810.801011	2500.762668
811.120755	2498.645383
811.440453	2498.229488
811.760107	2499.411639
812.079716	2500.727380
812.399281	2499.116731
812.718801	2498.738645
813.038276	2499.308295
813.357707	2499.497338
813.677093	2499.121772
813.996434	2498.143788
814.315731	2497.072543
814.634983	2496.843171
814.954191	2498.131186
815.273354	2499.547750
815.592473	2499.300733
815.911547	2500.765188
816.230577	2498.443737
816.549562	2504.629233
816.868502	2502.113697
817.187399	2501.980107
817.506250	2503.900786
817.825058	2504.054541
818.143821	2507.916065
818.462539	2511.717095
818.781213	2513.947806
819.099843	2513.589884
819.418429	2520.496265
819.736970	2527.027079
820.055466	2538.213400
820.373919	2546.264122
820.692327	2559.479507
821.010691	2585.007910
821.329011	2637.687968
821.647286	2721.764332
821.965517	2834.119048
822.283704	2916.720875
822.601847	2963.989254
822.919945	2931.851898
823.237999	2887.749363
823.556010	2835.477639
823.873976	2785.628189
824.191897	2735.735890
824.509775	2698.360775
824.827609	2664.648059
825.145398	2640.735346
825.463144	2629.730507
825.780845	2624.719600
826.098502	2633.844088
826.416116	2655.324445
826.733685	2677.772703
827.051210	2691.933304
827.368692	2687.134126
827.686129	2664.958090
828.003522	2637.705612
828.320872	2612.283073
828.638177	2587.891450
828.955439	2573.844275
829.272656	2561.097718
829.589830	2546.143135
829.906960	2540.802032
830.224046	2529.590506
830.541088	2526.165042
830.858086	2522.371574
831.175041	2514.686335
831.491952	2514.207425
831.808819	2516.964936
832.125642	2515.903773
832.442421	2522.931142
832.759157	2531.876669
833.075849	2550.864175
833.392497	2573.105746
833.709101	2592.594847
834.025662	2597.575507
834.342179	2588.183837
834.658653	2573.806467
834.975083	2560.034034
835.291469	2548.489792
835.607811	2537.789943
835.924110	2527.836185
836.240366	2521.990967
836.556578	2514.646006
836.872746	2512.720285
837.188871	2507.248112
837.504952	2507.429594
837.820990	2503.487412
838.136984	2500.883656
838.452935	2496.530619
838.768842	2498.907523
839.084706	2497.954745
839.400526	2506.998575
839.716303	2517.572395
840.032037	2525.471883
840.347727	2527.810979
840.663373	2523.624301
840.978977	2514.804802
841.294537	2508.609224
841.610054	2505.589573
841.925527	2500.876094
842.240957	2500.866012
842.556344	2496.845691
842.871687	2494.151195
843.186987	2491.310504
843.502244	2490.521564
843.817458	2484.026037
844.132629	2483.219452
844.447756	2486.239104
844.762840	2487.363281
845.077881	2480.890439
845.392879	2483.015286
845.707833	2481.137456
846.022745	2481.835656
846.337613	2483.153917
846.652438	2483.219452
846.967221	2482.675008
847.281960	2481.954123
847.596656	2481.263485
847.911309	2483.494195
848.225919	2481.331540
848.540485	2480.688793
848.855009	2480.343474
849.169490	2481.457569
849.483928	2482.085193
849.798323	2478.619400
850.112675	2481.908753
850.426984	2481.006386
850.741251	2480.391365
851.055474	2481.245841
851.369654	2480.824904
851.683792	2479.804071
851.997887	2479.380614
852.311938	2477.114615
852.625947	2480.640902
852.939914	2480.305666
853.253837	2480.003196
853.567718	2480.005717
853.881555	2480.648464
854.195350	2479.783906
854.509103	2477.444811
854.822812	2479.453711
855.136479	2481.807929
855.450103	2480.620738
855.763685	2476.532362
856.077224	2474.707464
856.390720	2477.762403
856.704173	2475.635037
857.017584	2476.771817
857.330953	2481.079483
857.644278	2482.004534
857.957561	2485.094762
858.270802	2480.807260
858.584000	2479.983032
858.897155	2483.302632
859.210268	2480.519915
859.523339	2480.797178
859.836367	2481.439925
860.149352	2483.080821
860.462295	2482.057467
860.775195	2478.594194
861.088054	2480.124184
861.400869	2481.760038
861.713642	2478.140490
862.026373	2482.191057
862.339062	2480.993783
862.651708	2478.868937
862.964312	2481.455049
863.276873	2481.986890
863.589392	2479.476396
863.901869	2480.416571
864.214303	2482.702734
864.526696	2480.608135
864.839045	2483.131232
865.151353	2479.925058
865.463619	2480.640902
865.775842	2484.162148
866.088023	2481.916314
866.400162	2480.426653
866.712258	2480.537559
867.024313	2481.331540
867.336325	2481.266005
867.648296	2486.002169
867.960224	2483.980667
868.272110	2484.532673
868.583954	2483.610142
868.895755	2485.782879
869.207515	2485.248517
869.519233	2486.415544
869.830909	2485.011583
870.142542	2482.269195
870.454134	2485.871099
870.765684	2487.466625
871.077191	2485.021665
871.388657	2482.806078
871.700081	2481.787765
872.011463	2483.796665
872.322803	2482.644761
872.634101	2488.079125
872.945357	2487.028044
873.256571	2487.388487
873.567744	2488.142139
873.878874	2489.629280
874.189963	2488.976450
874.501010	2488.132057
874.812015	2490.650113
875.122979	2487.784217
875.433900	2489.793117
875.744780	2491.486945
876.055618	2490.309835
876.366415	2492.747233
876.677169	2490.637510
876.987882	2492.785042
877.298554	2492.583396
877.609183	2492.986688
877.919771	2495.421565
878.230317	2496.525578
878.540822	2497.193531
878.851285	2502.403563
879.161707	2507.167454
879.472087	2513.499143
879.782425	2523.147912
880.092722	2545.767569
880.402977	2579.717219
880.713191	2621.016872
881.023363	2666.442710
881.333494	2698.554860
881.643583	2716.619834
881.953631	2716.241748
882.263637	2710.273022
882.573602	2695.540250
882.883526	2679.564833
883.193408	2662.833243
883.503248	2643.533186
883.813048	2626.481483
884.122806	2613.422374
884.432522	2594.807913
884.742197	2581.862230
885.051831	2565.402863
885.361424	2553.029351
885.670975	2541.911086
885.980485	2536.774150
886.289954	2529.653521
886.599382	2519.810668
886.908768	2512.168278
887.218113	2504.593945
887.527417	2506.068482
887.836680	2497.261587
888.145901	2502.597648
888.455082	2498.398367
888.764221	2499.426762
889.073319	2496.507934
889.382376	2495.469456
889.691392	2492.177583
890.000366	2492.666575
890.309300	2493.891575
890.618193	2495.845022
890.927044	2492.086842
891.235855	2493.140443
891.544625	2494.806545
891.853353	2494.153715
892.162041	2497.122955
892.470687	2497.800990
892.779293	2501.475991
893.087858	2504.339367
893.396381	2510.071158
893.704864	2516.836387
894.013306	2529.973634
894.321707	2546.433001
894.630068	2556.495144
894.938387	2561.102759
895.246665	2560.465053
895.554903	2552.152190
895.863100	2546.387631
896.171256	2538.452855
896.479371	2534.853471
896.787446	2527.735362
897.095480	2524.070443
897.403473	2519.374608
897.711425	2512.208608
898.019336	2510.192146
898.327207	2510.650891
898.635038	2508.977228
898.942827	2501.153357
899.250576	2500.830723
899.558284	2498.594972
899.865952	2495.237563
900.173579	2495.350989
900.481165	2493.137923
900.788711	2492.608602
901.096216	2489.901502
901.403681	2489.654485
901.711105	2489.311687
902.018489	2488.401759
902.325832	2489.702376
902.633135	2488.374032
902.940397	2493.458036
903.247619	2496.129848
903.554800	2516.347395
903.861941	2541.386806
904.169041	2562.481514
904.476101	2573.907290
904.783121	2573.650191
905.090100	2564.780281
905.397039	2554.730740
905.703938	2545.994421
906.010796	2540.292876
906.317614	2530.354241
906.624391	2525.963396
906.931129	2518.283198
907.237826	2511.878412
907.544483	2506.857423
907.851099	2503.467247
908.157675	2495.461895
908.464211	2494.660351
908.770707	2490.907212
909.077163	2490.206492
909.383578	2486.755822
909.689954	2487.779176
909.996289	2481.165182
910.302584	2481.785244
910.608839	2480.411530
910.915054	2478.805922
911.221229	2480.197281
911.527363	2479.920017
911.833458	2483.988228
912.139513	2482.385142
912.445527	2480.363639
912.751502	2481.762559
913.057436	2482.952271
913.363331	2486.309680
913.669186	2487.083497
913.975000	2489.664568
914.280775	2494.453664
914.586510	2505.150992
914.892205	2512.120387
915.197859	2527.269055
915.503475	2539.629964
915.809050	2559.204764
916.114585	2565.796073
916.420081	2574.736559
916.725536	2575.492732
917.030952	2570.141548
917.336328	2565.934705
917.641665	2558.188972
917.946961	2548.449463
918.252218	2545.291180
918.557435	2539.057793
918.862612	2532.665610
919.167750	2530.366844
919.472848	2522.737058
919.777906	2517.514422
920.082925	2514.474606
920.387904	2507.880777
920.692843	2502.532113
920.997743	2500.656804
921.302603	2496.283603
921.607423	2493.745382
921.912204	2492.404435
922.216946	2491.053406
922.521647	2488.207674
922.826310	2488.064001
923.130932	2484.870430
923.435516	2484.976295
923.740059	2482.380100
924.044564	2483.327837
924.349028	2480.971098
924.653454	2480.156952
924.957840	2479.879688
925.262186	2478.700058
925.566493	2476.542444
925.870761	2477.603607
926.174989	2476.615541
926.479178	2477.512866
926.783328	2474.054635
927.087438	2474.732670
927.391509	2475.740901
927.695541	2472.963225
927.999533	2473.555561
928.303486	2474.440283
928.607400	2473.356435
928.911275	2470.011629
929.215110	2472.018009
929.518906	2472.514562
929.822663	2471.292083
930.126381	2471.420632
930.430060	2473.313585
930.733699	2471.571867
931.037299	2472.708647
931.340861	2473.714357
931.644383	2470.840899
931.947866	2471.539099
932.251309	2474.379789
932.554714	2473.520273
932.858080	2472.350725
933.161407	2467.425518
933.464694	2471.501290
933.767943	2467.934674
934.071153	2472.854840
934.374323	2472.854840
934.677455	2471.755869
934.980548	2472.443986
935.283602	2472.237299
935.586617	2469.701598
935.889593	2470.480457
936.192530	2473.679069
936.495428	2470.982052
936.798287	2470.465333
937.101108	2469.910806
937.403890	2474.765437
937.706632	2471.675210
938.009336	2473.192598
938.312002	2476.466827
938.614628	2478.568988
938.917216	2479.294914
939.219765	2477.906076
939.522275	2478.538741
939.824747	2478.349698
940.127179	2481.117291
940.429573	2479.481437
940.731929	2477.943885
941.034246	2478.561426
941.336524	2479.683083
941.638763	2479.640233
941.940964	2479.806591
942.243126	2478.662249
942.545250	2477.341467
942.847335	2476.245016
943.149381	2477.253247
943.451389	2476.305510
943.753359	2476.302989
944.055290	2474.699903
944.357182	2476.350880
944.659036	2474.112608
944.960851	2474.765437
945.262628	2474.730149
945.564367	2477.860706
945.866067	2473.227886
946.167729	2472.096147
946.469352	2475.451034
946.770937	2475.594707
947.072484	2473.986579
947.373992	2472.330560
947.675462	2471.224027
947.976893	2469.711681
948.278286	2468.695888
948.579641	2472.338122
948.880958	2467.249077
949.182236	2476.149234
949.483476	2472.209572
949.784678	2471.095478
950.085841	2473.898359
950.386967	2474.296610
950.688054	2473.505149
950.989103	2474.853658
951.290114	2474.246199
951.591087	2476.688638
951.892021	2474.039511
952.192917	2477.507825
952.493776	2475.594707
952.794596	2475.118318
953.095378	2476.945737
953.396122	2478.561426
953.696828	2476.587815
953.997496	2476.975983
954.298126	2473.946250
954.598718	2475.453555
954.899272	2472.948102
955.199788	2474.470530
955.500266	2474.735191
955.800706	2471.881898
956.101108	2474.347022
956.401472	2470.528348
956.701798	2472.083544
957.002087	2469.958697
957.302337	2470.876187
957.602550	2470.566156
957.902724	2470.417442
958.202861	2468.337966
958.502960	2468.635394
958.803022	2468.738738
959.103045	2470.271249
959.403031	2466.445013
959.702979	2468.000209
960.002889	2467.944756
960.302762	2466.709674
960.602596	2466.651700
960.902393	2465.459468
961.202153	2466.460137
961.501875	2466.692030
961.801559	2463.087605
962.101205	2464.804117
962.400814	2466.820579
962.700385	2468.469036
962.999918	2464.713377
963.299414	2463.218675
963.598873	2462.364199
963.898293	2460.239353
964.197677	2467.145733
964.497022	2462.245732
964.796331	2466.629015
965.095601	2463.672378
965.394835	2464.998202
965.694030	2464.693212
965.993189	2466.145064
966.292309	2463.458129
966.591393	2462.878397
966.890439	2462.127265
967.189447	2466.427369
967.488419	2463.465691
967.787353	2466.140023
968.086249	2466.213120
968.385108	2464.582307
968.683930	2465.404015
968.982714	2464.436113
969.281462	2465.499797
969.580172	2464.277317
969.878844	2465.363686
970.177480	2466.334108
970.476078	2464.042903
970.774639	2465.920733
971.073162	2466.739921
971.371649	2465.751854
971.670098	2464.715897
971.968510	2464.110959
972.266885	2464.504169
972.565223	2467.516258
972.863524	2465.277986
973.161788	2467.433079
973.460014	2464.630198
973.758204	2466.308902
974.056356	2463.790846
974.354471	2467.034828
974.652550	2461.643314
974.950591	2466.235805
975.248595	2466.692030
975.546563	2466.336628
975.844493	2468.083388
976.142386	2465.474591
976.440243	2465.240177
976.738062	2468.090950
977.035845	2465.030969
977.333590	2466.134982
977.631299	2466.538274
977.928971	2463.571555
978.226606	2461.297995
978.524204	2464.335290
978.821765	2460.362861
979.119290	2465.343521
979.416777	2464.426031
979.714228	2464.710856
980.011642	2465.484673
980.309020	2467.319653
980.606360	2466.276134
980.903664	2467.932153
981.200931	2464.894858
981.498162	2466.666824
981.795356	2468.264870
982.092513	2470.059520
982.389633	2471.680251
982.686717	2474.684779
982.983764	2476.182002
983.280775	2478.445480
983.577749	2477.001189
983.874686	2478.672332
984.171587	2476.910448
984.468451	2477.386838
984.765279	2475.960191
985.062070	2474.001703
985.358824	2475.970273
985.655543	2473.091774
985.952224	2472.630509
986.248869	2470.858543
986.545478	2468.476598
986.842050	2470.931640
987.138586	2469.129428
987.435086	2463.982409
987.731549	2463.838737
988.027975	2462.097018
988.324366	2465.320836
988.620719	2464.012656
988.917037	2464.229426
989.213318	2464.103397
989.509563	2460.730865
989.805772	2462.079374
990.101944	2466.029118
990.398080	2463.571555
990.694180	2463.952163
990.990244	2461.955866
991.286271	2463.400156
991.582262	2462.099538
991.878217	2463.027111
992.174136	2461.156843
992.470019	2465.966103
992.765865	2461.817234
993.061676	2460.125927
993.357450	2459.775567
993.653188	2459.377315
993.948890	2463.150619
994.244556	2465.099025
994.540186	2465.945939
994.835780	2465.232616
995.131337	2466.815538
995.426859	2467.992647
995.722345	2469.280662
996.017795	2467.428038
996.313208	2471.332412
996.608586	2472.443986
996.903928	2468.504324
997.199234	2470.929119
997.494504	2467.034828
997.789738	2469.620940
998.084936	2470.298975
998.380099	2470.525827
998.675225	2470.140179
998.970316	2469.242853
999.265371	2469.459623
999.560390	2466.694550
999.855373	2466.213120
1000.150320	2465.451906
1000.445232	2465.477112
1000.740108	2465.623305
1001.034948	2463.319498
1001.329752	2468.083388
1001.624521	2461.834878
1001.919254	2463.319498
1002.213951	2460.995526
1002.508613	2462.933849
1002.803239	2462.051648
1003.097829	2463.569035
1003.392384	2462.540639
1003.686903	2462.936370
1003.981386	2461.267748
1004.275834	2461.557614
1004.570246	2461.872687
1004.864623	2461.083746
1005.158964	2460.239353
1005.453270	2461.905454
1005.747540	2462.328911
1006.041775	2460.231791
1006.335974	2462.245732
1006.630138	2460.173818
1006.924266	2462.318829
1007.218359	2460.254476
1007.512416	2459.846143
1007.806438	2457.320525
1008.100425	2458.366564
1008.394376	2454.860442
1008.688292	2462.447378
1008.982172	2459.523509
1009.276017	2461.754219
1009.569827	2459.273972
1009.863602	2461.781946
1010.157341	2461.355968
1010.451045	2461.174487
1010.744714	2460.637604
1011.038347	2462.608695
1011.331945	2459.495783
1011.625508	2463.327059
1011.919036	2461.693726
1012.212528	2459.755402
1012.505986	2461.814713
1012.799408	2462.187759
1013.092795	2460.740948
1013.386147	2463.405197
1013.679464	2462.649024
1013.972745	2460.027624
1014.265992	2461.542491
1014.559204	2460.020062
1014.852380	2458.752212
1015.145521	2461.726493
1015.438628	2459.490741
1015.731699	2461.386215
1016.024736	2462.021401
1016.317737	2459.785649
1016.610703	2460.698098
1016.903635	2461.101390
1017.196531	2459.805813
1017.489393	2461.083746
1017.782219	2462.638942
1018.075011	2460.493931
1018.367768	2462.187759
1018.660490	2462.601133
1018.953177	2462.601133
1019.245829	2462.601133
