Dividing Wavelength (nm)	Counts (n)	Blue Motor Position (mm): 0.000000	Red Motor Position (mm): 34.500000	
326.493990	2051.898329
326.888308	2051.898329
327.282561	2051.898329
327.676750	2026.218692
328.070874	2031.567356
328.464933	2032.731862
328.858929	2041.072452
329.252859	2051.341282
329.646726	2063.114897
330.040528	2083.856724
330.434265	2100.056472
330.827938	2120.621859
331.221547	2140.065590
331.615091	2160.613333
332.008571	2182.965809
332.401986	2203.135465
332.795338	2221.926366
333.188625	2239.767010
333.581847	2260.738210
333.975006	2277.817639
334.368100	2293.745165
334.761129	2311.313586
335.154095	2326.641214
335.546996	2348.965964
335.939833	2385.448794
336.332606	2398.505383
336.725315	2410.200860
337.117960	2420.247879
337.510540	2431.648449
337.903056	2438.665735
338.295508	2450.746860
338.687896	2457.370936
339.080220	2460.403190
339.472480	2463.684981
339.864676	2463.087605
340.256807	2469.063892
340.648875	2470.170426
341.040879	2471.067751
341.432818	2473.636219
341.824694	2477.235603
342.216506	2473.217803
342.608253	2475.302320
342.999937	2475.753504
343.391557	2475.027578
343.783113	2471.944912
344.174605	2469.111783
344.566033	2468.078347
344.957397	2467.909468
345.348697	2466.324025
345.739934	2464.660445
346.131106	2461.633232
346.522215	2460.866976
346.913260	2459.473097
347.304241	2458.069136
347.695159	2456.256841
348.086012	2453.995884
348.476802	2451.195523
348.867528	2447.969184
349.258191	2445.914914
349.648789	2446.466920
350.039324	2443.860644
350.429796	2450.265430
350.820203	2448.743001
351.210548	2446.313165
351.600828	2445.478854
351.991045	2446.572785
352.381198	2444.878957
352.771288	2445.884667
353.161314	2445.355346
353.551276	2447.270984
353.941175	2445.912393
354.331010	2446.335850
354.720782	2444.969698
355.110490	2446.766869
355.500135	2446.013217
355.889717	2444.818463
356.279235	2446.862651
356.668689	2445.864503
357.058080	2448.344750
357.447408	2449.395831
357.836672	2448.054884
358.225873	2448.014555
358.615010	2450.469597
359.004084	2451.094700
359.393095	2451.394648
359.782043	2452.942282
360.170927	2452.866665
360.559748	2455.694752
360.948505	2452.155863
361.337199	2453.471604
361.725830	2455.367078
362.114398	2455.210802
362.502903	2457.524691
362.891344	2455.593929
363.279722	2458.704321
363.668037	2458.411934
364.056289	2458.122068
364.444478	2459.997377
364.832603	2459.372274
365.220665	2461.633232
365.608665	2463.105249
365.996601	2462.606174
366.384474	2461.527368
366.772284	2459.657099
367.160031	2463.763119
367.547715	2458.827830
367.935336	2462.313788
368.322893	2461.265228
368.710388	2461.739096
369.097820	2459.286575
369.485189	2461.696246
369.872495	2464.231947
370.259738	2467.801083
370.646918	2465.638428
371.034035	2466.868470
371.421090	2468.562298
371.808081	2467.604478
372.195010	2472.973307
372.581875	2471.871815
372.968678	2472.567494
373.355418	2475.778709
373.742096	2477.008751
374.128710	2477.563278
374.515262	2482.675008
374.901751	2483.216932
375.288177	2485.808085
375.674540	2492.666575
376.060841	2493.392501
376.447079	2495.875269
376.833254	2505.188801
377.219367	2506.262567
377.605417	2517.852179
377.991404	2520.670184
378.377329	2528.478932
378.763191	2533.033614
379.148991	2542.137938
379.534727	2550.607077
379.920402	2561.909343
380.306013	2567.172308
380.691563	2582.789803
381.077049	2590.233066
381.462474	2600.426279
381.847835	2616.084103
382.233134	2629.748151
382.618371	2640.284162
383.003545	2657.449291
383.388657	2669.207782
383.773706	2690.693180
384.158693	2705.662887
384.543618	2720.037737
384.928480	2734.226064
385.313280	2757.324631
385.698017	2775.417332
386.082692	2799.929943
386.467305	2813.941830
386.851856	2838.280521
387.236344	2866.483256
387.620770	2878.627396
388.005133	2900.536250
388.389435	2937.692075
388.773674	2950.123560
389.157851	2980.743528
389.541965	3009.687313
389.926018	3020.833304
390.310008	3053.626010
390.693936	3079.482088
391.077802	3107.581480
391.461606	3139.023156
391.845348	3153.607214
392.229027	3182.775331
392.612645	3226.041033
392.996200	3253.913573
393.379694	3290.963533
393.763125	3336.154957
394.146494	3358.394007
394.529801	3395.849780
394.913047	3440.093467
395.296230	3448.965898
395.679351	3470.416007
396.062410	3516.267822
396.445408	3498.769977
396.828343	3541.967624
397.211217	3574.039445
397.594028	3548.763100
397.976778	3594.824122
398.359466	3629.880306
398.742092	3636.519506
399.124656	3654.433246
399.507158	3713.480281
399.889598	3715.118656
400.271977	3783.194398
400.654294	3770.243673
401.036549	3830.719876
401.418742	3833.356399
401.800874	3897.593302
402.182944	3921.372425
402.564952	4008.622195
402.946898	4008.014736
403.328783	3999.243128
403.710606	4050.710788
404.092367	4119.981283
404.474067	4184.276159
404.855705	4171.113707
405.237282	4138.366371
405.618797	4236.217688
406.000250	4313.518741
406.381642	4396.879261
406.762972	4399.339344
407.144240	4360.814847
407.525447	4431.146504
407.906593	4447.726859
408.287677	4533.003018
408.668700	4557.873550
409.049661	4595.616669
409.430560	4632.364160
409.811399	4611.821458
410.192176	4664.438502
410.572891	4745.396912
410.953545	4848.198642
411.334138	4751.121142
411.714669	4858.089385
412.095139	4768.135036
412.475547	4884.668869
412.855894	4888.565681
413.236180	4988.362883
413.616405	4916.022325
413.996568	5019.791957
414.376670	5023.673645
414.756711	5018.924878
415.136691	5092.054377
415.516609	5175.041851
415.896466	5206.894382
416.276262	5285.617040
416.655997	5399.461417
417.035670	5488.473071
417.415283	5628.254185
417.794834	5705.204878
418.174324	5668.825391
418.553753	5666.982849
418.933121	5831.435370
419.312428	5847.776270
419.691674	5766.626296
420.070859	5995.366131
420.449983	5871.890630
420.829045	6068.689714
421.208047	5993.339588
421.586988	6149.522095
421.965867	6227.294496
422.344686	6307.501775
422.723444	6472.768442
423.102141	6088.758548
423.480777	6482.276058
423.859352	6293.842768
424.237866	6662.514952
424.616319	6655.112018
424.994712	6818.979764
425.373044	6734.452217
425.751314	7046.897892
426.129524	6769.647033
426.507673	7032.076899
426.885762	7073.961326
427.263789	7116.738037
427.641756	7202.210800
428.019662	7284.467308
428.397508	7326.049265
428.775292	7302.043291
429.153016	7470.468241
429.530679	7410.909528
429.908282	7458.503062
430.285824	7399.647591
430.663305	7683.502361
431.040726	7567.344094
431.418086	7567.538178
431.795385	7701.983231
432.172624	7891.770070
432.549802	7780.746219
432.926920	7913.890653
433.303977	7858.352262
433.680974	7895.818117
434.057910	8100.960311
434.434786	8150.930748
434.811601	8106.714788
435.188355	8440.426570
435.565050	8338.186929
435.941683	8338.305396
436.318257	8679.135287
436.694770	8629.434551
437.071222	8856.558696
437.447614	8634.339594
437.823946	8600.100077
438.200218	8747.674814
438.576429	8625.134447
438.952580	8793.261969
439.328670	8803.853433
439.704700	8876.574598
440.080670	8772.111808
440.456580	9040.575935
440.832429	9017.331175
441.208218	8759.193851
441.583947	8873.020584
441.959616	8990.315631
442.335224	9020.612966
442.710773	9100.270758
443.086261	9286.465776
443.461689	9001.131427
443.837057	9166.186366
444.212365	9387.303976
444.587612	9365.808496
444.962800	9262.742106
445.337927	9396.713290
445.712995	8937.975852
446.088002	9606.805897
446.462949	9668.580196
446.837837	9654.036467
447.212664	9676.121762
447.587431	10499.468214
447.962139	11497.634320
448.336786	12441.625666
448.711374	12234.431722
449.085901	11018.497852
449.460369	10952.655342
449.834776	10720.253109
450.209124	11630.693055
450.583412	11452.316867
450.957640	11765.412850
451.331808	11360.005779
451.705917	10798.068359
452.079965	10672.730151
452.453954	10871.550738
452.827883	10819.490743
453.201752	10783.766606
453.575562	10794.670622
453.949311	11138.137036
454.323001	11201.847138
454.696632	11117.133069
455.070202	11700.815505
455.443713	11761.203487
455.817164	11930.873602
456.190556	12244.486303
456.563888	12116.047786
456.937160	12376.289791
457.310373	11867.491175
457.683526	11876.590457
458.056619	11893.077551
458.429653	11960.850823
458.802628	12094.597676
459.175542	12149.773105
459.548398	12695.110004
459.921194	13268.571501
460.293930	13549.061301
460.666607	14408.557868
461.039224	15203.653693
461.411782	15566.689867
461.784280	15234.208127
462.156719	15189.515777
462.529099	15104.131234
462.901419	14458.316577
463.273680	14059.727665
463.645882	14270.039563
464.018024	14156.328776
464.390106	14511.704916
464.762130	15572.252780
465.134094	17095.752487
465.505999	19371.099961
465.877845	21651.259216
466.249631	22905.095000
466.621358	22468.228608
466.993026	21665.233294
467.364634	20923.762742
467.736184	20112.716706
468.107674	19503.210959
468.479105	19359.250728
468.850477	19083.565148
469.221790	18653.111103
469.593043	17979.156725
469.964238	17594.841841
470.335373	17640.381104
470.706449	18372.124750
471.077467	19209.278922
471.448425	21676.936333
471.819324	23555.454258
472.190164	23480.099090
472.560945	21734.513871
472.931667	20161.941052
473.302330	19819.349278
473.672934	19269.084651
474.043479	19690.938487
474.413965	19472.830445
474.784393	19296.069947
475.154761	19950.023548
475.525070	20091.904302
475.895321	19926.665361
476.265513	20445.016964
476.635645	21037.062675
477.005719	21109.998089
477.375734	21453.038526
477.745691	22095.057194
478.115588	22737.176686
478.485427	23912.902312
478.855207	25720.314763
479.224928	27521.929886
479.594591	28965.373549
479.964194	28619.431928
480.333739	29093.335678
480.703226	29310.601847
481.072653	29744.032693
481.442022	30253.980692
481.811333	30675.968119
482.180584	30237.942261
482.549777	30019.572080
482.918912	29790.638160
483.287988	29725.400588
483.657005	29580.971530
484.025964	29215.394615
484.394864	29406.227494
484.763706	29324.076851
485.132489	28785.348904
485.501213	28856.953453
485.869879	29031.558858
486.238487	28951.281003
486.607036	29238.220960
486.975527	28917.386806
487.343959	29275.953996
487.712333	29627.400557
488.080648	29583.255173
488.448905	30018.652069
488.817104	29890.463088
489.185244	30716.526722
489.553326	31671.744718
489.921350	33562.333686
490.289315	36069.791006
490.657222	36988.816037
491.025070	37596.822041
491.392861	37312.984915
491.760593	36559.884421
492.128267	35557.413170
492.495883	34572.538067
492.863440	33674.295192
493.230939	32691.998639
493.598380	32130.015849
493.965763	31958.757771
494.333088	31471.694089
494.700354	31263.053334
495.067563	31212.903936
495.434713	31090.829875
495.801805	31391.166697
496.168839	31212.730016
496.535815	31063.595041
496.902733	31192.497345
497.269593	31005.248727
497.636395	31154.292961
498.003139	31431.311926
498.369825	31185.996777
498.736453	31583.746336
499.103023	31422.820102
499.469535	31511.834277
499.835989	31627.679992
500.202385	31494.452378
500.568723	31520.283250
500.935003	31835.988031
501.301226	31692.375640
501.667390	32417.459921
502.033497	32625.911632
502.399546	32416.073604
502.765537	32025.089273
503.131470	32486.274192
503.497345	32916.088010
503.863163	31853.657275
504.228923	32619.630355
504.594625	32990.881089
504.960269	32472.630309
505.325856	33134.211175
505.691385	32778.441824
506.056856	33119.231386
506.422270	33580.444031
506.787625	33074.947370
507.152924	33533.994839
507.518164	33700.494069
507.883347	33264.260341
508.248472	33384.121336
508.613540	34054.239396
508.978550	34270.250317
509.343503	34097.696662
509.708398	34440.021256
510.073236	35011.252042
510.438016	35075.420889
510.802738	34728.581943
511.167403	35248.667703
511.532010	35490.673334
511.896561	35983.854456
512.261053	36691.803856
512.625488	36449.631866
512.989866	36323.166960
513.354186	36359.145675
513.718449	36290.596065
514.082655	37145.139697
514.446803	36802.333674
514.810894	37395.052379
515.174927	37345.293670
515.538904	37307.976528
515.902822	37899.623988
516.266684	37557.044817
516.630488	37859.340127
516.994235	37819.555341
517.357925	38335.242695
517.721558	38543.495281
518.085133	38855.809885
518.448651	38981.556426
518.812112	38836.847585
519.175516	38924.510729
519.538863	39309.271756
519.902152	39310.867281
520.265385	39789.015682
520.628560	39731.284388
520.991678	39618.143252
521.354739	39777.216861
521.717743	40057.994007
522.080690	39896.762784
522.443580	40488.420325
522.806413	40419.825345
523.169189	40462.907046
523.531908	40618.935798
523.894569	40399.698538
524.257174	40496.045071
524.619722	40738.534653
524.982213	40811.381847
525.344647	40761.938210
525.707025	40777.520416
526.069345	41124.865998
526.431608	40953.297889
526.793815	41208.148381
527.155964	40681.889728
527.518057	40825.981028
527.880093	40594.193815
528.242072	41082.694226
528.603995	40736.346792
528.965860	40544.787987
529.327669	40662.141007
529.689421	40601.798396
530.051117	40453.883380
530.412755	40605.806113
530.774337	40538.446216
531.135862	40357.226817
531.497331	40393.550851
531.858743	40274.289754
532.220098	40521.870902
532.581396	40158.403709
532.942638	39807.519237
533.303824	39917.355897
533.664953	39848.791164
534.026025	39416.081203
534.387040	39818.181278
534.747999	39727.299356
535.108902	39900.601622
535.469748	39157.427161
535.830537	39278.898804
536.191270	39343.828865
536.551947	38961.507758
536.912567	39067.563552
537.273131	39037.898882
537.633638	38583.670756
537.994089	38580.099099
538.354483	38218.625683
538.714821	38628.325297
539.075103	38722.879699
539.435328	38463.487128
539.795497	38082.585105
540.155609	38059.325221
540.515665	38385.238338
540.875665	37617.715103
541.235609	37701.065541
541.595496	37658.699684
541.955328	37976.708271
542.315102	37326.991761
542.674821	37091.610205
543.034483	36828.603127
543.394090	36679.314397
543.753640	36479.840980
544.113134	37182.706376
544.472571	36276.833715
544.831953	37020.691253
545.191278	36233.799905
545.550548	35811.542777
545.909761	36136.568650
546.268918	36066.950316
546.628019	36194.884718
546.987064	35581.225060
547.346053	34839.295764
547.704986	35374.079008
548.063863	34899.935803
548.422684	34859.180595
548.781449	34333.489072
549.140158	34556.852517
549.498811	34168.242569
549.857408	33512.731252
550.215949	33951.203252
550.574434	33621.547079
550.932864	33401.876279
551.291237	33721.830752
551.649555	33319.077848
552.007817	33228.269023
552.366022	32806.498366
552.724173	32661.459329
553.082267	32731.692684
553.440305	32789.910449
553.798288	32034.541437
554.156215	32095.819182
554.514086	32036.661242
554.871902	31528.943953
555.229661	31438.835848
555.587365	31009.069921
555.945014	30877.286598
556.302606	30670.543837
556.660143	30516.362668
557.017625	30460.841920
557.375050	30027.433759
557.732421	30077.653734
558.089735	29903.983463
558.446994	29580.359030
558.804197	29682.606233
559.161345	29362.089672
559.518437	28720.723832
559.875474	28650.092226
560.232455	28557.783658
560.589381	28365.846766
560.946251	28048.191059
561.303065	28205.580924
561.659825	27780.034442
562.016528	27440.404346
562.373177	26978.531310
562.729770	27120.822918
563.086307	26614.630578
563.442789	26692.312239
563.799216	26388.633131
564.155587	26116.125998
564.511904	25868.706167
564.868164	25680.071232
565.224370	25620.560410
565.580520	25252.099955
565.936615	25132.770803
566.292654	24733.014864
566.648638	24707.453694
567.004567	24447.302429
567.360441	24262.627319
567.716260	23897.413367
568.072023	23877.238670
568.427732	23609.311425
568.783385	23161.528414
569.138982	23160.590759
569.494525	23004.040247
569.850013	22595.611004
570.205445	22446.506276
570.560823	22125.427626
570.916145	21858.001976
571.271412	21742.337742
571.626625	21374.348635
571.981782	21202.210875
572.336884	20817.215435
572.691931	20747.909652
573.046923	20400.319574
573.401860	20117.815833
573.756743	19923.998591
574.111570	19782.480800
574.466342	19556.571572
574.821059	19412.321476
575.175722	19008.464559
575.530330	18843.568416
575.884882	18515.694291
576.239380	18280.128733
576.593823	18115.686295
576.948211	17894.545999
577.302544	17518.967435
577.656823	17338.234507
578.011047	17239.672388
578.365216	17001.462745
578.719330	16714.719394
579.073389	16532.423709
579.427394	16363.038419
579.781344	16164.306052
580.135239	15904.497586
580.489080	15754.634165
580.842866	15422.114616
581.196597	15410.807308
581.550273	15240.628036
581.903895	15043.897007
582.257463	15017.962791
582.610975	14691.046485
582.964434	14617.609476
583.317837	14318.936234
583.671186	14150.823836
584.024481	14062.747317
584.377721	13784.606694
584.730906	13690.511037
585.084037	13565.465216
585.437113	13342.442049
585.790135	13228.998444
586.143103	12956.909727
586.496016	12839.218949
586.848874	12720.358623
587.201679	12574.354205
587.554428	12300.899335
587.907124	12221.828837
588.259765	12036.478213
588.612352	11942.329624
588.964884	11680.797083
589.317362	11610.856115
589.669786	11484.534882
590.022155	11322.701240
590.374470	11284.552308
590.726731	11065.546941
591.078937	10799.956272
591.431090	10741.854453
591.783188	10522.024857
592.135232	10354.174599
592.487222	10276.976889
592.839157	10192.565289
593.191038	10009.422690
593.542866	9859.418116
593.894639	9633.229105
594.246358	9568.568745
594.598022	9451.974418
594.949633	9259.835881
595.301190	9152.386207
595.652692	9031.504379
596.004141	9011.002006
596.355535	8723.956186
596.706876	8618.316286
597.058162	8471.016291
597.409395	8443.179040
597.760573	8377.356694
598.111698	8217.579843
598.462768	8111.324923
598.813785	8006.010178
599.164748	7862.977520
599.515657	7806.463665
599.866511	7647.256465
600.217312	7643.233624
600.568060	7421.415293
600.918753	7441.743746
601.269392	7337.989238
601.619978	7220.908440
601.970510	7160.475088
602.320988	7094.191476
602.671412	7039.598301
603.021783	6943.559279
603.372100	6811.907026
603.722363	6746.089721
604.072572	6680.368198
604.422728	6595.765034
604.772830	6497.006309
605.122878	6443.209636
605.472872	6353.645976
605.822813	6305.346681
606.172701	6208.543925
606.522534	6167.090517
606.872314	6124.238188
607.222041	6037.273243
607.571714	5995.141800
607.921333	5892.065327
608.270899	5838.850907
608.620411	5803.235155
608.969870	5725.482919
609.319276	5664.235420
609.668627	5606.088231
610.017926	5578.240897
610.367171	5529.989493
610.716362	5474.788859
611.065500	5412.465074
611.414585	5371.689701
611.763616	5329.404503
612.112594	5263.360346
612.461518	5223.578080
612.810389	5192.325447
613.159207	5126.029233
613.507971	5070.574020
613.856682	5051.866298
614.205340	4993.028471
614.553945	4989.451772
614.902496	4903.679060
615.250994	4878.909351
615.599439	4841.496427
615.947830	4800.214419
616.296169	4756.515177
616.644454	4718.335998
616.992686	4686.397768
617.340864	4665.570241
617.688990	4609.096715
618.037063	4605.033545
618.385082	4562.559303
618.733048	4539.914440
619.080961	4494.186133
619.428821	4460.743119
619.776628	4423.730967
620.124382	4378.511817
620.472083	4343.831199
620.819731	4312.329029
621.167326	4249.879215
621.514868	4211.765571
621.862357	4153.199967
622.209793	4117.543885
622.557176	4063.585895
622.904506	4019.314482
623.251783	3971.962924
623.599007	3929.675205
623.946179	3895.859145
624.293297	3857.712734
624.640363	3809.985610
624.987376	3771.672841
625.334336	3740.185794
625.681243	3706.049620
626.028097	3678.403933
626.374899	3651.511897
626.721647	3626.049029
627.068343	3603.411728
627.414987	3572.302768
627.761577	3550.383831
628.108115	3537.596944
628.454600	3503.014629
628.801032	3488.985097
629.147412	3470.206799
629.493739	3450.130404
629.840014	3420.730395
630.186236	3419.883481
630.532405	3390.148235
630.878521	3382.581463
631.224585	3365.925491
631.570597	3345.216431
631.916556	3336.913651
632.262462	3324.129284
632.608316	3310.760144
632.954117	3299.104997
633.299866	3284.586474
633.645562	3271.141716
633.991206	3247.390320
634.336797	3230.368864
634.682336	3213.967470
635.027823	3195.141281
635.373257	3183.128211
635.718639	3162.766991
636.063968	3154.559992
636.409245	3132.015952
636.754470	3120.862400
637.099642	3107.410081
637.444762	3088.581371
637.789829	3083.570464
638.134845	3072.520255
638.479808	3061.717062
638.824719	3054.795558
639.169577	3042.260729
639.514383	3036.871735
639.859137	3023.704242
640.203839	3019.595701
640.548489	3009.019360
640.893086	3006.256808
641.237632	2994.450426
641.582125	2989.840291
641.926566	2982.639002
642.270955	2979.132880
642.615292	2968.349852
642.959576	2965.312557
643.303809	2956.064560
643.647990	2957.871813
643.992118	2952.906277
644.336195	2947.499639
644.680219	2943.368414
645.024192	2941.145265
645.368112	2945.024433
645.711981	2940.913372
646.055797	2946.322530
646.399562	2940.752055
646.743274	2947.867644
647.086935	2948.674228
647.430544	2943.587704
647.774101	2940.726849
648.117606	2941.180553
648.461059	2940.520162
648.804460	2936.492280
649.147810	2923.750764
649.491108	2912.345153
649.834354	2913.492016
650.177548	2900.014491
650.520690	2891.580640
650.863781	2887.220042
651.206820	2883.507232
651.549807	2876.507590
651.892742	2868.527444
652.235626	2863.012422
652.578458	2860.033100
652.921238	2846.104392
653.263967	2849.849969
653.606644	2842.545337
653.949269	2841.403516
654.291843	2834.577793
654.634365	2836.291786
654.976836	2829.062771
655.319255	2827.963799
655.661622	2825.972544
656.003938	2820.896102
656.346203	2815.292859
656.688416	2818.304949
657.030577	2813.059628
657.372687	2808.676345
657.714746	2805.863381
658.056753	2805.427321
658.398708	2799.400622
658.740612	2798.977165
659.082465	2796.766619
659.424266	2790.409724
659.766016	2790.906277
660.107715	2788.826802
660.449362	2785.393776
660.790958	2785.343364
661.132503	2782.192643
661.473996	2782.739608
661.815438	2782.270781
662.156829	2783.183230
662.498168	2778.603342
662.839456	2776.365069
663.180693	2777.438835
663.521879	2776.314658
663.863013	2776.039915
664.204097	2769.645211
664.545129	2772.178391
664.886110	2772.929523
665.227040	2771.238216
665.567918	2769.468771
665.908746	2769.398195
666.249522	2769.262083
666.590248	2769.100767
666.930922	2767.056579
667.271545	2765.309819
667.612118	2764.921650
667.952639	2761.755805
668.293109	2759.671288
668.633528	2756.966709
668.973896	2758.506782
669.314213	2754.352871
669.654480	2753.601739
669.994695	2751.892788
670.334859	2750.224166
670.674973	2743.458937
671.015035	2746.576891
671.355047	2745.490522
671.695008	2739.625140
672.034918	2742.748135
672.374777	2740.159502
672.714585	2738.521127
673.054342	2739.103381
673.394049	2734.767988
673.733705	2737.578432
674.073310	2732.179356
674.412864	2736.119017
674.752368	2733.268245
675.091820	2732.370920
675.431223	2727.659961
675.770574	2725.734241
676.109875	2719.727706
676.449125	2721.711400
676.788324	2716.793754
677.127473	2713.388455
677.466571	2708.823690
677.805619	2710.386448
678.144616	2708.637167
678.483562	2709.753783
678.822458	2703.782536
679.161303	2702.635674
679.500098	2701.662731
679.838842	2701.531661
680.177535	2699.200127
680.516179	2703.379244
680.854771	2701.687937
681.193314	2707.296220
681.531805	2710.520038
681.870247	2716.093034
682.208638	2720.105792
682.546978	2721.582850
682.885268	2723.654765
683.223508	2718.590926
683.561697	2716.713096
683.899836	2715.397355
684.237925	2712.254195
684.575963	2710.958619
684.913951	2706.230016
685.251889	2708.405274
685.589776	2705.806559
685.927614	2703.906044
686.265401	2707.749924
686.603137	2704.838658
686.940824	2705.884697
687.278460	2711.513146
687.616046	2710.207487
687.953582	2715.309134
688.291068	2712.065152
688.628504	2718.427088
688.965889	2716.977756
689.303224	2713.695965
689.640510	2709.831921
689.977745	2707.676827
690.314930	2702.098791
690.652065	2698.738862
690.989150	2697.420600
691.326185	2687.746626
691.663170	2683.128929
692.000105	2679.032991
692.336990	2674.253977
692.673825	2669.721980
693.010610	2666.291475
693.347345	2662.233346
693.684030	2653.219763
694.020665	2654.308652
694.357251	2646.779689
694.693786	2650.041316
695.030272	2649.781696
695.366707	2645.191726
695.703093	2643.684421
696.039429	2642.146869
696.375716	2640.979842
696.711952	2641.274749
697.048139	2641.766262
697.384276	2638.192083
697.720363	2640.064872
698.056400	2637.856847
698.392388	2636.077319
698.728326	2637.390540
699.064214	2636.722587
699.400053	2635.038842
699.735842	2632.573717
700.071581	2631.061371
700.407270	2626.836884
700.742910	2627.537605
701.078501	2626.020217
701.414042	2625.175824
701.749533	2624.835546
702.084974	2621.609208
702.420366	2623.431585
702.755709	2617.619135
703.091002	2616.459669
703.426246	2616.285749
703.761440	2613.659308
704.096584	2614.740636
704.431679	2612.323402
704.766725	2610.198556
705.101721	2610.823659
705.436668	2614.349946
705.771565	2611.103443
706.106413	2611.955398
706.441212	2611.352980
706.775961	2611.277363
707.110661	2612.888012
707.445311	2614.599483
707.779913	2615.174175
708.114465	2614.624689
708.448967	2619.096193
708.783421	2621.437809
709.117825	2623.996194
709.452180	2622.841770
709.786485	2626.652882
710.120742	2629.498614
710.454949	2626.751185
710.789107	2631.731845
711.123216	2634.252422
711.457275	2641.549492
711.791286	2643.223155
712.125247	2644.753145
712.459159	2643.621406
712.793023	2649.186840
713.126837	2645.237096
713.460602	2645.564771
713.794318	2640.236271
714.127985	2641.617547
714.461602	2634.093625
714.795171	2633.650004
715.128691	2625.926956
715.462162	2625.047275
715.795584	2621.379835
716.128957	2619.179372
716.462281	2620.301028
716.795556	2615.597632
717.128782	2612.313320
717.461960	2608.567743
717.795088	2608.774430
718.128167	2607.302413
718.461198	2600.695981
718.794180	2602.462906
719.127113	2601.978955
719.459997	2600.428800
719.792833	2596.617688
720.125619	2596.894951
720.458357	2592.519230
720.791046	2592.299939
721.123686	2592.834302
721.456278	2589.948241
721.788821	2592.925042
722.121315	2588.700556
722.453761	2587.092428
722.786158	2588.604774
723.118506	2588.440936
723.450805	2588.786255
723.783056	2590.762387
724.115259	2589.907912
724.447412	2588.783735
724.779518	2587.485637
725.111574	2588.796337
725.443582	2591.616863
725.775542	2589.804568
726.107453	2592.574682
726.439315	2593.461925
726.771129	2596.819334
727.102895	2593.958479
727.434612	2599.498707
727.766281	2596.138778
728.097901	2602.679675
728.429473	2604.938112
728.760996	2606.342073
729.092471	2604.698657
729.423897	2603.640015
729.755276	2601.913420
730.086606	2607.032712
730.417887	2608.431632
730.749120	2614.554113
731.080305	2614.302055
731.411442	2616.711727
731.742530	2616.250461
732.073570	2620.613580
732.404562	2620.293467
732.735506	2620.578292
733.066401	2620.124588
733.397249	2615.378342
733.728048	2610.904318
734.058798	2607.136055
734.389501	2602.074737
734.720156	2597.678851
735.050762	2595.291864
735.381320	2593.673654
735.711831	2591.344641
736.042293	2586.439598
736.372707	2587.863724
736.703073	2584.344999
737.033391	2584.793661
737.363661	2587.467993
737.693883	2588.761049
738.024056	2589.381111
738.354182	2588.390525
738.684260	2592.672985
739.014290	2592.546956
739.344272	2595.034765
739.674207	2598.233378
740.004093	2599.372678
740.333931	2598.941660
740.663722	2599.435693
740.993464	2599.748244
741.323159	2597.033583
741.652806	2598.482915
741.982405	2599.176073
742.311956	2592.940166
742.641460	2593.474528
742.970915	2591.901688
743.300323	2588.017479
743.629683	2582.993969
743.958996	2583.639237
744.288260	2574.071127
744.617477	2577.806622
744.946647	2580.788465
745.275768	2578.923238
745.604842	2575.959039
745.933869	2576.458113
746.262847	2578.217476
746.591778	2578.020871
746.920662	2574.668504
747.249498	2575.490212
747.578286	2573.367886
747.907027	2574.948288
748.235720	2578.467013
748.564365	2579.172775
748.892963	2579.447518
749.221514	2579.374421
749.550017	2576.735377
749.878473	2580.745615
750.206881	2576.886612
750.535242	2577.478947
750.863555	2576.014492
751.191821	2575.893504
751.520039	2577.423494
751.848210	2573.841755
752.176334	2573.365366
752.504411	2575.089440
752.832440	2575.255798
753.160421	2573.952660
753.488356	2573.151117
753.816243	2570.857392
754.144082	2570.454099
754.471875	2571.548030
754.799620	2569.511403
755.127318	2570.718760
755.454969	2567.391598
755.782572	2571.021229
756.110129	2568.828327
756.437638	2569.012329
756.765100	2569.796229
757.092515	2569.639953
757.419882	2566.852195
757.747203	2568.349417
758.074477	2568.767833
758.401703	2570.832186
758.728882	2572.934347
759.056014	2572.924265
759.383099	2572.871332
759.710138	2572.460478
760.037129	2572.609193
760.364073	2573.914851
760.690970	2573.093143
761.017820	2576.914338
761.344623	2575.812846
761.671379	2582.018506
761.998088	2583.979515
762.324751	2592.884713
762.651366	2614.259206
762.977935	2645.282466
763.304456	2669.422032
763.630931	2681.160358
763.957359	2679.968125
764.283740	2664.975734
764.610074	2650.661377
764.936362	2631.048768
765.262602	2619.837242
765.588796	2604.852412
765.914943	2592.703232
766.241044	2583.664443
766.567097	2578.900553
766.893104	2571.109449
767.219064	2567.825137
767.544978	2562.564693
767.870845	2560.147460
768.196665	2558.395659
768.522438	2555.665874
768.848165	2554.138405
769.173846	2549.737478
769.499479	2551.703527
769.825066	2551.078424
770.150607	2550.120605
770.476101	2546.697662
770.801548	2549.301418
771.126949	2543.521735
771.452303	2545.162630
771.777611	2542.949564
772.102872	2543.448638
772.428087	2541.124666
772.753256	2541.608617
773.078378	2540.461754
773.403453	2541.167516
773.728482	2537.968904
774.053465	2538.273894
774.378401	2535.554191
774.703291	2534.578728
775.028135	2536.045704
775.352932	2533.651156
775.677683	2530.071936
776.002388	2533.547812
776.327046	2527.395084
776.651658	2529.973634
776.976224	2527.049765
777.300743	2529.504807
777.625216	2530.951618
777.949643	2528.655372
778.274024	2529.409025
778.598359	2531.216278
778.922647	2528.884745
779.246889	2528.463808
779.571086	2528.355423
779.895236	2533.860363
780.219339	2528.942718
780.543397	2533.262987
780.867409	2526.863242
781.191374	2529.953469
781.515294	2530.429858
781.839167	2530.480270
782.162995	2531.198634
782.486776	2530.782739
782.810511	2529.892975
783.134201	2529.774508
783.457844	2527.790814
783.781441	2525.504651
784.104993	2528.647810
784.428498	2528.695701
784.751958	2526.187727
785.075372	2527.647141
785.398739	2527.629497
785.722061	2530.026566
786.045337	2526.709487
786.368568	2528.090763
786.691752	2528.892306
787.014891	2530.240815
787.337983	2532.857174
787.661030	2541.288504
787.984031	2543.236910
788.306987	2546.647250
788.629897	2550.833928
788.952760	2552.182437
789.275579	2551.408620
789.598351	2546.851417
789.921078	2540.038297
790.243759	2539.655170
790.566395	2535.960004
790.888984	2536.403626
791.211529	2531.962369
791.534027	2532.461443
791.856480	2529.436751
792.178888	2527.042203
792.501249	2522.984074
792.823566	2522.611029
793.145836	2519.462828
793.468062	2528.337779
793.790241	2524.892151
794.112375	2526.356606
794.434464	2528.473891
794.756507	2528.436082
795.078505	2524.710669
795.400457	2531.407842
795.722364	2534.750127
796.044226	2535.440765
796.366042	2540.033256
796.687812	2535.735673
797.009538	2539.642567
797.331218	2541.107022
797.652852	2536.428831
797.974442	2538.946888
798.295986	2537.091743
798.617484	2536.144006
798.938938	2534.520755
799.260346	2532.660569
799.581709	2528.173942
799.903026	2532.070754
800.224299	2529.013294
800.545526	2528.683098
800.866708	2528.877183
801.187845	2524.637573
801.508936	2524.882068
801.829983	2525.965917
802.150984	2523.563807
802.471940	2525.502130
802.792851	2524.355268
803.113717	2523.105062
803.434538	2522.648837
803.755314	2519.863600
804.076045	2521.496934
804.396731	2524.025072
804.717372	2523.543642
805.037967	2522.704290
805.358518	2519.939217
805.679024	2522.611029
805.999485	2525.033303
806.319901	2523.082377
806.640272	2524.453570
806.960598	2524.524147
807.280879	2522.928621
807.601115	2524.791328
807.921306	2525.388704
808.241453	2520.713034
808.561554	2524.372912
808.881611	2522.847963
809.201623	2521.408713
809.521590	2524.725793
809.841513	2525.756709
810.161390	2523.142870
810.481223	2519.825791
810.801011	2524.292253
811.120755	2523.934332
811.440453	2522.870648
811.760107	2522.996677
812.079716	2522.232942
812.399281	2522.963909
812.718801	2521.837212
813.038276	2521.449043
813.357707	2519.767818
813.677093	2524.577079
813.996434	2521.968282
814.315731	2521.053312
814.634983	2524.297295
814.954191	2522.958868
815.273354	2520.912160
815.592473	2523.551204
815.911547	2523.798220
816.230577	2527.916843
816.549562	2525.053468
816.868502	2526.475073
817.187399	2530.694519
817.506250	2528.123530
817.825058	2532.839530
818.143821	2533.285672
818.462539	2536.854809
818.781213	2540.464275
819.099843	2545.775131
819.418429	2554.864331
819.736970	2565.332287
820.055466	2576.127918
820.373919	2591.082501
820.692327	2612.817436
821.010691	2643.888587
821.329011	2718.840463
821.647286	2844.357632
821.965517	3003.617764
822.283704	3118.689662
822.601847	3190.546269
822.919945	3146.131183
823.237999	3080.192891
823.556010	3005.425018
823.873976	2928.809562
824.191897	2858.752647
824.509775	2804.141827
824.827609	2757.206164
825.145398	2721.537480
825.463144	2705.879656
825.780845	2702.882690
826.098502	2712.828887
826.416116	2740.081364
826.733685	2777.363218
827.051210	2796.973306
827.368692	2790.951648
827.686129	2757.498551
828.003522	2720.718292
828.320872	2682.765966
828.638177	2654.227994
828.955439	2630.990795
829.272656	2609.185284
829.589830	2595.677512
829.906960	2579.518094
830.224046	2568.979562
830.541088	2558.536812
830.858086	2549.671943
831.175041	2548.033567
831.491952	2545.505429
831.808819	2542.321940
832.125642	2548.943496
832.442421	2555.834753
832.759157	2569.198852
833.075849	2596.942842
833.392497	2634.343162
833.709101	2655.158087
834.025662	2661.898109
834.342179	2651.329330
834.658653	2631.126906
834.975083	2608.779471
835.291469	2595.208685
835.607811	2577.347877
835.924110	2567.303378
836.240366	2555.688560
836.556578	2544.449307
836.872746	2538.662063
837.188871	2532.567308
837.504952	2528.952800
837.820990	2524.950124
838.136984	2519.533404
838.452935	2520.153466
838.768842	2518.318486
839.084706	2523.024403
839.400526	2533.159643
839.716303	2548.023485
840.032037	2558.967830
840.347727	2563.580486
840.663373	2559.350958
840.978977	2543.922507
841.294537	2536.201979
841.610054	2530.946577
841.925527	2524.635052
842.240957	2522.676564
842.556344	2518.222704
842.871687	2513.904956
843.186987	2509.882115
843.502244	2503.784840
843.817458	2505.773575
844.132629	2503.358862
844.447756	2501.143275
844.762840	2501.889366
845.077881	2499.537668
845.392879	2501.700323
845.707833	2500.162771
846.022745	2500.036742
846.337613	2498.073212
846.652438	2495.968531
846.967221	2499.257883
847.281960	2497.768223
847.596656	2493.253869
847.911309	2497.425424
848.225919	2494.398211
848.540485	2496.150012
848.855009	2493.188334
849.169490	2496.495331
849.483928	2493.405104
849.798323	2494.032728
850.112675	2492.230515
850.426984	2493.021976
850.741251	2495.996257
851.055474	2494.393170
851.369654	2494.186483
851.683792	2491.169352
851.997887	2493.505927
852.311938	2492.923674
852.625947	2493.558859
852.939914	2492.417038
853.253837	2493.407624
853.567718	2494.352841
853.881555	2494.047851
854.195350	2494.647748
854.509103	2492.273365
854.822812	2492.908550
855.136479	2492.873262
855.450103	2494.819148
855.763685	2490.962665
856.077224	2490.450988
856.390720	2490.629949
856.704173	2490.408138
857.017584	2494.367964
857.330953	2491.968375
857.644278	2495.141781
857.957561	2499.439365
858.270802	2497.180928
858.584000	2495.761843
858.897155	2494.972903
859.210268	2495.897954
859.523339	2493.924343
859.836367	2496.949035
860.149352	2490.178765
860.462295	2493.866369
860.775195	2495.398880
861.088054	2496.828047
861.400869	2494.698160
861.713642	2496.676813
862.026373	2493.344610
862.339062	2492.084322
862.651708	2492.800165
862.964312	2493.886534
863.276873	2498.037924
863.589392	2494.720845
863.901869	2497.745537
864.214303	2495.928201
864.526696	2498.239570
864.839045	2497.856443
865.151353	2496.404590
865.463619	2499.852740
865.775842	2499.822493
866.088023	2499.134375
866.400162	2498.957935
866.712258	2498.189159
867.024313	2497.652276
867.336325	2497.375012
867.648296	2502.627895
867.960224	2499.988851
868.272110	2502.040600
868.583954	2500.228306
868.895755	2501.481032
869.207515	2500.268635
869.519233	2500.719818
869.830909	2501.382730
870.142542	2502.695950
870.454134	2503.341218
870.765684	2503.802484
871.077191	2501.135713
871.388657	2499.641011
871.700081	2496.923829
872.011463	2501.171001
872.322803	2496.081957
872.634101	2505.609737
872.945357	2505.677793
873.256571	2506.479336
873.567744	2507.243071
873.878874	2507.807680
874.189963	2508.946981
874.501010	2507.729543
874.812015	2508.914214
875.122979	2506.333143
875.433900	2510.978566
875.744780	2509.299862
876.055618	2507.477485
876.366415	2511.591066
876.677169	2511.071827
876.987882	2513.617610
877.298554	2511.800274
877.609183	2515.586181
877.919771	2515.871006
878.230317	2516.695235
878.540822	2524.647655
878.851285	2528.673016
879.161707	2534.248532
879.472087	2545.066848
879.782425	2560.921277
880.092722	2591.160639
880.402977	2635.933647
880.713191	2696.525795
881.023363	2759.605753
881.333494	2805.082002
881.643583	2831.079232
881.953631	2832.843636
882.263637	2822.267296
882.573602	2798.987247
882.883526	2776.007147
883.193408	2751.429002
883.503248	2728.421176
883.813048	2702.577700
884.122806	2681.049453
884.432522	2658.001298
884.742197	2635.268214
885.051831	2617.548558
885.361424	2602.644387
885.670975	2582.444484
885.980485	2573.413257
886.289954	2563.257852
886.599382	2553.304094
886.908768	2544.550130
887.218113	2537.580735
887.527417	2533.021011
887.836680	2525.628159
888.145901	2522.772346
888.455082	2522.784948
888.764221	2520.536594
889.073319	2516.322189
889.382376	2515.339164
889.691392	2515.291273
890.000366	2515.712210
890.309300	2512.374966
890.618193	2516.518794
890.927044	2512.813546
891.235855	2515.228259
891.544625	2515.026613
891.853353	2517.670698
892.162041	2516.906963
892.470687	2522.111954
892.779293	2524.367871
893.087858	2530.341638
893.396381	2538.979655
893.704864	2548.391489
894.013306	2569.261866
894.321707	2586.996646
894.630068	2603.259408
894.938387	2611.330295
895.246665	2609.016406
895.554903	2602.989706
895.863100	2592.037799
896.171256	2583.031778
896.479371	2574.101374
896.787446	2568.356979
897.095480	2554.549259
897.403473	2551.007848
897.711425	2547.854607
898.019336	2539.965201
898.327207	2536.113759
898.635038	2531.518747
898.942827	2529.182173
899.250576	2524.965248
899.558284	2522.696728
899.865952	2521.781759
900.173579	2520.425688
900.481165	2513.824298
900.788711	2512.997548
901.096216	2508.972187
901.403681	2511.432270
901.711105	2512.627023
902.018489	2507.903462
902.325832	2510.008144
902.633135	2507.500170
902.940397	2516.022241
903.247619	2523.372243
903.554800	2552.263096
903.861941	2583.818198
904.169041	2616.328599
904.476101	2631.971300
904.783121	2630.791670
905.090100	2620.157356
905.397039	2606.440376
905.703938	2590.588468
906.010796	2581.360636
906.317614	2568.286403
906.624391	2558.834240
906.931129	2553.886347
907.237826	2544.169523
907.544483	2537.527803
907.851099	2529.908099
908.157675	2522.142201
908.464211	2512.342198
908.770707	2511.891015
909.077163	2506.272649
909.383578	2505.206445
909.689954	2501.962462
909.996289	2499.666217
910.302584	2498.105980
910.608839	2496.840650
910.915054	2497.107831
911.221229	2495.580362
911.527363	2496.475167
911.833458	2499.371309
912.139513	2496.598675
912.445527	2496.823006
912.751502	2497.145640
913.057436	2502.471619
913.363331	2502.948008
913.669186	2507.762310
913.975000	2512.087620
914.280775	2518.930986
914.586510	2531.080167
914.892205	2542.649615
915.197859	2563.653583
915.503475	2584.332396
915.809050	2605.248143
916.114585	2621.805813
916.420081	2627.255300
916.725536	2629.508696
917.030952	2622.788838
917.336328	2618.455966
917.641665	2608.618154
917.946961	2598.462750
918.252218	2593.540063
918.557435	2578.877867
918.862612	2575.091961
919.167750	2566.995868
919.472848	2560.646534
919.777906	2552.825184
920.082925	2545.868392
920.387904	2535.221475
920.692843	2531.695188
920.997743	2523.130268
921.302603	2520.806296
921.607423	2515.997035
921.912204	2515.185409
922.216946	2511.777589
922.521647	2507.699296
922.826310	2507.033863
923.130932	2505.818945
923.435516	2502.431290
923.740059	2499.121772
924.044564	2497.869046
924.349028	2499.388953
924.653454	2495.529950
924.957840	2497.637153
925.262186	2493.538694
925.566493	2495.829899
925.870761	2490.776142
926.174989	2490.065339
926.479178	2487.910246
926.783328	2492.991729
927.087438	2491.134064
927.391509	2490.110710
927.695541	2486.965030
927.999533	2485.855976
928.303486	2486.423106
928.607400	2485.772797
928.911275	2486.312200
929.215110	2484.260451
929.518906	2483.816829
929.822663	2486.791110
930.126381	2485.162817
930.430060	2485.356902
930.733699	2485.445122
931.037299	2486.017293
931.340861	2484.560399
931.644383	2483.872282
931.947866	2483.416058
932.251309	2484.807416
932.554714	2485.813126
932.858080	2483.196767
933.161407	2482.491006
933.464694	2481.001345
933.767943	2478.533700
934.071153	2483.184164
934.374323	2482.443115
934.677455	2484.840183
934.980548	2482.019658
935.283602	2485.175420
935.586617	2484.404124
935.889593	2482.990080
936.192530	2481.069400
936.495428	2483.811788
936.798287	2485.056953
937.101108	2482.801037
937.403890	2484.416727
937.706632	2486.597026
938.009336	2488.626090
938.312002	2489.447798
938.614628	2490.945021
938.917216	2490.955103
939.219765	2491.277737
939.522275	2494.526761
939.824747	2493.826040
940.127179	2494.204127
940.429573	2495.466936
940.731929	2494.516678
941.034246	2492.900988
941.336524	2492.890906
941.638763	2495.582882
941.940964	2493.692450
942.243126	2491.587768
942.545250	2493.241266
942.847335	2492.051554
943.149381	2492.172542
943.451389	2490.612305
943.753359	2489.616677
944.055290	2488.953765
944.357182	2490.534167
944.659036	2489.173055
944.960851	2485.636686
945.262628	2487.499392
945.564367	2490.582058
945.866067	2488.167345
946.167729	2487.887561
946.469352	2486.415544
946.770937	2486.158445
947.072484	2485.422437
947.373992	2487.632983
947.675462	2484.222642
947.976893	2483.388331
948.278286	2483.355564
948.579641	2481.432363
948.880958	2479.998155
949.182236	2485.876141
949.483476	2484.504947
949.784678	2485.303970
950.085841	2485.099803
950.386967	2483.862200
950.688054	2483.199288
950.989103	2485.568630
951.290114	2485.601398
951.591087	2489.094917
951.892021	2488.999135
952.192917	2489.062150
952.493776	2487.441419
952.794596	2490.234218
953.095378	2488.457211
953.396122	2490.236739
953.696828	2491.413848
953.997496	2490.135916
954.298126	2491.776811
954.598718	2488.588281
954.899272	2487.111223
955.199788	2485.578712
955.500266	2483.436222
955.800706	2486.518888
956.101108	2481.490337
956.401472	2481.913794
956.701798	2481.986890
957.002087	2484.298259
957.302337	2480.719040
957.602550	2481.528145
957.902724	2478.266519
958.202861	2478.183340
958.502960	2479.025213
958.803022	2480.371201
959.103045	2477.132259
959.403031	2478.105202
959.702979	2477.102012
960.002889	2475.909779
960.302762	2475.221662
960.602596	2477.409523
960.902393	2473.923565
961.202153	2474.019347
961.501875	2473.527834
961.801559	2475.506487
962.101205	2474.772999
962.400814	2473.701754
962.700385	2476.386168
962.999918	2472.368369
963.299414	2465.850157
963.598873	2472.943060
963.898293	2468.300158
964.197677	2473.069089
964.497022	2472.108749
964.796331	2473.023719
965.095601	2474.997331
965.394835	2472.174284
965.694030	2472.401136
965.993189	2472.885087
966.292309	2472.481795
966.591393	2473.227886
966.890439	2470.296455
967.189447	2473.084213
967.488419	2474.042032
967.787353	2472.849799
968.086249	2472.963225
968.385108	2471.818883
968.683930	2473.308544
968.982714	2470.853502
969.281462	2471.937350
969.580172	2473.820221
969.878844	2470.046917
970.177480	2470.649335
970.476078	2475.312403
970.774639	2475.403143
971.073162	2472.819552
971.371649	2473.598410
971.670098	2474.034470
971.968510	2476.401292
972.266885	2473.207721
972.565223	2474.823411
972.863524	2472.111270
973.161788	2475.009933
973.460014	2473.006075
973.758204	2472.229737
974.056356	2477.170068
974.354471	2472.204531
974.652550	2475.161168
974.950591	2473.200159
975.248595	2476.653350
975.546563	2471.347535
975.844493	2476.681076
976.142386	2472.108749
976.440243	2472.675879
976.738062	2473.585807
977.035845	2475.277115
977.333590	2474.256281
977.631299	2475.304841
977.928971	2472.126393
978.226606	2469.149592
978.524204	2470.561115
978.821765	2467.652369
979.119290	2474.367186
979.416777	2475.256950
979.714228	2472.769141
980.011642	2475.647639
980.309020	2470.878708
980.606360	2474.709985
980.903664	2475.443473
981.200931	2473.701754
981.498162	2476.791981
981.795356	2478.773155
982.092513	2480.865234
982.389633	2483.844556
982.686717	2487.529639
982.983764	2491.572644
983.280775	2491.353354
983.577749	2491.018118
983.874686	2492.580875
984.171587	2489.236070
984.468451	2491.469301
984.765279	2483.221973
985.062070	2486.438229
985.358824	2486.425626
985.655543	2482.722899
985.952224	2483.279946
986.248869	2477.913638
986.545478	2476.305510
986.842050	2477.356591
987.138586	2476.764255
987.435086	2476.373566
987.731549	2472.575056
988.027975	2473.986579
988.324366	2471.423153
988.620719	2470.422483
988.917037	2468.259828
989.213318	2473.124542
989.509563	2471.087916
989.805772	2469.638584
990.101944	2469.671352
990.398080	2469.918368
990.694180	2469.777216
990.990244	2472.300313
991.286271	2470.273769
991.582262	2472.539768
991.878217	2469.840230
992.174136	2469.605817
992.470019	2466.971814
992.765865	2469.457103
993.061676	2464.393263
993.357450	2467.690178
993.653188	2467.730507
993.948890	2472.053297
994.244556	2470.162864
994.540186	2469.938533
994.835780	2476.174440
995.131337	2473.779892
995.426859	2474.021867
995.722345	2477.139821
996.017795	2478.604276
996.313208	2478.576550
996.608586	2482.349853
996.903928	2480.076293
997.199234	2481.107209
997.494504	2483.259782
997.789738	2477.906076
998.084936	2481.124853
998.380099	2475.851806
998.675225	2475.118318
998.970316	2474.810808
999.265371	2476.245016
999.560390	2475.635037
999.855373	2472.043214
1000.150320	2472.638071
1000.445232	2469.941053
1000.740108	2470.414922
1001.034948	2473.578246
1001.329752	2470.737556
1001.624521	2470.641774
1001.919254	2468.123717
1002.213951	2469.547843
1002.508613	2466.218161
1002.803239	2471.166054
1003.097829	2465.797225
1003.392384	2466.792853
1003.686903	2468.844602
1003.981386	2468.665641
1004.275834	2467.884263
1004.570246	2467.501135
1004.864623	2468.504324
1005.158964	2468.128758
1005.453270	2470.057000
1005.747540	2465.976186
1006.041775	2464.269755
1006.335974	2468.587503
1006.630138	2465.348562
1006.924266	2467.581793
1007.218359	2467.065075
1007.512416	2465.787143
1007.806438	2459.589044
1008.100425	2463.863942
1008.394376	2463.294292
1008.688292	2465.623305
1008.982172	2467.677575
1009.276017	2465.630867
1009.569827	2463.299333
1009.863602	2463.490897
1010.157341	2466.150106
1010.451045	2465.048613
1010.744714	2463.533747
1011.038347	2464.985599
1011.331945	2467.463326
1011.625508	2465.121710
1011.919036	2465.567852
1012.212528	2466.936526
1012.505986	2464.804118
1012.799408	2467.067596
1013.092795	2463.755558
1013.386147	2467.493573
1013.679464	2463.808490
1013.972745	2465.749334
1014.265992	2463.669858
1014.559204	2465.330918
1014.852380	2466.351752
1015.145521	2466.117338
1015.438628	2467.939715
1015.731699	2463.165742
1016.024736	2464.357975
1016.317737	2466.886114
1016.610703	2464.625157
1016.903635	2468.395940
1017.196531	2465.676237
1017.489393	2466.797894
1017.782219	2465.734210
1018.075011	2465.214972
1018.367768	2468.166567
1018.660490	2466.518110
1018.953177	2466.518110
1019.245829	2466.518110
