Dividing Wavelength (nm)	Counts (n)	Blue Motor Position (mm): 0.000000	Red Motor Position (mm): 14.000000	
326.493990	2052.488144
326.888308	2052.488144
327.282561	2052.488144
327.676750	2030.564166
328.070874	2030.034845
328.464933	2035.633047
328.858929	2043.270395
329.252859	2053.294729
329.646726	2067.646894
330.040528	2086.251272
330.434265	2100.351380
330.827938	2120.818464
331.221547	2140.385703
331.615091	2160.570483
332.008571	2181.811385
332.401986	2205.149406
332.795338	2222.536346
333.188625	2241.738101
333.581847	2258.774680
333.975006	2278.430139
334.368100	2297.377316
334.761129	2311.338792
335.154095	2329.224805
335.546996	2346.823473
335.939833	2358.743282
336.332606	2372.503111
336.725315	2382.633310
337.117960	2395.881462
337.510540	2401.824983
337.903056	2411.385531
338.295508	2418.435584
338.687896	2425.631832
339.080220	2432.399581
339.472480	2437.415529
339.864676	2438.257401
340.256807	2442.915428
340.648875	2445.035233
341.040879	2445.796447
341.432818	2448.458176
341.824694	2449.907508
342.216506	2450.159566
342.608253	2447.215532
342.999937	2449.274843
343.391557	2446.345933
343.783113	2446.179575
344.174605	2441.932402
344.566033	2441.307299
344.957397	2440.972063
345.348697	2438.902669
345.739934	2436.389654
346.131106	2435.883018
346.522215	2431.961000
346.913260	2432.477718
347.304241	2431.840013
347.695159	2427.645773
348.086012	2426.876997
348.476802	2425.669640
348.867528	2423.479259
349.258191	2417.029103
349.648789	2419.892478
350.039324	2414.296797
350.429796	2419.721079
350.820203	2419.307704
351.210548	2419.690832
351.600828	2419.650502
351.991045	2416.126736
352.381198	2414.997517
352.771288	2418.526325
353.161314	2415.854514
353.551276	2417.772673
353.941175	2417.283681
354.331010	2417.245872
354.720782	2416.156983
355.110490	2418.937179
355.500135	2417.036664
355.889717	2419.058167
356.279235	2418.412899
356.668689	2418.644792
357.058080	2417.066911
357.447408	2419.610173
357.836672	2419.005235
358.225873	2419.224525
358.615010	2422.367684
359.004084	2422.561769
359.393095	2423.519588
359.782043	2421.533373
360.170927	2423.433888
360.559748	2424.321132
360.948505	2424.432037
361.337199	2421.941707
361.725830	2427.754157
362.114398	2426.219126
362.502903	2426.526636
362.891344	2424.537901
363.279722	2427.030752
363.668037	2428.732141
364.056289	2428.331369
364.444478	2429.193407
364.832603	2429.795825
365.220665	2426.619898
365.608665	2428.999322
365.996601	2428.754826
366.384474	2428.729621
366.772284	2429.896648
367.160031	2426.614857
367.547715	2436.220775
367.935336	2431.983685
368.322893	2430.705753
368.710388	2430.304981
369.097820	2433.339756
369.485189	2430.582245
369.872495	2434.453851
370.259738	2434.080805
370.646918	2434.259766
371.034035	2434.612647
371.421090	2438.290169
371.808081	2435.139448
372.195010	2440.233534
372.581875	2441.493822
372.968678	2440.528441
373.355418	2438.900148
373.742096	2442.935592
374.128710	2445.304934
374.515262	2448.304421
374.901751	2452.014710
375.288177	2456.115689
375.674540	2458.260700
376.060841	2461.706328
376.447079	2467.211268
376.833254	2472.925416
377.219367	2475.592187
377.605417	2481.603763
377.991404	2486.662561
378.377329	2495.164467
378.763191	2502.393481
379.148991	2509.378000
379.534727	2516.057529
379.920402	2524.710669
380.306013	2534.735004
380.691563	2549.805533
381.077049	2560.086966
381.462474	2569.486198
381.847835	2582.036150
382.233134	2597.872935
382.618371	2607.665376
383.003545	2625.122892
383.388657	2639.941364
383.773706	2656.650268
384.158693	2673.016374
384.543618	2689.352233
384.928480	2700.979655
385.313280	2725.162070
385.698017	2744.915831
386.082692	2768.183277
386.467305	2782.379166
386.851856	2809.261119
387.236344	2836.470747
387.620770	2849.602952
388.005133	2869.165150
388.389435	2904.753175
388.773674	2918.359250
389.157851	2951.386369
389.541965	2980.670432
389.926018	2990.293994
390.310008	3023.031248
390.693936	3047.385062
391.077802	3077.405133
391.461606	3108.143568
391.845348	3126.059829
392.229027	3154.496978
392.612645	3194.783359
392.996200	3222.303018
393.379694	3261.044285
393.763125	3299.067188
394.146494	3326.823781
394.529801	3364.163608
394.913047	3409.549116
395.296230	3414.887698
395.679351	3436.468877
396.062410	3486.063749
396.445408	3464.986685
396.828343	3503.732993
397.211217	3537.039897
397.594028	3507.055113
397.976778	3551.954150
398.359466	3577.356524
398.742092	3588.046291
399.124656	3596.066767
399.507158	3656.590860
399.889598	3650.609531
400.271977	3707.877039
400.654294	3691.926828
401.036549	3741.703181
401.418742	3732.593816
401.800874	3789.609266
402.182944	3805.660300
402.564952	3874.693861
402.946898	3856.369266
403.328783	3840.466947
403.710606	3874.958521
404.092367	3924.618928
404.474067	3962.130153
404.855705	3934.897840
405.237282	3890.550810
405.618797	3959.004638
406.000250	4007.576155
406.381642	4055.958629
406.762972	4031.191441
407.144240	3984.573370
407.525447	4015.493287
407.906593	4008.027339
408.287677	4045.241136
408.668700	4041.263666
409.049661	4042.685271
409.430560	4043.620405
409.811399	4001.083149
410.192176	4009.708563
410.572891	4036.552708
410.953545	4076.685333
411.334138	3975.277483
411.714669	4015.876415
412.095139	3927.237807
412.475547	3965.137202
412.855894	3936.445475
413.236180	3957.825008
413.616405	3880.302144
413.996568	3906.243922
414.376670	3866.045761
414.756711	3832.423786
415.136691	3830.805575
415.516609	3835.587110
415.896466	3817.973318
416.276262	3814.908297
416.655997	3826.823064
417.035670	3834.780525
417.415283	3854.133515
417.794834	3839.486442
418.174324	3779.078296
418.553753	3734.822006
418.933121	3757.529883
419.312428	3717.331723
419.691674	3641.779950
420.070859	3678.613141
420.449983	3591.537290
420.829045	3614.358594
421.208047	3547.366700
421.586988	3551.228224
421.965867	3525.215870
422.344686	3508.869929
422.723444	3508.118797
423.102141	3365.834750
423.480777	3417.889705
423.859352	3334.960203
424.237866	3377.852861
424.616319	3330.516426
424.994712	3325.681960
425.373044	3267.373454
425.751314	3285.118315
426.129524	3192.784542
426.507673	3198.609595
426.885762	3166.084070
427.263789	3139.239926
427.641756	3113.807305
428.019662	3090.557503
428.397508	3061.016342
428.775292	3023.847914
429.153016	3012.570853
429.530679	2968.952270
429.908282	2948.338992
430.285824	2914.412026
430.663305	2907.049421
431.040726	2874.907024
431.418086	2848.720750
431.795385	2830.509582
432.172624	2819.164465
432.549802	2789.104065
432.926920	2771.656632
433.303977	2750.229207
433.680974	2732.691033
434.057910	2725.562841
434.434786	2710.167157
434.811601	2689.553879
435.188355	2685.621779
435.565050	2669.424552
435.941683	2651.878816
436.318257	2650.542910
436.694770	2635.061527
437.071222	2624.177676
437.447614	2611.443721
437.823946	2601.111876
438.200218	2592.345310
438.576429	2576.858885
438.952580	2578.366190
439.328670	2569.791187
439.704700	2562.116031
440.080670	2553.697304
440.456580	2551.577499
440.832429	2544.547610
441.208218	2539.987886
441.583947	2533.474715
441.959616	2534.215765
442.335224	2528.599919
442.710773	2526.515402
443.086261	2524.115813
443.461689	2521.312932
443.837057	2520.536594
444.212365	2517.766480
444.587612	2513.269771
444.962800	2509.534276
445.337927	2511.538134
445.712995	2504.878770
446.088002	2516.133146
446.462949	2508.672238
446.837837	2512.886643
447.212664	2509.441014
447.587431	2512.027126
447.962139	2520.075328
448.336786	2520.518950
448.711374	2521.282685
449.085901	2511.467558
449.460369	2509.685510
449.834776	2508.175685
450.209124	2512.891684
450.583412	2509.531755
450.957640	2512.483351
451.331808	2510.436642
451.705917	2503.953718
452.079965	2504.752741
452.453954	2504.861126
452.827883	2508.137876
453.201752	2505.274501
453.575562	2503.862978
453.949311	2503.646208
454.323001	2504.868688
454.696632	2506.081085
455.070202	2506.101250
455.443713	2506.973369
455.817164	2506.469254
456.190556	2507.873215
456.563888	2506.373472
456.937160	2507.721981
457.310373	2505.743328
457.683526	2502.736280
458.056619	2502.741321
458.429653	2507.442197
458.802628	2504.367093
459.175542	2501.120590
459.548398	2505.337515
459.921194	2506.877588
460.293930	2510.295490
460.666607	2512.506036
461.039224	2514.840090
461.411782	2516.934689
461.784280	2513.826818
462.156719	2515.046777
462.529099	2513.219359
462.901419	2511.533093
463.273680	2507.011178
463.645882	2507.512773
464.018024	2507.313647
464.390106	2505.229130
464.762130	2513.519308
465.134094	2518.915863
465.505999	2529.270393
465.877845	2533.953625
466.249631	2539.728267
466.621358	2536.945550
466.993026	2531.080167
467.364634	2533.520086
467.736184	2529.214940
468.107674	2524.342665
468.479105	2523.117665
468.850477	2521.973323
469.221790	2522.222860
469.593043	2518.368898
469.964238	2520.405524
470.335373	2518.358815
470.706449	2520.758405
471.077467	2518.988960
471.448425	2526.434744
471.819324	2535.796167
472.190164	2534.893800
472.560945	2527.203520
472.931667	2524.340144
473.302330	2522.807634
473.672934	2520.738240
474.043479	2520.095493
474.413965	2518.613394
474.784393	2518.729340
475.154761	2520.723117
475.525070	2521.950637
475.895321	2521.537263
476.265513	2520.403003
476.635645	2525.025741
477.005719	2523.629342
477.375734	2521.708662
477.745691	2524.156142
478.115588	2527.805938
478.485427	2530.757533
478.855207	2534.455220
479.224928	2539.269522
479.594591	2541.780016
479.964194	2542.556354
480.333739	2541.225489
480.703226	2543.778834
481.072653	2543.703216
481.442022	2544.887888
481.811333	2546.077600
482.180584	2540.302958
482.549777	2541.643905
482.918912	2537.643749
483.287988	2542.241282
483.657005	2541.689275
484.025964	2539.345139
484.394864	2544.247661
484.763706	2541.457382
485.132489	2539.566950
485.501213	2540.267670
485.869879	2540.108874
486.238487	2541.480068
486.607036	2539.642567
486.975527	2539.990407
487.343959	2539.738349
487.712333	2540.451672
488.080648	2542.299255
488.448905	2543.045346
488.817104	2543.012578
489.185244	2544.111550
489.553326	2547.186654
489.921350	2552.552962
490.289315	2555.691080
490.657222	2558.156204
491.025070	2559.358520
491.392861	2558.201575
491.760593	2554.443395
492.128267	2554.289639
492.495883	2553.193188
492.863440	2549.165307
493.230939	2548.504915
493.598380	2548.421736
493.965763	2545.512991
494.333088	2545.381921
494.700354	2545.273536
495.067563	2544.640871
495.434713	2545.921324
495.801805	2545.603731
496.168839	2542.420243
496.535815	2545.394523
496.902733	2542.813453
497.269593	2544.373690
497.636395	2543.763710
498.003139	2544.540048
498.369825	2544.804708
498.736453	2544.396375
499.103023	2542.939482
499.469535	2543.030222
499.835989	2544.575336
500.202385	2542.468134
500.568723	2539.604758
500.935003	2542.798329
501.301226	2536.675848
501.667390	2547.499205
502.033497	2547.413506
502.399546	2545.351674
502.765537	2544.272867
503.131470	2545.233207
503.497345	2546.765717
503.863163	2540.431507
504.228923	2544.943340
504.594625	2544.373690
504.960269	2547.292518
505.325856	2545.039122
505.691385	2544.388813
506.056856	2542.876467
506.422270	2547.821839
506.787625	2547.665563
507.152924	2543.824204
507.518164	2545.918803
507.883347	2544.096426
508.248472	2544.988711
508.613540	2545.855789
508.978550	2545.507949
509.343503	2546.765717
509.708398	2547.809236
510.073236	2546.012065
510.438016	2547.537014
510.802738	2547.017775
511.167403	2549.555996
511.532010	2546.485933
511.896561	2547.325285
512.261053	2550.791079
512.625488	2547.484082
512.989866	2547.592467
513.354186	2547.632796
513.718449	2545.681869
514.082655	2550.047508
514.446803	2547.002652
514.810894	2549.422405
515.174927	2548.716644
515.538904	2546.637168
515.902822	2544.598021
516.266684	2546.251520
516.630488	2546.138094
516.994235	2545.878474
517.357925	2547.226983
517.721558	2547.781510
518.085133	2546.584236
518.448651	2547.330327
518.812112	2541.714481
519.175516	2545.767569
519.538863	2542.538710
519.902152	2548.918290
520.265385	2548.338557
520.628560	2548.000800
520.991678	2548.056253
521.354739	2547.645399
521.717743	2544.908052
522.080690	2544.855120
522.443580	2548.086500
522.806413	2546.478372
523.169189	2544.411498
523.531908	2545.371838
523.894569	2546.261602
524.257174	2547.345450
524.619722	2545.626417
524.982213	2544.194729
525.344647	2542.589121
525.707025	2545.152548
526.069345	2544.708927
526.431608	2546.551468
526.793815	2544.721529
527.155964	2545.641540
527.518057	2543.486447
527.880093	2542.516025
528.242072	2540.620551
528.603995	2542.412681
528.965860	2542.949564
529.327669	2544.368649
529.689421	2542.392516
530.051117	2543.756148
530.412755	2542.069883
530.774337	2542.977290
531.135862	2542.183308
531.497331	2544.388813
531.858743	2542.500901
532.220098	2545.102137
532.581396	2541.444779
532.942638	2542.354708
533.303824	2542.730274
533.664953	2540.267670
534.026025	2541.422094
534.387040	2540.796991
534.747999	2537.421939
535.108902	2543.715819
535.469748	2539.546785
535.830537	2545.094575
536.191270	2538.029398
536.551947	2537.631147
536.912567	2538.372196
537.273131	2538.727598
537.633638	2536.910262
537.994089	2543.332692
538.354483	2537.938657
538.714821	2542.667259
539.075103	2540.993596
539.435328	2539.723225
539.795497	2539.377906
540.155609	2540.580222
540.515665	2539.642567
540.875665	2538.654501
541.235609	2539.231713
541.595496	2539.423277
541.955328	2540.660880
542.315102	2539.851775
542.674821	2539.075437
543.034483	2539.471168
543.394090	2537.358924
543.753640	2538.780530
544.113134	2539.239275
544.472571	2538.437731
544.831953	2536.080992
545.191278	2538.445293
545.550548	2539.869419
545.909761	2538.397402
546.268918	2538.878832
546.628019	2539.934954
546.987064	2538.543595
547.346053	2537.237937
547.704986	2535.657535
548.063863	2538.533513
548.422684	2541.038967
548.781449	2539.019984
549.140158	2535.188708
549.498811	2539.362783
549.857408	2535.034952
550.215949	2540.676003
550.574434	2534.324150
550.932864	2538.992258
551.291237	2537.794984
551.649555	2538.702392
552.007817	2537.348842
552.366022	2536.864891
552.724173	2537.623585
553.082267	2538.218441
553.440305	2538.735159
553.798288	2538.490663
554.156215	2537.605941
554.514086	2536.264994
554.871902	2534.072092
555.229661	2534.397246
555.587365	2532.264838
555.945014	2536.819521
556.302606	2536.693492
556.660143	2538.009233
557.017625	2536.766589
557.375050	2537.593338
557.732421	2537.744573
558.089735	2536.862371
558.446994	2540.532331
558.804197	2537.348842
559.161345	2537.794984
559.518437	2538.949408
559.875474	2534.697195
560.232455	2540.275232
560.589381	2538.523431
560.946251	2538.530992
561.303065	2538.296579
561.659825	2535.095446
562.016528	2536.882535
562.373177	2536.406146
562.729770	2535.939839
563.086307	2534.114942
563.442789	2535.859181
563.799216	2539.375386
564.155587	2536.116280
564.511904	2538.052083
564.868164	2534.770292
565.224370	2536.801877
565.580520	2536.857329
565.936615	2537.384130
566.292654	2536.239788
566.648638	2538.258770
567.004567	2536.980838
567.360441	2536.209541
567.716260	2535.952442
568.072023	2538.488143
568.427732	2534.513193
568.783385	2536.978317
569.138982	2535.632329
569.494525	2537.348842
569.850013	2536.844727
570.205445	2535.639891
570.560823	2536.575025
570.916145	2534.349355
571.271412	2534.417411
571.626625	2537.069058
571.981782	2538.266332
572.336884	2533.507483
572.691931	2532.799201
573.046923	2534.354397
573.401860	2532.005219
573.756743	2538.283976
574.111570	2534.513193
574.466342	2534.782895
574.821059	2533.935981
575.175722	2534.727442
575.530330	2533.857843
575.884882	2530.487832
576.239380	2534.850950
576.593823	2536.554860
576.948211	2533.701567
577.302544	2532.214427
577.656823	2534.835827
578.011047	2531.816176
578.365216	2535.783564
578.719330	2533.073943
579.073389	2535.329860
579.427394	2533.814993
579.781344	2529.726617
580.135239	2534.034283
580.489080	2530.205527
580.842866	2531.657379
581.196597	2532.388347
581.550273	2532.751310
581.903895	2530.858356
582.257463	2533.033614
582.610975	2531.927081
582.964434	2531.584282
583.317837	2533.363810
583.671186	2531.107893
584.024481	2532.627801
584.377721	2527.463139
584.730906	2529.809796
585.084037	2532.710980
585.437113	2530.800383
585.790135	2529.071267
586.143103	2530.452543
586.496016	2530.500434
586.848874	2532.055630
587.201679	2529.043541
587.554428	2532.292565
587.907124	2530.523120
588.259765	2528.184024
588.612352	2528.400794
588.964884	2529.966072
589.317362	2531.168387
589.669786	2530.737369
590.022155	2528.466329
590.374470	2526.018849
590.726731	2526.858201
591.078937	2524.042716
591.431090	2528.902389
591.783188	2528.178983
592.135232	2526.059178
592.487222	2526.210412
592.839157	2527.047244
593.191038	2525.728982
593.542866	2528.247039
593.894639	2523.248735
594.246358	2530.172759
594.598022	2529.903058
594.949633	2527.934487
595.301190	2529.416586
595.652692	2525.078673
596.004141	2527.616894
596.355535	2524.917357
596.706876	2527.798376
597.058162	2525.950793
597.409395	2526.880886
597.760573	2526.028931
598.111698	2525.887779
598.462768	2527.143026
598.813785	2525.650844
599.164748	2527.337110
599.515657	2524.977850
599.866511	2528.788963
600.217312	2525.023221
600.568060	2523.795700
600.918753	2527.485824
601.269392	2528.148736
601.619978	2523.911646
601.970510	2525.993643
602.320988	2524.314939
602.671412	2525.161852
603.021783	2526.268386
603.372100	2526.238139
603.722363	2524.599764
604.072572	2525.277799
604.422728	2523.982222
604.772830	2521.633045
605.122878	2525.061029
605.472872	2523.606657
605.822813	2522.031296
606.172701	2526.470032
606.522534	2523.969620
606.872314	2523.583971
607.222041	2521.814526
607.571714	2522.711852
607.921333	2519.059536
608.270899	2522.399300
608.620411	2517.721109
608.969870	2525.950793
609.319276	2525.557583
609.668627	2523.662109
610.017926	2524.314939
610.367171	2523.979702
610.716362	2525.282840
611.065500	2524.506502
611.414585	2526.270906
611.763616	2526.180166
612.112594	2525.665968
612.461518	2525.973478
612.810389	2525.698735
613.159207	2525.827285
613.507971	2527.805938
613.856682	2526.507841
614.205340	2524.478776
614.553945	2529.257790
614.902496	2525.887779
615.250994	2526.059178
615.599439	2524.899713
615.947830	2528.693181
616.296169	2525.487007
616.644454	2525.285361
616.992686	2527.344672
617.340864	2526.104548
617.688990	2525.076153
618.037063	2524.614887
618.385082	2524.612367
618.733048	2528.163860
619.080961	2527.803417
619.428821	2526.137316
619.776628	2529.560259
620.124382	2526.031452
620.472083	2527.208561
620.819731	2529.479601
621.167326	2524.088087
621.514868	2528.589837
621.862357	2525.343334
622.209793	2528.985568
622.557176	2526.762419
622.904506	2526.623787
623.251783	2524.219157
623.599007	2525.141688
623.946179	2524.007428
624.293297	2525.247552
624.640363	2522.989115
624.987376	2522.222860
625.334336	2519.490554
625.681243	2520.221522
626.028097	2517.557272
626.374899	2522.308559
626.721647	2520.019876
627.068343	2520.513909
627.414987	2518.636079
627.761577	2519.767818
628.108115	2522.500123
628.454600	2519.130112
628.801032	2522.485000
629.147412	2520.879392
629.493739	2520.453415
629.840014	2516.717920
630.186236	2517.469052
630.532405	2520.556758
630.878521	2517.776562
631.224585	2518.779752
631.570597	2518.298322
631.916556	2516.201202
632.262462	2518.782272
632.608316	2517.884947
632.954117	2518.943589
633.299866	2517.879906
633.645562	2520.302180
633.991206	2520.435771
634.336797	2514.673732
634.682336	2516.228928
635.027823	2515.205574
635.373257	2516.785975
635.718639	2517.945441
636.063968	2517.340502
636.409245	2517.159021
636.754470	2516.375121
637.099642	2513.713392
637.444762	2514.078876
637.789829	2513.547034
638.134845	2515.886129
638.479808	2511.961591
638.824719	2514.139370
639.169577	2514.169617
639.514383	2516.052488
639.859137	2511.465038
640.203839	2513.055522
640.548489	2513.035357
640.893086	2513.126098
641.237632	2512.316993
641.582125	2514.769514
641.926566	2511.124760
642.270955	2509.032681
642.615292	2508.354646
642.959576	2508.175685
643.303809	2509.125942
643.647990	2514.640964
643.992118	2512.556447
644.336195	2511.883453
644.680219	2509.332629
645.024192	2512.516118
645.368112	2511.976715
645.711981	2511.633916
646.055797	2515.339164
646.399562	2515.649195
646.743274	2512.569050
647.086935	2514.484689
647.430544	2514.646006
647.774101	2512.823628
648.117606	2516.460821
648.461059	2514.635923
648.804460	2513.889833
649.147810	2516.407889
649.491108	2514.431757
649.834354	2514.761952
650.177548	2512.982425
650.520690	2513.892353
650.863781	2511.570902
651.206820	2509.834224
651.549807	2512.707682
651.892742	2513.141221
652.235626	2511.578463
652.578458	2509.899759
652.921238	2510.708864
653.263967	2511.671725
653.606644	2511.785151
653.949269	2509.619975
654.291843	2510.008144
654.634365	2509.448576
654.976836	2506.940602
655.319255	2509.866992
655.661622	2506.093688
656.003938	2510.731550
656.346203	2507.825324
656.688416	2508.127794
657.030577	2507.633761
657.372687	2507.757269
657.714746	2508.677279
658.056753	2508.034532
658.398708	2509.930006
658.740612	2506.958246
659.082465	2510.761797
659.424266	2506.247443
659.766016	2503.900786
660.107715	2505.715602
660.449362	2501.382730
660.790958	2509.791374
661.132503	2506.859943
661.473996	2507.001096
661.815438	2508.115191
662.156829	2512.029647
662.498168	2507.880777
662.839456	2507.137207
663.180693	2508.016888
663.521879	2507.621158
663.863013	2509.113339
664.204097	2508.410098
664.545129	2508.193329
664.886110	2511.475120
665.227040	2507.273318
665.567918	2511.943947
665.908746	2510.050994
666.249522	2507.787516
666.590248	2506.945643
666.930922	2507.487567
667.271545	2508.208452
667.612118	2510.696262
667.952639	2511.291118
668.293109	2507.588390
668.633528	2507.716940
668.973896	2510.789523
669.314213	2507.931189
669.654480	2506.892711
669.994695	2510.784482
670.334859	2510.595438
670.674973	2506.965808
671.015035	2508.647033
671.355047	2508.337002
671.695008	2508.311796
672.034918	2506.746518
672.374777	2507.069151
672.714585	2509.771210
673.054342	2509.400685
673.394049	2508.788185
673.733705	2509.168792
674.073310	2511.545696
674.412864	2506.580159
674.752368	2507.180057
675.091820	2508.342043
675.431223	2508.198370
675.770574	2507.646363
676.109875	2508.982269
676.449125	2505.506394
676.788324	2500.311485
677.127473	2505.153513
677.466571	2502.045642
677.805619	2506.943122
678.144616	2507.699296
678.483562	2507.137207
678.822458	2504.046980
679.161303	2507.268277
679.500098	2505.569408
679.838842	2505.405571
680.177535	2501.831393
680.516179	2506.050838
680.854771	2503.048831
681.193314	2507.568226
681.531805	2506.368431
681.870247	2509.153668
682.208638	2508.097547
682.546978	2508.510921
682.885268	2509.330109
683.223508	2506.948164
683.561697	2509.133504
683.899836	2509.597290
684.237925	2509.244409
684.575963	2507.487567
684.913951	2505.849192
685.251889	2508.818432
685.589776	2507.061590
685.927614	2509.284738
686.265401	2508.556292
686.603137	2507.699296
686.940824	2507.117042
687.278460	2509.771210
687.616046	2508.752897
687.953582	2507.870695
688.291068	2508.314316
688.628504	2510.539986
688.965889	2511.986797
689.303224	2510.529903
689.640510	2510.993690
689.977745	2509.294821
690.314930	2508.266425
690.652065	2507.540499
690.989150	2511.323885
691.326185	2504.233502
691.663170	2506.126456
692.000105	2504.246105
692.336990	2503.005981
692.673825	2504.593945
693.010610	2505.193842
693.347345	2498.413490
693.684030	2495.446771
694.020665	2497.899292
694.357251	2496.490290
694.693786	2500.250991
695.030272	2497.629591
695.366707	2500.324088
695.703093	2499.666217
696.039429	2498.605054
696.375716	2500.490446
696.711952	2499.648573
697.048139	2498.572287
697.384276	2498.012718
697.720363	2497.614467
698.056400	2500.477843
698.392388	2498.811741
698.728326	2495.290495
699.064214	2500.646721
699.400053	2499.414159
699.735842	2499.048676
700.071581	2498.133706
700.407270	2494.252018
700.742910	2498.163953
701.078501	2496.245794
701.414042	2498.073212
701.749533	2494.501555
702.084974	2492.356544
702.420366	2495.766884
702.755709	2496.896103
703.091002	2493.959631
703.426246	2495.000629
703.761440	2495.839981
704.096584	2497.616988
704.431679	2491.547439
704.766725	2492.863180
705.101721	2493.962151
705.436668	2492.643890
705.771565	2495.782008
706.106413	2497.327122
706.441212	2497.339724
706.775961	2497.601864
707.110661	2495.867708
707.445311	2495.827378
707.779913	2495.345948
708.114465	2494.007522
708.448967	2496.765033
708.783421	2495.668582
709.117825	2495.887872
709.452180	2496.311329
709.786485	2496.205465
710.120742	2496.838130
710.454949	2495.350989
710.789107	2497.332163
711.123216	2495.414004
711.457275	2498.332832
711.791286	2499.172184
712.125247	2499.058758
712.459159	2500.059427
712.793023	2501.846516
713.126837	2499.469612
713.460602	2502.643018
713.794318	2500.883656
714.127985	2499.162102
714.461602	2497.420383
714.795171	2501.450785
715.128691	2497.294354
715.462162	2498.889879
715.795584	2496.555825
716.128957	2500.860970
716.462281	2494.786380
716.795556	2496.933912
717.128782	2495.943325
717.461960	2497.606906
717.795088	2491.739002
718.128167	2495.625732
718.461198	2491.965854
718.794180	2494.108345
719.127113	2493.652120
719.459997	2493.672285
719.792833	2492.772439
720.125619	2493.130361
720.458357	2490.942500
720.791046	2493.805876
721.123686	2489.790597
721.456278	2491.323107
721.788821	2492.280927
722.121315	2493.059785
722.453761	2490.584578
722.786158	2491.708756
723.118506	2492.774960
723.450805	2491.582727
723.783056	2489.664568
724.115259	2490.143477
724.447412	2492.051554
724.779518	2493.639518
725.111574	2489.924187
725.443582	2491.675988
725.775542	2491.943169
726.107453	2496.626401
726.439315	2492.832933
726.771129	2497.349807
727.102895	2491.766729
727.434612	2492.984168
727.766281	2488.008549
728.097901	2495.945845
728.429473	2495.328304
728.760996	2494.632625
729.092471	2495.797131
729.423897	2494.224291
729.755276	2496.815444
730.086606	2494.304950
730.417887	2497.022132
730.749120	2495.391318
731.080305	2497.284272
731.411442	2497.296875
731.742530	2497.800990
732.073570	2498.352996
732.404562	2498.337873
732.735506	2497.233860
733.066401	2497.813593
733.397249	2498.005157
733.728048	2497.475836
734.058798	2494.693119
734.389501	2494.856956
734.720156	2493.914260
735.050762	2492.996770
735.381320	2493.742861
735.711831	2491.313025
736.042293	2490.647593
736.372707	2489.450319
736.703073	2492.346462
737.033391	2490.632469
737.363661	2493.052223
737.693883	2492.800165
738.024056	2493.528612
738.354182	2488.515185
738.684260	2491.416369
739.014290	2491.222284
739.344272	2492.447285
739.674207	2491.975937
740.004093	2495.726555
740.333931	2494.952738
740.663722	2493.117758
740.993464	2493.687408
741.323159	2490.733292
741.652806	2493.700011
741.982405	2494.113386
742.311956	2493.090032
742.641460	2492.502737
742.970915	2491.156749
743.300323	2490.294712
743.629683	2487.791779
743.958996	2489.432675
744.288260	2486.004690
744.617477	2488.305977
744.946647	2489.518374
745.275768	2490.619866
745.604842	2489.084835
745.933869	2490.665237
746.262847	2486.748260
746.591778	2490.203971
746.920662	2488.016110
747.249498	2490.403097
747.578286	2490.496358
747.907027	2491.078611
748.235720	2488.230359
748.564365	2490.330000
748.892963	2489.465442
749.221514	2489.838487
749.550017	2490.019969
749.878473	2491.542397
750.206881	2487.403610
750.535242	2490.004846
750.863555	2487.917808
751.191821	2491.192037
751.520039	2489.533498
751.848210	2490.027531
752.176334	2489.296563
752.504411	2489.530977
752.832440	2490.261944
753.160421	2489.626759
753.488356	2487.471666
753.816243	2491.025679
754.144082	2485.729947
754.471875	2487.668271
754.799620	2487.012921
755.127318	2489.314208
755.454969	2488.212715
755.782572	2489.382263
756.110129	2485.072077
756.437638	2490.284630
756.765100	2488.648775
757.092515	2487.360760
757.419882	2489.115082
757.747203	2488.182468
758.074477	2489.402428
758.401703	2486.879330
758.728882	2490.428302
759.056014	2487.625421
759.383099	2487.869917
759.710138	2489.662047
760.037129	2487.640544
760.364073	2487.227170
760.690970	2486.576861
761.017820	2488.996615
761.344623	2489.936790
761.671379	2489.982160
761.998088	2493.606750
762.324751	2492.366626
762.651366	2496.722183
762.977935	2504.818276
763.304456	2508.435304
763.630931	2510.277846
763.957359	2509.740963
764.283740	2507.883298
764.610074	2503.557988
764.936362	2504.140241
765.262602	2497.624550
765.588796	2495.141781
765.914943	2492.732110
766.241044	2486.909577
766.567097	2488.230359
766.893104	2489.609115
767.219064	2484.280615
767.544978	2489.929228
767.870845	2485.072077
768.196665	2486.397900
768.522438	2485.336737
768.848165	2484.898157
769.173846	2485.321614
769.499479	2487.668271
769.825066	2486.075266
770.150607	2488.479897
770.476101	2483.426140
770.801548	2485.929073
771.126949	2481.782724
771.452303	2481.278608
771.777611	2482.914463
772.102872	2483.726088
772.428087	2484.452015
772.753256	2482.387662
773.078378	2484.144504
773.403453	2482.180975
773.728482	2482.884216
774.053465	2482.357415
774.378401	2481.318937
774.703291	2480.766931
775.028135	2479.365490
775.352932	2483.035450
775.677683	2478.972280
776.002388	2478.793319
776.327046	2476.938175
776.651658	2479.045377
776.976224	2475.461117
777.300743	2478.803402
777.625216	2479.594863
777.949643	2477.696868
778.274024	2484.449494
778.598359	2482.238948
778.922647	2479.809112
779.246889	2482.206181
779.571086	2480.421612
779.895236	2483.249699
780.219339	2481.165182
780.543397	2478.808443
780.867409	2479.720892
781.191374	2477.613689
781.515294	2478.750470
781.839167	2481.331540
782.162995	2479.226859
782.486776	2480.779534
782.810511	2479.113433
783.134201	2482.992601
783.457844	2481.666777
783.781441	2481.515543
784.104993	2479.400778
784.428498	2479.431025
784.751958	2480.232569
785.075372	2479.554534
785.398739	2478.387507
785.722061	2477.427167
786.045337	2479.592342
786.368568	2480.519915
786.691752	2478.390027
787.014891	2480.834987
787.337983	2482.256592
787.661030	2484.053763
787.984031	2484.527632
788.306987	2484.076449
788.629897	2481.954123
788.952760	2487.358240
789.275579	2484.905718
789.598351	2484.222642
789.921078	2483.035450
790.243759	2480.484627
790.566395	2482.551500
790.888984	2481.782724
791.211529	2483.032930
791.534027	2482.861531
791.856480	2480.477065
792.178888	2477.215438
792.501249	2475.161168
792.823566	2479.534369
793.145836	2475.647639
793.468062	2480.837507
793.790241	2477.908597
794.112375	2480.033443
794.434464	2480.093937
794.756507	2477.265850
795.078505	2480.885398
795.400457	2482.727940
795.722364	2480.109061
796.044226	2481.576036
796.366042	2482.427991
796.687812	2482.591829
797.009538	2481.329020
797.331218	2481.553351
797.652852	2479.932620
797.974442	2482.715337
798.295986	2482.281798
798.617484	2480.214925
798.938938	2480.812302
799.260346	2480.852631
799.581709	2478.843731
799.903026	2484.134422
800.224299	2481.210553
800.545526	2479.793988
800.866708	2477.260809
801.187845	2479.662918
801.508936	2479.836838
801.829983	2479.746098
802.150984	2479.642754
802.471940	2481.747436
802.792851	2478.190902
803.113717	2479.920017
803.434538	2477.512866
803.755314	2478.258957
804.076045	2476.885243
804.396731	2478.369863
804.717372	2477.321303
805.037967	2482.112919
805.358518	2480.552682
805.679024	2477.182671
805.999485	2477.860706
806.319901	2478.415233
806.640272	2479.456231
806.960598	2477.147383
807.280879	2478.488330
807.601115	2480.769452
807.921306	2479.332723
808.241453	2475.604790
808.561554	2475.521611
808.881611	2476.597897
809.201623	2476.139152
809.521590	2482.148207
809.841513	2481.354226
810.161390	2477.530510
810.481223	2478.589153
810.801011	2478.788278
811.120755	2479.189050
811.440453	2476.486992
811.760107	2482.183495
812.079716	2481.447487
812.399281	2479.199132
812.718801	2479.312558
813.038276	2477.522949
813.357707	2477.596045
813.677093	2477.656539
813.996434	2479.816674
814.315731	2477.734677
814.634983	2477.452373
814.954191	2476.686117
815.273354	2479.395737
815.592473	2478.190902
815.911547	2479.756180
816.230577	2477.817856
816.549562	2480.285501
816.868502	2477.775006
817.187399	2479.950264
817.506250	2480.010758
817.825058	2483.650471
818.143821	2480.696355
818.462539	2481.805409
818.781213	2483.395893
819.099843	2483.131232
819.418429	2487.174238
819.736970	2489.238590
820.055466	2490.962665
820.373919	2494.655310
820.692327	2501.120590
821.010691	2504.319202
821.329011	2523.533560
821.647286	2553.372149
821.965517	2590.633838
822.283704	2616.346243
822.601847	2632.190590
822.919945	2623.592902
823.237999	2610.591766
823.556010	2589.360947
823.873976	2570.580128
824.191897	2555.093703
824.509775	2541.117104
824.827609	2530.167718
825.145398	2518.706655
825.463144	2522.457273
825.780845	2518.930986
826.098502	2523.273940
826.416116	2528.673016
826.733685	2535.730632
827.051210	2540.895294
827.368692	2539.420756
827.686129	2534.430014
828.003522	2524.188910
828.320872	2514.429236
828.638177	2506.683503
828.955439	2501.153357
829.272656	2498.683192
829.589830	2493.435351
829.906960	2491.418889
830.224046	2488.008549
830.541088	2486.428147
830.858086	2484.709113
831.175041	2486.826398
831.491952	2482.601911
831.808819	2483.819350
832.125642	2481.760038
832.442421	2483.506798
832.759157	2488.989053
833.075849	2495.562718
833.392497	2501.213851
833.709101	2511.071827
834.025662	2511.434791
834.342179	2508.654594
834.658653	2500.462719
834.975083	2499.025990
835.291469	2498.594972
835.607811	2489.992243
835.924110	2488.462253
836.240366	2487.464104
836.556578	2480.086375
836.872746	2480.842548
837.188871	2481.213073
837.504952	2479.063021
837.820990	2476.875160
838.136984	2477.154944
838.452935	2478.982363
838.768842	2477.230562
839.084706	2480.353557
839.400526	2480.225007
839.716303	2483.693321
840.032037	2484.759525
840.347727	2485.210708
840.663373	2484.681387
840.978977	2479.554534
841.294537	2481.850779
841.610054	2479.539410
841.925527	2478.828608
842.240957	2478.006899
842.556344	2478.881540
842.871687	2476.076138
843.186987	2474.636888
843.502244	2473.427011
843.817458	2474.780561
844.132629	2472.217134
844.447756	2475.070427
844.762840	2474.525983
845.077881	2473.653863
845.392879	2472.650673
845.707833	2469.688996
846.022745	2471.750827
846.337613	2472.612865
846.652438	2473.371558
846.967221	2473.432052
847.281960	2472.529686
847.596656	2472.247381
847.911309	2470.949284
848.225919	2471.846609
848.540485	2474.243678
848.855009	2471.455920
849.169490	2469.966259
849.483928	2472.476754
849.798323	2471.259315
850.112675	2473.520272
850.426984	2469.872998
850.741251	2473.210242
851.055474	2473.542958
851.369654	2471.697895
851.683792	2471.332412
851.997887	2472.302834
852.311938	2471.934830
852.625947	2472.698564
852.939914	2473.192598
853.253837	2471.347535
853.567718	2470.787967
853.881555	2473.011116
854.195350	2472.441466
854.509103	2473.638740
854.822812	2470.828296
855.136479	2472.834676
855.450103	2470.447689
855.763685	2467.743110
856.077224	2467.992647
856.390720	2468.635394
856.704173	2463.415280
857.017584	2470.699747
857.330953	2472.073461
857.644278	2469.187401
857.957561	2475.970273
858.270802	2473.789974
858.584000	2474.120170
858.897155	2469.696557
859.210268	2470.649335
859.523339	2475.393061
859.836367	2473.454737
860.149352	2471.352576
860.462295	2473.164871
860.775195	2470.462813
861.088054	2470.598924
861.400869	2470.545992
861.713642	2474.213431
862.026373	2471.597072
862.339062	2470.271249
862.651708	2472.640591
862.964312	2470.485498
863.276873	2473.530355
863.589392	2470.425004
863.901869	2475.226703
864.214303	2471.960035
864.526696	2474.268884
864.839045	2472.108749
865.151353	2471.715539
865.463619	2473.358956
865.775842	2472.244861
866.088023	2471.002216
866.400162	2477.159986
866.712258	2472.900211
867.024313	2473.963894
867.336325	2471.471043
867.648296	2471.312247
867.960224	2471.024901
868.272110	2475.077989
868.583954	2469.817545
868.895755	2473.870633
869.207515	2473.540437
869.519233	2473.789974
869.830909	2471.256794
870.142542	2474.634367
870.454134	2472.804429
870.765684	2474.175622
871.077191	2474.024388
871.388657	2472.945581
871.700081	2470.349387
872.011463	2471.549181
872.322803	2469.759572
872.634101	2471.859212
872.945357	2472.138996
873.256571	2474.193267
873.567744	2474.747793
873.878874	2475.385499
874.189963	2472.708647
874.501010	2475.413226
874.812015	2471.743266
875.122979	2475.572022
875.433900	2475.577063
875.744780	2476.650829
876.055618	2475.156127
876.366415	2474.415077
876.677169	2475.864409
876.987882	2476.582773
877.298554	2474.125211
877.609183	2475.599748
877.919771	2473.729480
878.230317	2477.026395
878.540822	2476.789461
878.851285	2478.775675
879.161707	2478.800881
879.472087	2482.911942
879.782425	2487.380925
880.092722	2494.279744
880.402977	2504.893893
880.713191	2516.831346
881.023363	2532.491690
881.333494	2546.448125
881.643583	2553.730071
881.953631	2553.591440
882.263637	2551.396017
882.573602	2545.361756
882.883526	2535.440765
883.193408	2529.608150
883.503248	2525.108920
883.813048	2519.568692
884.122806	2516.228928
884.432522	2506.655777
884.742197	2505.645025
885.051831	2499.593120
885.361424	2493.672285
885.670975	2490.904692
885.980485	2486.201295
886.289954	2488.432006
886.599382	2481.346664
886.908768	2482.730461
887.218113	2478.752990
887.527417	2479.778865
887.836680	2475.141003
888.145901	2476.930613
888.455082	2476.197125
888.764221	2477.865747
889.073319	2477.094451
889.382376	2474.581435
889.691392	2476.872640
890.000366	2474.712505
890.309300	2474.709985
890.618193	2474.941878
890.927044	2477.343988
891.235855	2473.358956
891.544625	2475.705613
891.853353	2477.288535
892.162041	2477.790130
892.470687	2480.111581
892.779293	2475.612351
893.087858	2478.092599
893.396381	2482.314565
893.704864	2484.378918
894.013306	2485.419916
894.321707	2495.618170
894.630068	2495.343428
894.938387	2497.808552
895.246665	2495.403921
895.554903	2494.516678
895.863100	2490.559373
896.171256	2488.784886
896.479371	2490.400576
896.787446	2485.493013
897.095480	2484.147025
897.403473	2482.667446
897.711425	2481.452528
898.019336	2480.293063
898.327207	2481.041674
898.635038	2477.777527
898.942827	2478.382465
899.250576	2476.214769
899.558284	2476.973463
899.865952	2476.643267
900.173579	2475.786271
900.481165	2477.212918
900.788711	2470.414922
901.096216	2474.571353
901.403681	2473.124542
901.711105	2474.830972
902.018489	2476.529841
902.325832	2473.447176
902.633135	2470.724953
902.940397	2475.811477
903.247619	2473.873153
903.554800	2484.951089
903.861941	2491.202120
904.169041	2499.192348
904.476101	2502.431290
904.783121	2501.276866
905.090100	2500.107318
905.397039	2494.317553
905.703938	2491.605412
906.010796	2489.077273
906.317614	2488.376553
906.624391	2484.381438
906.931129	2483.746253
907.237826	2484.338589
907.544483	2481.213073
907.851099	2478.962198
908.157675	2476.970942
908.464211	2476.638226
908.770707	2473.258132
909.077163	2473.169912
909.383578	2471.902062
909.689954	2472.154120
909.996289	2472.174284
910.302584	2470.442648
910.608839	2473.048925
910.915054	2471.544140
911.221229	2471.846609
911.527363	2470.132617
911.833458	2470.969449
912.139513	2472.890128
912.445527	2472.265025
912.751502	2471.279480
913.057436	2470.183029
913.363331	2471.224027
913.669186	2472.905252
913.975000	2474.082361
914.280775	2474.155458
914.586510	2479.879688
914.892205	2482.312045
915.197859	2483.758856
915.503475	2492.147336
915.809050	2493.667244
916.114585	2497.314519
916.420081	2502.494304
916.725536	2501.665034
917.030952	2500.576145
917.336328	2496.286123
917.641665	2495.673623
917.946961	2489.641883
918.252218	2491.900319
918.557435	2484.401603
918.862612	2491.166832
919.167750	2484.431850
919.472848	2485.326655
919.777906	2480.645943
920.082925	2482.644761
920.387904	2479.100830
920.692843	2480.028402
920.997743	2477.306179
921.302603	2476.600418
921.607423	2474.825931
921.912204	2472.615385
922.216946	2475.269553
922.521647	2474.074799
922.826310	2475.624954
923.130932	2473.353914
923.435516	2473.691672
923.740059	2473.820221
924.044564	2473.091774
924.349028	2474.367186
924.653454	2470.271249
924.957840	2471.057669
925.262186	2472.696044
925.566493	2468.227061
925.870761	2470.041876
926.174989	2470.425004
926.479178	2469.424335
926.783328	2467.798563
927.087438	2465.623305
927.391509	2470.495580
927.695541	2466.707153
927.999533	2468.239664
928.303486	2470.316619
928.607400	2467.712863
928.911275	2467.332256
929.215110	2468.784108
929.518906	2468.098512
929.822663	2468.562298
930.126381	2468.048100
930.430060	2467.246557
930.733699	2468.466516
931.037299	2467.145733
931.340861	2467.962400
931.644383	2467.531382
931.947866	2467.975003
932.251309	2469.643625
932.554714	2466.704632
932.858080	2466.129941
933.161407	2462.399487
933.464694	2464.947790
933.767943	2462.364199
934.071153	2467.657411
934.374323	2467.002061
934.677455	2468.295117
934.980548	2470.798049
935.283602	2467.506176
935.586617	2468.043059
935.889593	2466.742441
936.192530	2468.867288
936.495428	2468.688327
936.798287	2467.871660
937.101108	2468.174129
937.403890	2468.839561
937.706632	2470.402319
938.009336	2469.419294
938.312002	2472.033132
938.614628	2468.186732
938.917216	2470.425004
939.219765	2470.861064
939.522275	2470.619088
939.824747	2471.269397
940.127179	2471.700416
940.429573	2470.427525
940.731929	2469.474747
941.034246	2469.920889
941.336524	2471.765951
941.638763	2468.148923
941.940964	2467.543985
942.243126	2470.130097
942.545250	2468.191773
942.847335	2467.911989
943.149381	2469.792339
943.451389	2467.342338
943.753359	2470.919037
944.055290	2466.807976
944.357182	2469.978862
944.659036	2469.570528
944.960851	2467.279324
945.262628	2469.976341
945.564367	2467.733028
945.866067	2466.760085
946.167729	2466.155147
946.469352	2469.623461
946.770937	2468.902576
947.072484	2468.159005
947.373992	2470.104891
947.675462	2470.493060
947.976893	2468.337966
948.278286	2462.351596
948.579641	2465.469550
948.880958	2460.705659
949.182236	2466.230764
949.483476	2467.503655
949.784678	2470.432566
950.085841	2468.579942
950.386967	2469.961218
950.688054	2468.804273
950.989103	2467.080198
951.290114	2467.924592
951.591087	2469.184880
951.892021	2468.040538
952.192917	2468.458954
952.493776	2467.533902
952.794596	2468.537092
953.095378	2467.357462
953.396122	2469.641105
953.696828	2466.563480
953.997496	2465.247739
954.298126	2470.661938
954.598718	2467.702781
954.899272	2467.972483
955.199788	2470.238481
955.500266	2467.962400
955.800706	2468.610189
956.101108	2465.277986
956.401472	2468.297637
956.701798	2467.196145
957.002087	2468.726135
957.302337	2465.401494
957.602550	2469.058851
957.902724	2464.504169
958.202861	2467.349900
958.502960	2466.986937
958.803022	2465.653552
959.103045	2464.163891
959.403031	2467.430559
959.702979	2465.696402
960.002889	2465.744293
960.302762	2465.313274
960.602596	2467.244036
960.902393	2463.085084
961.202153	2466.278655
961.501875	2466.921402
961.801559	2465.446865
962.101205	2463.831175
962.400814	2466.780250
962.700385	2464.539457
962.999918	2464.083232
963.299414	2462.515434
963.598873	2462.205403
963.898293	2461.613067
964.197677	2465.419138
964.497022	2464.612554
964.796331	2464.804117
965.095601	2462.785135
965.394835	2466.021556
965.694030	2464.640280
965.993189	2462.417131
966.292309	2466.613892
966.591393	2466.623974
966.890439	2465.088943
967.189447	2462.775053
967.488419	2464.804117
967.787353	2463.740434
968.086249	2463.349745
968.385108	2464.582307
968.683930	2466.356793
968.982714	2464.408387
969.281462	2464.236988
969.580172	2464.630198
969.878844	2462.069292
970.177480	2465.608182
970.476078	2462.528037
970.774639	2463.581638
971.073162	2464.300002
971.371649	2465.971145
971.670098	2464.310084
971.968510	2464.683130
972.266885	2464.869653
972.565223	2466.046762
972.863524	2466.966773
973.161788	2462.288582
973.460014	2465.099025
973.758204	2463.624488
974.056356	2465.351083
974.354471	2462.762450
974.652550	2464.826803
974.950591	2465.093984
975.248595	2464.100877
975.546563	2465.804787
975.844493	2467.163378
976.142386	2465.590538
976.440243	2465.361165
976.738062	2464.428552
977.035845	2465.240177
977.333590	2463.692543
977.631299	2467.778398
977.928971	2461.056020
978.226606	2460.816565
978.524204	2462.704477
978.821765	2460.554425
979.119290	2466.825620
979.416777	2461.010649
979.714228	2466.233285
980.011642	2466.722277
980.309020	2464.398305
980.606360	2463.115331
980.903664	2465.187245
981.200931	2465.918212
981.498162	2467.448203
981.795356	2464.521813
982.092513	2465.603140
982.389633	2466.896196
982.686717	2465.983748
982.983764	2469.056331
983.280775	2466.911320
983.577749	2467.924592
983.874686	2468.557257
984.171587	2467.188583
984.468451	2467.826289
984.765279	2467.375106
985.062070	2466.533233
985.358824	2467.087760
985.655543	2466.278655
985.952224	2464.952832
986.248869	2467.566670
986.545478	2463.523664
986.842050	2465.265383
987.138586	2467.022225
987.435086	2465.469550
987.731549	2467.450723
988.027975	2463.972327
988.324366	2462.724642
988.620719	2465.151957
988.917037	2463.387553
989.213318	2464.383181
989.509563	2465.719087
989.805772	2464.065588
990.101944	2462.699436
990.398080	2461.303036
990.694180	2463.899230
990.990244	2462.051648
991.286271	2463.831175
991.582262	2462.235650
991.878217	2463.528706
992.174136	2464.577266
992.470019	2465.948459
992.765865	2461.449230
993.061676	2459.697429
993.357450	2462.139868
993.653188	2457.814558
993.948890	2463.314457
994.244556	2463.352265
994.540186	2467.942236
994.835780	2462.081894
995.131337	2465.809828
995.426859	2466.651700
995.722345	2465.890486
996.017795	2465.030969
996.313208	2466.926443
996.608586	2465.593058
996.903928	2464.020218
997.199234	2467.609520
997.494504	2466.750003
997.789738	2467.980044
998.084936	2465.300671
998.380099	2464.852008
998.675225	2463.833695
998.970316	2464.173973
999.265371	2465.187245
999.560390	2462.507872
999.855373	2463.261524
1000.150320	2461.832357
1000.445232	2465.247739
1000.740108	2464.804118
1001.034948	2463.863942
1001.329752	2461.774384
1001.624521	2464.461319
1001.919254	2464.030300
1002.213951	2464.904941
1002.508613	2465.671196
1002.803239	2464.022739
1003.097829	2464.292440
1003.392384	2464.078191
1003.686903	2462.696915
1003.981386	2462.253294
1004.275834	2463.448047
1004.570246	2462.442337
1004.864623	2463.362347
1005.158964	2467.450723
1005.453270	2464.294961
1005.747540	2463.382512
1006.041775	2461.040896
1006.335974	2463.995012
1006.630138	2463.866463
1006.924266	2464.778912
1007.218359	2462.517954
1007.512416	2461.660958
1007.806438	2461.358489
1008.100425	2461.474435
1008.394376	2458.359002
1008.688292	2465.456947
1008.982172	2461.842440
1009.276017	2463.478294
1009.569827	2463.548870
1009.863602	2464.292440
1010.157341	2462.190279
1010.451045	2464.405866
1010.744714	2462.568366
1011.038347	2461.633232
1011.331945	2464.055506
1011.625508	2463.561473
1011.919036	2461.073664
1012.212528	2464.443675
1012.505986	2461.204734
1012.799408	2463.690023
1013.092795	2462.628860
1013.386147	2463.664817
1013.679464	2461.040896
1013.972745	2463.937039
1014.265992	2461.492079
1014.559204	2462.991823
1014.852380	2461.887810
1015.145521	2464.337811
1015.438628	2460.123406
1015.731699	2461.063581
1016.024736	2460.745989
1016.317737	2463.077522
1016.610703	2462.419652
1016.903635	2464.690692
1017.196531	2463.138016
1017.489393	2463.790846
1017.782219	2462.147429
1018.075011	2465.895527
1018.367768	2461.207254
1018.660490	2462.160032
1018.953177	2462.160032
1019.245829	2462.160032
