Dividing Wavelength (nm)	Counts (n)	Blue Motor Position (mm): 0.000000	Red Motor Position (mm): 37.500000	
326.493990	2053.453525
326.888308	2053.453525
327.282561	2053.453525
327.676750	2026.715245
328.070874	2029.707170
328.464933	2034.723118
328.858929	2043.381300
329.252859	2055.543084
329.646726	2066.704198
330.040528	2082.603998
330.434265	2100.573190
330.827938	2123.026490
331.221547	2140.637761
331.615091	2162.123158
332.008571	2181.733247
332.401986	2203.621937
332.795338	2221.505430
333.188625	2243.048801
333.581847	2261.552356
333.975006	2279.950047
334.368100	2297.465536
334.761129	2313.534214
335.154095	2328.985351
335.546996	2355.101048
335.939833	2392.897099
336.332606	2409.152300
336.725315	2422.483631
337.117960	2429.173242
337.510540	2441.198915
337.903056	2450.882971
338.295508	2460.582151
338.687896	2464.985599
339.080220	2466.623974
339.472480	2475.183853
339.864676	2477.953967
340.256807	2484.086531
340.648875	2482.755666
341.040879	2482.460759
341.432818	2485.422437
341.824694	2486.922180
342.216506	2487.711121
342.608253	2488.991574
342.999937	2486.970071
343.391557	2483.950420
343.783113	2485.051912
344.174605	2483.852117
344.566033	2481.386993
344.957397	2478.132928
345.348697	2476.625623
345.739934	2475.937506
346.131106	2477.575881
346.522215	2472.809470
346.913260	2472.809470
347.304241	2471.881898
347.695159	2467.496094
348.086012	2468.050621
348.476802	2464.662965
348.867528	2464.625157
349.258191	2457.683488
349.648789	2461.545012
350.039324	2454.462190
350.429796	2461.487038
350.820203	2458.679116
351.210548	2457.214660
351.600828	2458.608539
351.991045	2458.101903
352.381198	2458.452264
352.771288	2458.442181
353.161314	2456.702983
353.551276	2458.245576
353.941175	2458.462346
354.331010	2458.454784
354.720782	2456.082921
355.110490	2458.928653
355.500135	2459.803293
355.889717	2458.175000
356.279235	2457.728858
356.668689	2459.432768
357.058080	2461.913016
357.447408	2460.272120
357.836672	2460.690536
358.225873	2462.530557
358.615010	2463.863942
359.004084	2462.586010
359.393095	2461.915536
359.782043	2462.492748
360.170927	2465.688840
360.559748	2464.925105
360.948505	2463.609364
361.337199	2466.868470
361.725830	2466.775209
362.114398	2469.973821
362.502903	2466.308902
362.891344	2469.784777
363.279722	2465.703963
363.668037	2471.735704
364.056289	2470.490539
364.444478	2469.560446
364.832603	2471.536578
365.220665	2472.375931
365.608665	2470.964407
365.996601	2470.349387
366.384474	2474.110087
366.772284	2472.693523
367.160031	2473.278297
367.547715	2474.868781
367.935336	2474.404995
368.322893	2472.852320
368.710388	2471.518934
369.097820	2473.341312
369.485189	2470.581280
369.872495	2480.650985
370.259738	2476.920531
370.646918	2479.317599
371.034035	2478.982363
371.421090	2480.550162
371.808081	2482.692652
372.195010	2481.293732
372.581875	2484.013434
372.968678	2486.488641
373.355418	2487.907726
373.742096	2492.144815
374.128710	2493.407624
374.515262	2494.189003
374.901751	2495.058602
375.288177	2501.551608
375.674540	2505.982783
376.060841	2507.593431
376.447079	2509.609893
376.833254	2517.615245
377.219367	2520.997859
377.605417	2528.622605
377.991404	2532.960518
378.377329	2539.478729
378.763191	2544.764379
379.148991	2554.947510
379.534727	2565.236505
379.920402	2573.751014
380.306013	2581.199319
380.691563	2593.560228
381.077049	2604.607917
381.462474	2617.281377
381.847835	2630.695888
382.233134	2643.213073
382.618371	2653.439053
383.003545	2670.551250
383.388657	2684.550534
383.773706	2703.931250
384.158693	2717.340719
384.543618	2737.454923
384.928480	2749.916656
385.313280	2773.574791
385.698017	2792.098510
386.082692	2813.772951
386.467305	2828.072184
386.851856	2853.731657
387.236344	2883.968498
387.620770	2899.437279
388.005133	2916.476379
388.389435	2951.313272
388.773674	2966.222485
389.157851	3000.093998
389.541965	3026.038296
389.926018	3039.687220
390.310008	3073.226016
390.693936	3096.276692
391.077802	3126.884058
391.461606	3157.607370
391.845348	3177.600586
392.229027	3202.382898
392.612645	3246.510639
392.996200	3276.949126
393.379694	3314.840958
393.763125	3355.588605
394.146494	3380.796895
394.529801	3416.631937
394.913047	3462.140953
395.296230	3467.492138
395.679351	3492.977691
396.062410	3541.231616
396.445408	3521.465252
396.828343	3564.090728
397.211217	3598.194134
397.594028	3571.632294
397.976778	3621.776652
398.359466	3653.253616
398.742092	3663.628311
399.124656	3679.341587
399.507158	3740.873911
399.889598	3746.063779
400.271977	3810.764468
400.654294	3798.592602
401.036549	3857.710213
401.418742	3856.026468
401.800874	3929.377777
402.182944	3955.211170
402.564952	4039.285013
402.946898	4037.369375
403.328783	4030.289074
403.710606	4078.452258
404.092367	4153.021006
404.474067	4215.730439
404.855705	4199.747461
405.237282	4167.267306
405.618797	4268.559211
406.000250	4349.263043
406.381642	4428.452008
406.762972	4429.445115
407.144240	4397.176689
407.525447	4461.653047
407.906593	4478.203155
408.287677	4566.682967
408.668700	4590.973767
409.049661	4633.321979
409.430560	4665.577802
409.811399	4652.276718
410.192176	4699.688770
410.572891	4780.067447
410.953545	4888.061566
411.334138	4789.449035
411.714669	4891.361001
412.095139	4805.815141
412.475547	4920.758489
412.855894	4926.460034
413.236180	5029.251682
413.616405	4950.241678
413.996568	5059.909459
414.376670	5062.987083
414.756711	5056.431063
415.136691	5129.552999
415.516609	5213.498293
415.896466	5249.277883
416.276262	5328.691179
416.655997	5442.316266
417.035670	5540.384353
417.415283	5675.923336
417.794834	5753.194142
418.174324	5709.794848
418.553753	5713.961362
418.933121	5876.921701
419.312428	5893.290328
419.691674	5816.415252
420.070859	6046.420417
420.449983	5921.057003
420.829045	6119.529751
421.208047	6044.013266
421.586988	6207.457556
421.965867	6276.723010
422.344686	6360.801894
422.723444	6528.173243
423.102141	6140.556403
423.480777	6534.318410
423.859352	6348.640111
424.237866	6717.869342
424.616319	6719.704322
424.994712	6877.646192
425.373044	6786.184538
425.751314	7111.689321
426.129524	6829.034346
426.507673	7093.213493
426.885762	7138.044474
427.263789	7177.925042
427.641756	7269.542972
428.019662	7350.574479
428.397508	7389.328349
428.775292	7367.797581
429.153016	7541.026750
429.530679	7475.388407
429.908282	7524.816920
430.285824	7467.622509
430.663305	7756.039524
431.040726	7634.033518
431.418086	7644.420816
431.795385	7775.657174
432.172624	7967.203376
432.549802	7851.849173
432.926920	7982.069739
433.303977	7928.426821
433.680974	7969.658418
434.057910	8173.681476
434.434786	8224.536636
434.811601	8181.220521
435.188355	8525.816154
435.565050	8407.220489
435.941683	8420.002335
436.318257	8756.983305
436.694770	8708.590749
437.071222	8939.233619
437.447614	8715.088796
437.823946	8682.976646
438.200218	8832.396446
438.576429	8712.036377
438.952580	8882.946616
439.328670	8886.460300
439.704700	8964.199934
440.080670	8856.019293
440.456580	9127.966858
440.832429	9098.708001
441.208218	8836.263011
441.583947	8954.253737
441.959616	9079.120598
442.335224	9103.802087
442.710773	9190.802320
443.086261	9376.687306
443.461689	9092.643493
443.837057	9258.994008
444.212365	9477.946443
444.587612	9463.934556
444.962800	9352.701496
445.337927	9485.145211
445.712995	9019.135908
446.088002	9702.179487
446.462949	9761.241645
446.837837	9742.647349
447.212664	9765.806410
447.587431	10601.322207
447.962139	11614.465581
448.336786	12570.820356
448.711374	12355.600896
449.085901	11126.497012
449.460369	11051.373737
449.834776	10819.470578
450.209124	11739.836556
450.583412	11564.643857
450.957640	11885.077240
451.331808	11475.760753
451.705917	10890.321475
452.079965	10769.784966
452.453954	10976.565535
452.827883	10923.827504
453.201752	10895.871785
453.575562	10890.606300
453.949311	11240.837943
454.323001	11308.260855
454.696632	11221.379089
455.070202	11818.869246
455.443713	11869.308511
455.817164	12038.333358
456.190556	12366.073893
456.563888	12231.275960
456.937160	12498.807474
457.310373	11980.670120
457.683526	11990.397026
458.056619	12009.394614
458.429653	12071.756208
458.802628	12220.669372
459.175542	12276.230449
459.548398	12824.231598
459.921194	13406.129466
460.293930	13674.853213
460.666607	14547.529876
461.039224	15354.520304
461.411782	15708.308481
461.784280	15385.599018
462.156719	15334.819475
462.529099	15243.277162
462.901419	14590.735085
463.273680	14194.278582
463.645882	14402.992434
464.018024	14296.808090
464.390106	14662.490869
464.762130	15731.306225
465.134094	17271.915608
465.505999	19574.228214
465.877845	21860.482224
466.249631	23142.830774
466.621358	22682.386906
466.993026	21877.052496
467.364634	21133.396604
467.736184	20317.183385
468.107674	19696.813952
468.479105	19559.046779
468.850477	19281.163255
469.221790	18845.829374
469.593043	18180.906223
469.964238	17782.944935
470.335373	17834.069797
470.706449	18563.469306
471.077467	19417.571837
471.448425	21917.243095
471.819324	23817.339680
472.190164	23733.185178
472.560945	21974.661838
472.931667	20373.067096
473.302330	20033.530261
473.672934	19475.353543
474.043479	19898.518079
474.413965	19688.995122
474.784393	19503.614251
475.154761	20181.951913
475.525070	20310.299690
475.895321	20138.295520
476.265513	20677.325937
476.635645	21278.879263
477.005719	21337.543171
477.375734	21700.793593
477.745691	22351.276359
478.115588	22980.631649
478.485427	24185.439692
478.855207	26017.062284
479.224928	27833.493358
479.594591	29299.407965
479.964194	28948.896538
480.333739	29417.378526
480.703226	29636.172165
481.072653	30083.836709
481.442022	30616.709356
481.811333	31027.455009
482.180584	30586.328842
482.549777	30363.638391
482.918912	30114.602871
483.287988	30061.096064
483.657005	29917.546688
484.025964	29541.484172
484.394864	29738.411806
484.763706	29665.236937
485.132489	29118.523803
485.501213	29199.504898
485.869879	29380.855367
486.238487	29304.630600
486.607036	29604.415416
486.975527	29250.352497
487.343959	29615.261459
487.712333	29985.206534
488.080648	29918.869990
488.448905	30365.082682
488.817104	30244.367212
489.185244	31086.038258
489.553326	32040.777344
489.921350	33957.786999
490.289315	36496.537282
490.657222	37429.342307
491.025070	38014.877368
491.392861	37744.721933
491.760593	36984.334452
492.128267	35963.702444
492.495883	34989.459134
492.863440	34072.261521
493.230939	33086.007662
493.598380	32505.236492
493.965763	32347.728160
494.333088	31834.369820
494.700354	31638.352115
495.067563	31593.967276
495.434713	31474.585191
495.801805	31764.136465
496.168839	31592.593561
496.535815	31445.906067
496.902733	31563.758161
497.269593	31381.061705
497.636395	31527.053520
498.003139	31810.971305
498.369825	31573.739646
498.736453	31980.545638
499.103023	31819.536225
499.469535	31905.230799
499.835989	32019.594415
500.202385	31886.271020
500.568723	31931.429676
500.935003	32238.662797
501.301226	32108.240585
501.667390	32843.749972
502.033497	33052.783937
502.399546	32852.599718
502.765537	32447.853037
503.131470	32939.123562
503.497345	33371.039541
503.863163	32286.823460
504.228923	33085.800974
504.594625	33486.867613
504.960269	32945.777885
505.325856	33617.509115
505.691385	33277.130407
506.056856	33616.127838
506.422270	34105.432313
506.787625	33625.554796
507.152924	34090.253399
507.518164	34265.912405
507.883347	33827.402596
508.248472	33979.121162
508.613540	34678.258625
508.978550	34898.279784
509.343503	34723.883588
509.708398	35097.372594
510.073236	35696.606990
510.438016	35779.808713
510.802738	35456.143951
511.167403	36026.492536
511.532010	36259.313185
511.896561	36808.388100
512.261053	37554.125988
512.625488	37324.745927
512.989866	37234.728563
513.354186	37287.592623
513.718449	37256.864270
514.082655	38157.620159
514.446803	37834.812393
514.810894	38480.634613
515.174927	38489.139039
515.538904	38473.607244
515.902822	39117.322261
516.266684	38800.994898
516.630488	39161.674333
516.994235	39168.706742
517.357925	39742.639587
517.721558	40001.296150
518.085133	40391.932641
518.448651	40575.022307
518.812112	40461.669442
519.175516	40611.285847
519.538863	41076.415469
519.902152	41125.576801
520.265385	41669.978567
520.628560	41688.300640
520.991678	41627.620272
521.354739	41860.781199
521.717743	42225.317116
522.080690	42124.846919
522.443580	42832.529138
522.806413	42817.796365
523.169189	42963.997389
523.531908	43182.715410
523.894569	43032.252091
524.257174	43213.209350
524.619722	43579.328189
524.982213	43733.461468
525.344647	43769.417497
525.707025	43890.697577
526.069345	44312.407740
526.431608	44232.634001
526.793815	44617.619358
527.155964	44155.085931
527.518057	44398.792952
527.880093	44250.323410
528.242072	44894.837450
528.603995	44624.656809
528.965860	44516.186302
529.327669	44735.960445
529.689421	44798.115351
530.051117	44764.203509
530.412755	45022.474424
530.774337	45068.800107
531.135862	45006.433472
531.497331	45158.956103
531.858743	45130.718079
532.220098	45562.676908
532.581396	45255.421102
532.942638	45010.269790
533.303824	45263.297905
533.664953	45310.467981
534.026025	44983.269370
534.387040	45543.099587
534.747999	45602.290295
535.108902	45926.905315
535.469748	45235.480818
535.830537	45510.440472
536.191270	45737.499083
536.551947	45466.680736
536.912567	45720.777575
537.273131	45836.156984
537.633638	45471.830275
537.994089	45645.387119
538.354483	45354.757038
538.714821	46011.019487
539.075103	46281.671476
539.435328	46135.558672
539.795497	45851.882863
540.155609	45971.902654
540.515665	46548.288020
540.875665	45822.319017
541.235609	46072.501400
541.595496	46183.621033
541.955328	46759.645957
542.315102	46166.733168
542.674821	46060.019503
543.034483	45937.547191
543.394090	45930.545028
543.753640	45871.031686
544.113134	46911.278823
544.472571	46001.227046
544.831953	47107.288967
545.191278	46333.252562
545.550548	45994.592887
545.909761	46603.526463
546.268918	46714.275572
546.628019	47081.309381
546.987064	46496.785072
547.346053	45789.720395
547.704986	46668.660692
548.063863	46284.618030
548.422684	46440.399766
548.781449	45968.363764
549.140158	46472.675754
549.498811	46168.701738
549.857408	45523.479417
550.215949	46345.280755
550.574434	46129.085831
550.932864	46045.972327
551.291237	46685.641818
551.649555	46383.550674
552.007817	46496.137284
552.366022	46173.122830
552.724173	46178.668100
553.082267	46523.677107
553.440305	46833.851742
553.798288	46031.668053
554.156215	46356.260388
554.514086	46494.698034
554.871902	46022.442742
555.229661	46157.376786
555.587365	45780.714374
555.945014	45823.740622
556.302606	45803.129864
556.660143	45804.377550
557.017625	45953.542772
557.375050	45588.994252
557.732421	45899.708290
558.089735	45901.661737
558.446994	45679.435073
558.804197	46070.472335
559.161345	45857.796137
559.518437	45167.284089
559.875474	45310.853630
560.232455	45447.690710
560.589381	45396.709521
560.946251	45149.975287
561.303065	45679.614033
561.659825	45281.463703
562.016528	44986.425133
562.373177	44497.105535
562.729770	45042.240788
563.086307	44466.339373
563.442789	44890.497016
563.799216	44654.031613
564.155587	44459.301922
564.511904	44326.649000
564.868164	44259.427734
565.224370	44486.093134
565.580520	44098.443527
565.936615	44170.516903
566.292654	43724.722628
566.648638	43960.696518
567.004567	43781.980053
567.360441	43753.989046
567.716260	43374.674987
568.072023	43613.721461
568.427732	43410.976336
568.783385	42856.023435
569.138982	43128.795228
569.494525	43141.987928
569.850013	42641.119047
570.205445	42623.454843
570.560823	42292.291365
570.916145	42046.368757
571.271412	42145.472800
571.626625	41689.379447
571.981782	41611.947324
572.336884	41126.645526
572.691931	41303.431229
573.046923	40868.379653
573.401860	40547.263194
573.756743	40453.273401
574.111570	40435.810844
574.466342	40212.565866
574.821059	40234.663764
575.175722	39611.867015
575.530330	39560.941279
575.884882	39130.091504
576.239380	38879.105057
576.593823	38834.037141
576.948211	38634.190679
577.302544	38083.051412
577.656823	37933.523227
578.011047	38011.439301
578.365216	37722.344251
578.719330	37317.917684
579.073389	37154.750657
579.427394	37054.134268
579.781344	36824.882755
580.135239	36474.119271
580.489080	36367.279577
580.842866	35804.807795
581.196597	36052.247791
581.550273	35877.702880
581.903895	35662.843862
582.257463	35865.319285
582.610975	35253.187097
582.964434	35339.080797
583.317837	34792.249195
583.671186	34611.886793
584.024481	34641.740506
584.377721	34145.827079
584.730906	34137.239473
585.084037	34101.424596
585.437113	33719.005186
585.790135	33655.521935
586.143103	33151.799761
586.496016	33101.194138
586.848874	33030.572613
587.201679	32883.653226
587.554428	32328.344924
587.907124	32385.395662
588.259765	32034.604451
588.612352	31977.513384
588.964884	31427.246236
589.317362	31459.602882
589.669786	31325.850988
590.022155	31058.813507
590.374470	31227.384650
590.726731	30761.105646
591.078937	30146.276440
591.431090	30223.103625
591.783188	29707.098679
592.135232	29426.117367
592.487222	29433.817729
592.839157	29382.077847
593.191038	28964.294742
593.542866	28675.918057
593.894639	28101.556714
594.246358	28147.915165
594.598022	27979.233116
594.949633	27516.591304
595.301190	27341.585128
595.652692	27139.465105
596.004141	27310.972721
596.355535	26443.193539
596.706876	26282.547089
597.058162	25951.882685
597.409395	26113.033250
597.760573	26103.190397
598.111698	25686.481059
598.462768	25472.153882
598.813785	25335.102553
599.164748	24937.768889
599.515657	24944.806340
599.866511	24502.906356
600.217312	24747.006587
600.568060	23985.520134
600.918753	24308.390914
601.269392	24090.875208
601.619978	23782.215440
601.970510	23754.698302
602.320988	23671.904912
602.671412	23671.151259
603.021783	23430.352984
603.372100	23042.542060
603.722363	22946.676958
604.072572	22820.761537
604.422728	22666.522394
604.772830	22393.072566
605.122878	22345.806707
605.472872	22129.916773
605.822813	22101.714038
606.172701	21821.463693
606.522534	21828.763284
606.872314	21801.326804
607.222041	21573.711146
607.571714	21578.182649
607.921333	21176.959735
608.270899	21136.388529
608.620411	21171.164929
608.969870	20924.392887
609.319276	20784.778131
609.668627	20661.927732
610.017926	20698.105573
610.367171	20632.038731
610.716362	20503.781695
611.065500	20328.876342
611.414585	20279.538569
611.763616	20208.559123
612.112594	20028.363078
612.461518	19946.943403
612.810389	19973.452310
613.159207	19747.994266
613.507971	19588.219936
613.856682	19679.341313
614.205340	19458.541295
614.553945	19630.434558
614.902496	19214.378049
615.250994	19251.687629
615.599439	19158.537188
615.947830	19070.495957
616.296169	18930.540923
616.644454	18815.774015
616.992686	18745.752388
617.340864	18793.628226
617.688990	18466.270818
618.037063	18617.129868
618.385082	18409.290657
618.733048	18417.280885
619.080961	18233.351867
619.428821	18118.206872
619.776628	18006.764604
620.124382	17795.726781
620.472083	17728.208087
620.819731	17631.228890
621.167326	17338.655444
621.514868	17189.674224
621.862357	16866.183382
622.209793	16783.054755
622.557176	16494.678070
622.904506	16278.939370
623.251783	16035.915426
623.599007	15798.807275
623.946179	15655.802343
624.293297	15448.343739
624.640363	15144.798222
624.987376	14980.025588
625.334336	14797.687053
625.681243	14557.433223
626.028097	14417.135391
626.374899	14265.734417
626.721647	14147.892405
627.068343	13972.372031
627.414987	13786.870172
627.761577	13605.779323
628.108115	13609.114047
628.454600	13289.126806
628.801032	13265.584618
629.147412	13126.058082
629.493739	12995.439265
629.840014	12779.128395
630.186236	12796.170016
630.532405	12550.260010
630.878521	12521.550639
631.224585	12374.021272
631.570597	12203.242103
631.916556	12164.621823
632.262462	12051.649566
632.608316	11957.939557
632.954117	11834.340547
633.299866	11737.983932
633.645562	11640.069601
633.991206	11421.903586
634.336797	11230.589277
634.682336	11117.536361
635.027823	10978.302212
635.373257	10861.748215
635.718639	10699.629748
636.063968	10593.768038
636.409245	10361.917811
636.754470	10271.842474
637.099642	10148.392178
637.444762	9946.826683
637.789829	9893.375328
638.134845	9748.048945
638.479808	9653.154265
638.824719	9577.700795
639.169577	9398.344103
639.514383	9347.982976
639.859137	9201.174494
640.203839	9165.473042
640.548489	9045.150782
640.893086	8975.789547
641.237632	8854.262451
641.582125	8811.705030
641.926566	8706.816262
642.270955	8653.425402
642.615292	8575.920182
642.959576	8492.010177
643.303809	8433.063965
643.647990	8392.714569
643.992118	8329.493459
644.336195	8238.727484
644.680219	8195.756688
645.024192	8173.063934
645.368112	8207.661373
645.711981	8162.112028
646.055797	8229.552584
646.399562	8143.240468
646.743274	8243.430880
647.086935	8264.104652
647.430544	8209.758493
647.774101	8169.724170
648.117606	8165.051020
648.461059	8131.078685
648.804460	8014.139039
649.147810	7870.269549
649.491108	7763.147551
649.834354	7693.166253
650.177548	7506.383941
650.520690	7365.652570
650.863781	7306.298024
651.206820	7228.651652
651.549807	7117.862214
651.892742	6983.767522
652.235626	6919.583551
652.578458	6851.147367
652.921238	6710.539504
653.263967	6701.336878
653.606644	6617.147088
653.949269	6560.582821
654.291843	6457.173632
654.634365	6462.855013
654.976836	6357.313416
655.319255	6327.857954
655.661622	6267.263285
656.003938	6208.748091
656.346203	6139.228059
656.688416	6131.575588
657.030577	6060.386934
657.372687	5996.102140
657.714746	5975.461135
658.056753	5955.246108
658.398708	5845.328790
658.740612	5815.480118
659.082465	5802.557120
659.424266	5752.014512
659.766016	5710.871135
660.107715	5663.779196
660.449362	5634.742150
660.790958	5592.126756
661.132503	5559.772630
661.473996	5531.025451
661.815438	5501.703579
662.156829	5477.291792
662.498168	5420.470426
662.839456	5385.993975
663.180693	5360.647053
663.521879	5336.164690
663.863013	5296.947033
664.204097	5259.400520
664.545129	5265.631386
664.886110	5229.766097
665.227040	5205.823137
665.567918	5174.318446
665.908746	5148.028828
666.249522	5126.949243
666.590248	5101.196509
666.930922	5074.977468
667.271545	5053.156833
667.612118	5029.786044
667.952639	4982.550433
668.293109	4951.380978
668.633528	4906.466818
668.973896	4871.771077
669.314213	4836.896375
669.654480	4791.100012
669.994695	4760.354015
670.334859	4726.117019
670.674973	4679.181356
671.015035	4668.408410
671.355047	4632.931290
671.695008	4599.543728
672.034918	4568.966609
672.374777	4547.889545
672.714585	4513.546685
673.054342	4504.369264
673.394049	4468.710662
673.733705	4459.293787
674.073310	4415.904576
674.412864	4393.279877
674.752368	4347.980069
675.091820	4341.403884
675.431223	4288.900266
675.770574	4250.579935
676.109875	4211.024522
676.449125	4176.711908
676.788324	4142.200169
677.127473	4093.749639
677.466571	4063.364084
677.805619	4029.248076
678.144616	4001.521730
678.483562	3978.458451
678.822458	3942.252884
679.161303	3916.641302
679.500098	3895.460894
679.838842	3870.459291
680.177535	3853.145448
680.516179	3850.468596
680.854771	3832.060822
681.193314	3845.477853
681.531805	3878.651166
681.870247	3906.692585
682.208638	3932.019342
682.546978	3929.092952
682.885268	3921.400151
683.223508	3886.684245
683.561697	3858.988146
683.899836	3830.125019
684.237925	3796.971871
684.575963	3778.261629
684.913951	3746.456989
685.251889	3734.350658
685.589776	3716.383986
685.927614	3703.148436
686.265401	3697.656099
686.603137	3689.396169
686.940824	3702.959393
687.278460	3703.924774
687.616046	3704.806976
687.953582	3720.709296
688.291068	3712.194787
688.628504	3711.509190
688.965889	3700.622818
689.303224	3682.081454
689.640510	3650.944768
689.977745	3612.793315
690.314930	3571.559198
690.652065	3535.492262
690.989150	3497.136643
691.326185	3448.996145
691.663170	3412.997265
692.000105	3377.293293
692.336990	3342.905062
692.673825	3319.408244
693.010610	3289.370529
693.347345	3262.060078
693.684030	3228.027248
694.020665	3211.651060
694.357251	3182.246009
694.693786	3176.609999
695.030272	3164.377640
695.366707	3135.819503
695.703093	3122.543624
696.039429	3115.647326
696.375716	3102.111828
696.711952	3095.432299
697.048139	3083.492326
697.384276	3074.264494
697.720363	3072.734504
698.056400	3064.391394
698.392388	3053.888150
698.728326	3046.306255
699.064214	3038.247970
699.400053	3030.116589
699.735842	3015.613190
700.071581	3001.981910
700.407270	2991.203923
700.742910	2981.676142
701.078501	2970.051241
701.414042	2960.019345
701.749533	2945.755400
702.084974	2934.422886
702.420366	2935.264759
702.755709	2919.864034
703.091002	2907.999678
703.426246	2904.110428
703.761440	2897.708163
704.096584	2890.723644
704.431679	2885.553941
704.766725	2881.619320
705.101721	2874.831407
705.436668	2873.321581
705.771565	2859.997812
706.106413	2865.112062
706.441212	2864.489480
706.775961	2864.184490
707.110661	2859.264324
707.445311	2864.766743
707.779913	2859.337420
708.114465	2859.770960
708.448967	2861.439582
708.783421	2870.634646
709.117825	2871.811756
709.452180	2876.888198
709.786485	2879.549927
710.120742	2890.098541
710.454949	2888.608880
710.789107	2899.535581
711.123216	2905.554719
711.457275	2912.819022
711.791286	2921.313366
712.125247	2926.664551
712.459159	2924.426278
712.793023	2935.562187
713.126837	2913.353384
713.460602	2916.453693
713.794318	2906.694020
714.127985	2900.773184
714.461602	2884.008827
714.795171	2877.772920
715.128691	2857.131916
715.462162	2846.328723
715.795584	2838.083916
716.128957	2829.040086
716.462281	2818.925011
716.795556	2813.314206
717.128782	2805.475212
717.461960	2791.919549
717.795088	2791.453243
718.128167	2784.902263
718.461198	2773.889863
718.794180	2771.351642
719.127113	2768.087495
719.459997	2760.740013
719.792833	2751.681059
720.125619	2752.346492
720.458357	2745.440111
720.791046	2743.448855
721.123686	2740.409039
721.456278	2735.947618
721.788821	2736.514748
722.121315	2728.015363
722.453761	2729.920919
722.786158	2726.288767
723.118506	2727.556618
723.450805	2723.803479
723.783056	2725.903119
724.115259	2723.470762
724.447412	2722.129816
724.779518	2723.795917
725.111574	2724.710886
725.443582	2726.407235
725.775542	2723.748026
726.107453	2731.329921
726.439315	2727.836402
726.771129	2737.318812
727.102895	2733.147257
727.434612	2739.819224
727.766281	2736.126579
728.097901	2747.418764
728.429473	2747.983373
728.760996	2747.907756
729.092471	2749.972108
729.423897	2746.019844
729.755276	2741.497929
730.086606	2740.716550
730.417887	2748.910945
730.749120	2755.270361
731.080305	2759.918305
731.411442	2763.578182
731.742530	2763.384098
732.073570	2765.088008
732.404562	2768.541198
732.735506	2764.374685
733.066401	2761.526433
733.397249	2757.511154
733.728048	2747.587642
734.058798	2739.136148
734.389501	2727.034858
734.720156	2720.055381
735.050762	2714.089175
735.381320	2707.306303
735.711831	2700.130220
736.042293	2692.606298
736.372707	2695.497400
736.703073	2688.938859
737.033391	2694.428675
737.363661	2689.016997
737.693883	2692.165197
738.024056	2693.095290
738.354182	2694.219467
738.684260	2696.556042
739.014290	2702.323122
739.344272	2701.219109
739.674207	2708.493494
740.004093	2709.466437
740.333931	2709.824359
740.663722	2710.825028
740.993464	2709.121118
741.323159	2705.413349
741.652806	2703.578369
741.982405	2700.488142
742.311956	2696.460260
742.641460	2693.642255
742.970915	2691.197296
743.300323	2682.274453
743.629683	2677.737415
743.958996	2675.728515
744.288260	2668.602844
744.617477	2669.353976
744.946647	2670.702485
745.275768	2664.872390
745.604842	2661.819972
745.933869	2658.916267
746.262847	2656.766215
746.591778	2656.090700
746.920662	2651.883857
747.249498	2651.309166
747.578286	2654.817809
747.907027	2656.544404
748.235720	2657.890392
748.564365	2660.736123
748.892963	2658.560866
749.221514	2659.357368
749.550017	2657.025834
749.878473	2655.710093
750.206881	2654.928714
750.535242	2653.103817
750.863555	2651.712458
751.191821	2649.416212
751.520039	2650.482417
751.848210	2645.658032
752.176334	2646.157107
752.504411	2644.906900
752.832440	2643.805408
753.160421	2644.962353
753.488356	2641.524286
753.816243	2643.634009
754.144082	2643.288690
754.471875	2638.043369
754.799620	2637.014974
755.127318	2636.742752
755.454969	2637.362814
755.782572	2634.380971
756.110129	2633.584469
756.437638	2632.122534
756.765100	2634.018008
757.092515	2633.949953
757.419882	2635.880714
757.747203	2636.029428
758.074477	2633.483646
758.401703	2635.553039
758.728882	2635.389202
759.056014	2639.568318
759.383099	2637.579583
759.710138	2638.313071
760.037129	2636.793163
760.364073	2640.969759
760.690970	2637.440952
761.017820	2642.028402
761.344623	2643.863382
761.671379	2646.396561
761.998088	2650.361429
762.324751	2668.330622
762.651366	2697.889427
762.977935	2744.482292
763.304456	2780.955040
763.630931	2799.299799
763.957359	2793.520116
764.283740	2776.574277
764.610074	2750.380442
764.936362	2720.771225
765.262602	2699.963862
765.588796	2680.431912
765.914943	2662.802997
766.241044	2648.591984
766.567097	2638.479429
766.893104	2628.432410
767.219064	2623.111472
767.544978	2614.642333
767.870845	2608.242588
768.196665	2606.954574
768.522438	2604.345777
768.848165	2600.022987
769.173846	2597.893100
769.499479	2595.803541
769.825066	2592.889754
770.150607	2592.617532
770.476101	2587.992273
770.801548	2590.253231
771.126949	2587.127716
771.452303	2587.896492
771.777611	2581.564802
772.102872	2583.011613
772.428087	2582.855338
772.753256	2579.883577
773.078378	2578.262847
773.403453	2575.825449
773.728482	2571.638770
774.053465	2572.742783
774.378401	2570.189439
774.703291	2570.370920
775.028135	2567.812535
775.352932	2570.297823
775.677683	2567.396639
776.002388	2563.348593
776.327046	2558.947666
776.651658	2560.661658
776.976224	2556.490103
777.300743	2560.374312
777.625216	2560.535629
777.949643	2561.979920
778.274024	2558.340207
778.598359	2557.992367
778.922647	2557.158056
779.246889	2560.278530
779.571086	2557.463046
779.895236	2559.572769
780.219339	2558.456153
780.543397	2557.838612
780.867409	2560.046637
781.191374	2561.415310
781.515294	2556.359033
781.839167	2559.214847
782.162995	2561.087635
782.486776	2559.466904
782.810511	2560.432285
783.134201	2558.181410
783.457844	2556.805175
783.781441	2557.866338
784.104993	2559.184600
784.428498	2558.274672
784.751958	2553.556152
785.075372	2554.196378
785.398739	2555.680998
785.722061	2558.075546
786.045337	2557.188303
786.368568	2557.889023
786.691752	2557.316852
787.014891	2560.724672
787.337983	2566.176680
787.661030	2567.724314
787.984031	2576.931982
788.306987	2584.171079
788.629897	2585.958168
788.952760	2584.549165
789.275579	2581.927765
789.598351	2578.018351
789.921078	2574.015674
790.243759	2572.795715
790.566395	2566.562328
790.888984	2563.724159
791.211529	2561.087635
791.534027	2559.058571
791.856480	2557.175700
792.178888	2554.098076
792.501249	2549.964329
792.823566	2553.316697
793.145836	2546.596839
793.468062	2553.682180
793.790241	2548.855276
794.112375	2552.565565
794.434464	2553.021789
794.756507	2553.387273
795.078505	2552.346275
795.400457	2559.844991
795.722364	2559.993705
796.044226	2567.177349
796.366042	2569.163564
796.687812	2571.235478
797.009538	2569.987792
797.331218	2568.445199
797.652852	2568.031825
797.974442	2570.007957
798.295986	2564.649211
798.617484	2562.481514
798.938938	2558.093190
799.260346	2561.669889
799.581709	2561.581668
799.903026	2561.664848
800.224299	2558.188972
800.545526	2557.692418
800.866708	2551.781665
801.187845	2553.803168
801.508936	2549.286294
801.829983	2550.284443
802.150984	2544.378731
802.471940	2550.634803
802.792851	2547.615152
803.113717	2548.706562
803.434538	2546.889226
803.755314	2543.725902
804.076045	2546.032229
804.396731	2546.037271
804.717372	2544.897970
805.037967	2547.088351
805.358518	2542.783206
805.679024	2547.093392
805.999485	2544.968546
806.319901	2543.932589
806.640272	2544.398896
806.960598	2547.801674
807.280879	2548.875440
807.601115	2552.812581
807.921306	2547.509288
808.241453	2545.903680
808.561554	2543.849410
808.881611	2550.203784
809.201623	2545.855789
809.521590	2548.653629
809.841513	2547.070707
810.161390	2549.601366
810.481223	2547.083310
810.801011	2547.020296
811.120755	2547.358053
811.440453	2546.014585
811.760107	2543.345294
812.079716	2547.206818
812.399281	2546.748073
812.718801	2544.207332
813.038276	2542.861344
813.357707	2544.245140
813.677093	2544.333361
813.996434	2543.488967
814.315731	2543.622558
814.634983	2543.408309
814.954191	2543.730943
815.273354	2544.167002
815.592473	2547.284956
815.911547	2547.020296
816.230577	2551.380894
816.549562	2551.191850
816.868502	2551.511964
817.187399	2554.377860
817.506250	2556.462377
817.825058	2554.856769
818.143821	2560.865825
818.462539	2565.821279
818.781213	2567.429407
819.099843	2576.407702
819.418429	2585.927921
819.736970	2599.430652
820.055466	2613.132508
820.373919	2630.693367
820.692327	2656.642707
821.010691	2697.796166
821.329011	2791.244035
821.647286	2950.509208
821.965517	3158.756753
822.283704	3307.380051
822.601847	3393.699728
822.919945	3335.360975
823.237999	3250.344436
823.556010	3148.815598
823.873976	3058.851166
824.191897	2970.179791
824.509775	2897.995509
824.827609	2840.359997
825.145398	2795.934828
825.463144	2775.787857
825.780845	2768.863832
826.098502	2781.965791
826.416116	2817.044660
826.733685	2863.551825
827.051210	2890.148953
827.368692	2877.404916
827.686129	2837.221878
828.003522	2789.509878
828.320872	2743.400964
828.638177	2706.809749
828.955439	2678.801098
829.272656	2651.503250
829.589830	2630.224540
829.906960	2614.874226
830.224046	2599.440734
830.541088	2588.244331
830.858086	2581.048084
831.175041	2575.407033
831.491952	2572.175653
831.808819	2573.093143
832.125642	2575.104564
832.442421	2586.399269
832.759157	2605.129676
833.075849	2635.187556
833.392497	2678.793537
833.709101	2709.922662
834.025662	2716.249310
834.342179	2700.735159
834.658653	2673.984276
834.975083	2654.427119
835.291469	2633.342493
835.607811	2614.264247
835.924110	2600.055755
836.240366	2586.749629
836.556578	2576.185891
836.872746	2567.404201
837.188871	2558.504044
837.504952	2553.886347
837.820990	2548.005841
838.136984	2539.171219
838.452935	2541.661549
838.768842	2539.466127
839.084706	2541.835469
839.400526	2556.522871
839.716303	2580.506160
840.032037	2596.000146
840.347727	2597.807400
840.663373	2590.797676
840.978977	2570.005437
841.294537	2564.402194
841.610054	2559.187120
841.925527	2550.165976
842.240957	2542.054759
842.556344	2539.534182
842.871687	2534.039324
843.186987	2528.942718
843.502244	2525.010618
843.817458	2522.406862
844.132629	2519.503157
844.447756	2518.981398
844.762840	2516.569206
845.077881	2516.226407
845.392879	2516.745646
845.707833	2514.285563
846.022745	2513.728516
846.337613	2515.006448
846.652438	2512.344719
846.967221	2510.482013
847.281960	2510.537465
847.596656	2512.584174
847.911309	2511.893536
848.225919	2507.689213
848.540485	2510.547548
848.855009	2511.233144
849.169490	2507.772392
849.483928	2509.357835
849.798323	2509.451097
850.112675	2510.232475
850.426984	2511.109636
850.741251	2510.930675
851.055474	2507.064110
851.369654	2511.215500
851.683792	2509.274656
851.997887	2508.831035
852.311938	2510.965963
852.625947	2510.061076
852.939914	2508.470592
853.253837	2510.393792
853.567718	2510.550068
853.881555	2508.926817
854.195350	2511.858247
854.509103	2507.890859
854.822812	2509.415808
855.136479	2509.461179
855.450103	2506.381034
855.763685	2509.501508
856.077224	2502.960611
856.390720	2508.019409
856.704173	2505.793739
857.017584	2510.086282
857.330953	2509.519152
857.644278	2508.515962
857.957561	2512.236334
858.270802	2510.434122
858.584000	2510.381189
858.897155	2510.739111
859.210268	2508.329440
859.523339	2509.486385
859.836367	2507.427073
860.149352	2512.488392
860.462295	2511.114677
860.775195	2510.582836
861.088054	2511.339009
861.400869	2512.004441
861.713642	2510.897908
862.026373	2509.181395
862.339062	2511.328926
862.651708	2508.457989
862.964312	2511.459996
863.276873	2513.398320
863.589392	2510.643329
863.901869	2511.298679
864.214303	2511.061745
864.526696	2516.624658
864.839045	2516.430574
865.151353	2515.674401
865.463619	2515.944103
865.775842	2515.626510
866.088023	2514.434277
866.400162	2514.570388
866.712258	2518.641120
867.024313	2516.387724
867.336325	2515.324041
867.648296	2515.288753
867.960224	2516.468383
868.272110	2517.534587
868.583954	2518.789834
868.895755	2518.333610
869.207515	2517.668177
869.519233	2516.296983
869.830909	2516.634741
870.142542	2518.336130
870.454134	2515.744977
870.765684	2516.952333
871.077191	2522.212778
871.388657	2519.551048
871.700081	2520.849145
872.011463	2520.839063
872.322803	2519.735050
872.634101	2521.875020
872.945357	2523.929290
873.256571	2526.785104
873.567744	2526.873324
873.878874	2526.391894
874.189963	2524.753519
874.501010	2527.851308
874.812015	2528.647810
875.122979	2530.006401
875.433900	2528.892306
875.744780	2527.412728
876.055618	2529.164529
876.366415	2531.276772
876.677169	2527.770650
876.987882	2533.036135
877.298554	2531.901875
877.609183	2534.898841
877.919771	2537.147196
878.230317	2541.487629
878.540822	2544.855120
878.851285	2548.467107
879.161707	2559.658468
879.472087	2570.955694
879.782425	2590.588468
880.092722	2625.274127
880.402977	2677.439987
880.713191	2749.452869
881.023363	2828.152843
881.333494	2883.963457
881.643583	2912.841707
881.953631	2914.018816
882.263637	2899.785118
882.573602	2874.717981
882.883526	2845.887622
883.193408	2816.921152
883.503248	2784.037705
883.813048	2759.114241
884.122806	2733.021228
884.432522	2704.301775
884.742197	2679.874864
885.051831	2657.618170
885.361424	2635.726959
885.670975	2619.728857
885.980485	2605.033894
886.289954	2594.119796
886.599382	2581.637899
886.908768	2571.593400
887.218113	2562.579817
887.527417	2558.206616
887.836680	2544.802188
888.145901	2550.065153
888.455082	2544.416540
888.764221	2540.796991
889.073319	2538.384799
889.382376	2539.498894
889.691392	2534.646783
890.000366	2538.157947
890.309300	2535.045035
890.618193	2538.765406
890.927044	2535.231557
891.235855	2534.944212
891.544625	2534.614016
891.853353	2536.464119
892.162041	2541.961498
892.470687	2542.032074
892.779293	2542.924358
893.087858	2553.568754
893.396381	2563.129303
893.704864	2576.682445
894.013306	2597.502410
894.321707	2620.452263
894.630068	2639.026394
894.938387	2647.591315
895.246665	2646.527631
895.554903	2636.989768
895.863100	2625.775722
896.171256	2612.192332
896.479371	2605.101950
896.787446	2598.175404
897.095480	2583.513208
897.403473	2581.685790
897.711425	2572.125242
898.019336	2568.402350
898.327207	2563.575445
898.635038	2555.131512
898.942827	2550.637323
899.250576	2548.164637
899.558284	2542.967208
899.865952	2539.987886
900.173579	2536.748945
900.481165	2533.399098
900.788711	2531.304498
901.096216	2527.992460
901.403681	2529.207378
901.711105	2529.686288
902.018489	2526.800227
902.325832	2530.639066
902.633135	2526.906092
902.940397	2533.094108
903.247619	2546.642209
903.554800	2578.645974
903.861941	2620.250617
904.169041	2653.043323
904.476101	2674.072496
904.783121	2668.935560
905.090100	2659.387615
905.397039	2644.191057
905.703938	2625.387553
906.010796	2611.196705
906.317614	2599.556680
906.624391	2588.806420
906.931129	2578.361149
907.237826	2567.021073
907.544483	2560.918757
907.851099	2551.564896
908.157675	2542.009389
908.464211	2536.864891
908.770707	2531.377595
909.077163	2524.917357
909.383578	2520.987777
909.689954	2519.178003
909.996289	2517.635410
910.302584	2515.180368
910.608839	2513.685666
910.915054	2515.336644
911.221229	2512.397651
911.527363	2512.105264
911.833458	2514.227590
912.139513	2514.283042
912.445527	2513.637775
912.751502	2516.909484
913.057436	2519.926614
913.363331	2522.343847
913.669186	2522.041378
913.975000	2527.962213
914.280775	2540.514687
914.586510	2550.886861
914.892205	2567.910837
915.197859	2590.979157
915.503475	2615.348095
915.809050	2641.819194
916.114585	2657.658499
916.420081	2669.860612
916.725536	2671.073009
917.030952	2666.977072
917.336328	2653.640699
917.641665	2644.407826
917.946961	2634.370889
918.252218	2627.048613
918.557435	2609.608741
918.862612	2607.163782
919.167750	2596.224478
919.472848	2586.212746
919.777906	2579.681931
920.082925	2566.280024
920.387904	2559.126627
920.692843	2549.447611
920.997743	2547.524411
921.302603	2541.175078
921.607423	2538.954449
921.912204	2532.501773
922.216946	2530.578572
922.521647	2523.546163
922.826310	2522.542973
923.130932	2523.946934
923.435516	2519.719927
923.740059	2517.322858
924.044564	2515.865965
924.349028	2515.351767
924.653454	2514.184740
924.957840	2509.193998
925.262186	2508.972187
925.566493	2507.520335
925.870761	2506.101250
926.174989	2506.980931
926.479178	2503.227792
926.783328	2502.580004
927.087438	2500.669407
927.391509	2500.687051
927.695541	2503.520179
927.999533	2499.439365
928.303486	2499.567914
928.607400	2500.936588
928.911275	2499.988851
929.215110	2498.332832
929.518906	2497.874087
929.822663	2500.127482
930.126381	2499.126813
930.430060	2498.615136
930.733699	2499.933398
931.037299	2498.650424
931.340861	2499.487256
931.644383	2499.028511
931.947866	2500.858450
932.251309	2498.622698
932.554714	2499.951042
932.858080	2496.046668
933.161407	2495.792090
933.464694	2497.506082
933.767943	2492.795124
934.071153	2497.856443
934.374323	2496.139930
934.677455	2498.652945
934.980548	2497.528768
935.283602	2496.759992
935.586617	2494.791421
935.889593	2497.816113
936.192530	2495.882831
936.495428	2497.339724
936.798287	2499.204951
937.101108	2498.552122
937.403890	2500.656804
937.706632	2497.223778
938.009336	2502.529592
938.312002	2504.533451
938.614628	2508.367248
938.917216	2508.329440
939.219765	2509.516632
939.522275	2509.423370
939.824747	2512.357322
940.127179	2509.753566
940.429573	2511.467558
940.731929	2510.950840
941.034246	2510.660973
941.336524	2508.508401
941.638763	2509.541837
941.940964	2509.471261
942.243126	2508.079903
942.545250	2507.984121
942.847335	2506.350787
943.149381	2505.294665
943.451389	2504.377175
943.753359	2503.116887
944.055290	2503.729387
944.357182	2501.234016
944.659036	2501.662514
944.960851	2502.075888
945.262628	2502.784171
945.564367	2502.869870
945.866067	2499.073881
946.167729	2499.845178
946.469352	2500.825682
946.770937	2501.445744
947.072484	2501.755775
947.373992	2500.109838
947.675462	2499.736793
947.976893	2497.780825
948.278286	2495.121617
948.579641	2497.241422
948.880958	2495.068685
949.182236	2497.760661
949.483476	2497.211175
949.784678	2497.112873
950.085841	2500.329129
950.386967	2498.262256
950.688054	2499.194869
950.989103	2499.043634
951.290114	2502.390961
951.591087	2498.975579
951.892021	2499.572956
952.192917	2503.580673
952.493776	2501.745693
952.794596	2506.002947
953.095378	2505.128307
953.396122	2504.790550
953.696828	2503.588235
953.997496	2500.971876
954.298126	2501.607061
954.598718	2501.559170
954.899272	2503.283245
955.199788	2501.491115
955.500266	2499.928357
955.800706	2499.204951
956.101108	2496.147492
956.401472	2496.739827
956.701798	2497.823675
957.002087	2493.256390
957.302337	2493.379898
957.602550	2493.263952
957.902724	2492.210350
958.202861	2489.021821
958.502960	2491.872593
958.803022	2490.692963
959.103045	2489.072232
959.403031	2488.926039
959.702979	2487.587612
960.002889	2487.809423
960.302762	2487.023003
960.602596	2487.625421
960.902393	2489.651965
961.202153	2488.200113
961.501875	2485.840853
961.801559	2486.569299
962.101205	2486.274392
962.400814	2485.858497
962.700385	2484.119298
962.999918	2484.303301
963.299414	2481.613845
963.598873	2482.412868
963.898293	2480.053608
964.197677	2483.758856
964.497022	2485.220791
964.796331	2485.946717
965.095601	2483.489154
965.394835	2483.433702
965.694030	2481.896150
965.993189	2484.348671
966.292309	2482.929586
966.591393	2485.281284
966.890439	2482.453197
967.189447	2485.820688
967.488419	2481.802888
967.787353	2481.651654
968.086249	2483.781541
968.385108	2484.308342
968.683930	2480.529997
968.982714	2485.230873
969.281462	2484.890595
969.580172	2483.887405
969.878844	2484.835142
970.177480	2482.644761
970.476078	2485.762715
970.774639	2484.207519
971.073162	2484.638537
971.371649	2485.727427
971.670098	2483.849597
971.968510	2484.298259
972.266885	2485.830770
972.565223	2485.896305
972.863524	2487.643065
973.161788	2484.419247
973.460014	2485.848414
973.758204	2485.195585
974.056356	2484.633496
974.354471	2485.571151
974.652550	2486.410503
974.950591	2485.092241
975.248595	2484.560399
975.546563	2483.587457
975.844493	2484.308342
976.142386	2484.346150
976.440243	2483.189206
976.738062	2483.658033
977.035845	2484.714155
977.333590	2483.330358
977.631299	2485.493013
977.928971	2481.180306
978.226606	2479.587301
978.524204	2481.202991
978.821765	2480.512353
979.119290	2481.886067
979.416777	2483.239617
979.714228	2484.290698
980.011642	2483.229535
980.309020	2485.588795
980.606360	2484.651140
980.903664	2483.806747
981.200931	2486.407982
981.498162	2488.505102
981.795356	2490.070381
982.092513	2493.016935
982.389633	2495.313181
982.686717	2497.828716
982.983764	2503.618482
983.280775	2503.578152
983.577749	2503.164778
983.874686	2502.408605
984.171587	2503.406753
984.468451	2502.978255
984.765279	2499.567914
985.062070	2496.107162
985.358824	2500.298882
985.655543	2494.216730
985.952224	2489.926708
986.248869	2492.510299
986.545478	2486.642396
986.842050	2484.794813
987.138586	2483.466469
987.435086	2485.573671
987.731549	2482.417909
988.027975	2481.152579
988.324366	2480.139307
988.620719	2479.330202
988.917037	2477.901035
989.213318	2478.644605
989.509563	2476.154275
989.805772	2480.688793
990.101944	2477.200315
990.398080	2479.123515
990.694180	2479.436067
990.990244	2479.133597
991.286271	2477.028916
991.582262	2477.671663
991.878217	2477.573360
992.174136	2478.279122
992.470019	2477.923720
992.765865	2475.539255
993.061676	2474.422639
993.357450	2478.826087
993.653188	2473.174953
993.948890	2478.437918
994.244556	2478.198463
994.540186	2480.388845
994.835780	2482.793475
995.131337	2481.359267
995.426859	2482.299442
995.722345	2486.213898
996.017795	2487.718682
996.313208	2490.970227
996.608586	2491.431492
996.903928	2492.361585
997.199234	2489.898981
997.494504	2492.132212
997.789738	2489.450319
998.084936	2491.756647
998.380099	2488.179948
998.675225	2486.145842
998.970316	2484.482262
999.265371	2485.614001
999.560390	2483.771459
999.855373	2483.872282
1000.150320	2480.988742
1000.445232	2479.635192
1000.740108	2478.798361
1001.034948	2478.175778
1001.329752	2478.876498
1001.624521	2478.160655
1001.919254	2478.004379
1002.213951	2478.994966
1002.508613	2476.408854
1002.803239	2476.885243
1003.097829	2475.816518
1003.392384	2477.853144
1003.686903	2474.094964
1003.981386	2475.060345
1004.275834	2474.120170
1004.570246	2472.602783
1004.864623	2473.623616
1005.158964	2475.289718
1005.453270	2474.893987
1005.747540	2473.865592
1006.041775	2474.092443
1006.335974	2472.786785
1006.630138	2474.679738
1006.924266	2474.256281
1007.218359	2471.534058
1007.512416	2473.099336
1007.806438	2469.068934
1008.100425	2471.140848
1008.394376	2469.545323
1008.688292	2473.565643
1008.982172	2473.656384
1009.276017	2472.801908
1009.569827	2472.607824
1009.863602	2472.683441
1010.157341	2473.127063
1010.451045	2471.667648
1010.744714	2472.522124
1011.038347	2472.741414
1011.331945	2473.931127
1011.625508	2471.289562
1011.919036	2471.927268
1012.212528	2469.948615
1012.505986	2474.326857
1012.799408	2473.905921
1013.092795	2471.937350
1013.386147	2472.829634
1013.679464	2469.250415
1013.972745	2473.404326
1014.265992	2474.077320
1014.559204	2470.034315
1014.852380	2471.183698
1015.145521	2472.917855
1015.438628	2471.944912
1015.731699	2473.275777
1016.024736	2472.328040
1016.317737	2473.391723
1016.610703	2473.187556
1016.903635	2474.750314
1017.196531	2471.879377
1017.489393	2472.053297
1017.782219	2471.753348
1018.075011	2473.243009
1018.367768	2469.089098
1018.660490	2470.553553
1018.953177	2470.553553
1019.245829	2470.553553
