Dividing Wavelength (nm)	Counts (n)	Blue Motor Position (mm): 0.000000	Red Motor Position (mm): 21.000000	
326.493990	2052.228525
326.888308	2052.228525
327.282561	2052.228525
327.676750	2026.236336
328.070874	2029.094670
328.464933	2033.256142
328.858929	2042.085723
329.252859	2054.471838
329.646726	2062.325956
330.040528	2083.574420
330.434265	2098.040011
330.827938	2122.240070
331.221547	2142.828142
331.615091	2160.225164
332.008571	2182.494461
332.401986	2201.371062
332.795338	2220.960985
333.188625	2238.693244
333.581847	2259.019176
333.975006	2281.134718
334.368100	2296.268262
334.761129	2313.448514
335.154095	2326.580720
335.546996	2343.486230
335.939833	2359.759074
336.332606	2371.424304
336.725315	2383.213043
337.117960	2396.874569
337.510540	2403.869170
337.903056	2414.868968
338.295508	2423.496903
338.687896	2427.774322
339.080220	2433.528799
339.472480	2438.607762
339.864676	2439.207659
340.256807	2443.480037
340.648875	2445.405758
341.040879	2448.246448
341.432818	2449.325255
341.824694	2451.724844
342.216506	2448.259051
342.608253	2448.818619
342.999937	2447.172682
343.391557	2447.540686
343.783113	2447.560851
344.174605	2445.219235
344.566033	2443.848041
344.957397	2444.402568
345.348697	2438.277566
345.739934	2439.164809
346.131106	2439.379058
346.522215	2434.844540
346.913260	2432.694488
347.304241	2432.765064
347.695159	2429.158119
348.086012	2428.533016
348.476802	2428.827923
348.867528	2424.447160
349.258191	2423.310380
349.648789	2421.276275
350.039324	2417.165214
350.429796	2424.106882
350.820203	2421.314083
351.210548	2421.414906
351.600828	2420.237797
351.991045	2419.902560
352.381198	2420.542787
352.771288	2421.672005
353.161314	2419.151428
353.551276	2419.942889
353.941175	2416.850142
354.331010	2420.746953
354.720782	2417.931469
355.110490	2421.467838
355.500135	2417.538259
355.889717	2420.928435
356.279235	2419.310225
356.668689	2421.233425
357.058080	2420.636048
357.447408	2421.813157
357.836672	2422.521440
358.225873	2422.833991
358.615010	2424.379105
359.004084	2423.111255
359.393095	2423.229722
359.782043	2424.719383
360.170927	2429.117789
360.559748	2425.132757
360.948505	2428.167532
361.337199	2428.901020
361.725830	2426.050247
362.114398	2426.665268
362.502903	2428.134764
362.891344	2429.445464
363.279722	2430.007553
363.668037	2430.304981
364.056289	2431.179621
364.444478	2431.890424
364.832603	2432.260949
365.220665	2432.926381
365.608665	2429.261462
365.996601	2433.266659
366.384474	2433.090219
366.772284	2434.574838
367.160031	2433.425455
367.547715	2434.963007
367.935336	2433.090219
368.322893	2433.150712
368.710388	2429.430341
369.097820	2436.084664
369.485189	2429.735331
369.872495	2439.772268
370.259738	2435.139448
370.646918	2438.466609
371.034035	2438.804367
371.421090	2440.213369
371.808081	2439.550457
372.195010	2441.902156
372.581875	2444.193360
372.968678	2443.853082
373.355418	2445.519183
373.742096	2447.805347
374.128710	2450.073866
374.515262	2453.234669
374.901751	2454.177365
375.288177	2459.483180
375.674540	2462.651545
376.060841	2466.538274
376.447079	2468.509366
376.833254	2478.516056
377.219367	2478.400109
377.605417	2487.809423
377.991404	2488.900833
378.377329	2500.339211
378.763191	2504.598986
379.148991	2513.796571
379.534727	2521.101203
379.920402	2529.668644
380.306013	2539.753472
380.691563	2553.331820
381.077049	2564.256001
381.462474	2571.485015
381.847835	2585.650657
382.233134	2601.701691
382.618371	2612.709051
383.003545	2629.236474
383.388657	2645.088382
383.773706	2662.422389
384.158693	2675.839420
384.543618	2695.106710
384.928480	2708.564071
385.313280	2731.100549
385.698017	2749.329361
386.082692	2771.830551
386.467305	2787.450567
386.851856	2814.491316
387.236344	2840.748166
387.620770	2854.303828
388.005133	2874.942312
388.389435	2909.199473
388.773674	2922.114909
389.157851	2956.785445
389.541965	2985.265443
389.926018	2995.042761
390.310008	3028.997453
390.693936	3055.589540
391.077802	3084.619024
391.461606	3113.971142
391.845348	3134.889410
392.229027	3159.540652
392.612645	3200.621015
392.996200	3232.937332
393.379694	3267.610388
393.763125	3311.266780
394.146494	3337.087570
394.529801	3375.501163
394.913047	3418.764345
395.296230	3422.025972
395.679351	3447.821556
396.062410	3499.203516
396.445408	3475.817604
396.828343	3518.919469
397.211217	3551.616393
397.594028	3529.342055
397.976778	3574.853592
398.359466	3607.260649
398.742092	3616.924541
399.124656	3632.232005
399.507158	3693.476983
399.889598	3696.083259
400.271977	3762.699587
400.654294	3755.301693
401.036549	3815.309068
401.418742	3808.886638
401.800874	3882.885736
402.182944	3908.086464
402.564952	3991.872961
402.946898	3987.895491
403.328783	3979.985920
403.710606	4030.241183
404.092367	4102.697687
404.474067	4167.287471
404.855705	4150.752486
405.237282	4124.160400
405.618797	4220.176737
406.000250	4296.593067
406.381642	4381.949884
406.762972	4378.947877
407.144240	4345.335984
407.525447	4413.908279
407.906593	4425.818005
408.287677	4512.394781
408.668700	4543.851581
409.049661	4575.971293
409.430560	4616.066110
409.811399	4596.876958
410.192176	4646.872601
410.572891	4730.412082
410.953545	4835.280685
411.334138	4731.332092
411.714669	4844.188404
412.095139	4756.081637
412.475547	4867.778483
412.855894	4874.339545
413.236180	4969.950069
413.616405	4896.853338
413.996568	5003.564483
414.376670	5004.928115
414.756711	5000.905274
415.136691	5070.947065
415.516609	5158.577443
415.896466	5190.298903
416.276262	5267.252117
416.655997	5380.463829
417.035670	5478.073171
417.415283	5612.445126
417.794834	5687.530592
418.174324	5649.457278
418.553753	5643.861597
418.933121	5814.731507
419.312428	5827.127704
419.691674	5747.036372
420.070859	5976.038348
420.449983	5848.915571
420.829045	6040.040837
421.208047	5959.445390
421.586988	6117.846005
421.965867	6180.568041
422.344686	6263.618530
422.723444	6413.681077
423.102141	6034.354415
423.480777	6416.705770
423.859352	6224.695782
424.237866	6580.003866
424.616319	6568.474747
424.994712	6717.009825
425.373044	6617.477283
425.751314	6915.187665
426.129524	6629.525641
426.507673	6872.826849
426.885762	6900.159985
427.263789	6919.515496
427.641756	6982.144270
428.019662	7043.351440
428.397508	7055.528347
428.775292	7018.470825
429.153016	7161.682444
429.530679	7067.977476
429.908282	7083.713438
430.285824	7009.739547
430.663305	7240.573981
431.040726	7106.091120
431.418086	7084.550270
431.795385	7169.546644
432.172624	7306.267777
432.549802	7164.664287
432.926920	7250.152173
433.303977	7164.593710
433.680974	7159.862587
434.057910	7298.307796
434.434786	7304.228631
434.811601	7224.245684
435.188355	7473.969322
435.565050	7330.480439
435.941683	7289.458050
436.318257	7530.271449
436.694770	7434.671007
437.071222	7573.264929
437.447614	7347.088521
437.823946	7262.868484
438.200218	7331.506314
438.576429	7184.594488
438.952580	7259.032166
439.328670	7209.999383
439.704700	7207.256995
440.080670	7077.359064
440.456580	7214.488531
440.832429	7141.888353
441.208218	6898.745942
441.583947	6917.297388
441.959616	6938.167765
442.335224	6901.014461
442.710773	6889.810497
443.086261	6952.993798
443.461689	6701.530962
443.837057	6752.900320
444.212365	6815.035062
444.587612	6741.769452
444.962800	6605.171827
445.337927	6617.623477
445.712995	6279.208299
446.088002	6601.244768
446.462949	6566.884263
446.837837	6484.640359
447.212664	6420.625267
447.587431	6782.272603
447.962139	7232.324133
448.336786	7646.124726
448.711374	7452.052906
449.085901	6752.862511
449.460369	6616.776563
449.834776	6413.113948
450.209124	6747.546614
450.583412	6580.288692
450.957640	6639.071066
451.331808	6368.726588
451.705917	6024.924937
452.079965	5892.854268
452.453954	5881.980499
452.827883	5778.392349
453.201752	5677.561711
453.575562	5599.517087
453.949311	5642.341689
454.323001	5578.460188
454.696632	5464.111695
455.070202	5573.000618
455.443713	5504.047716
455.817164	5467.544721
456.190556	5474.415813
456.563888	5352.258573
456.937160	5339.280123
457.310373	5103.928814
457.683526	5019.890259
458.056619	4938.120223
458.429653	4866.712279
458.802628	4815.365607
459.175542	4739.972630
459.548398	4778.895379
459.921194	4818.138241
460.293930	4799.208708
460.666607	4892.447369
461.039224	4959.774500
461.411782	4934.089821
461.784280	4777.241881
462.156719	4669.908153
462.529099	4558.233993
462.901419	4364.983881
463.273680	4219.894432
463.645882	4163.100793
464.018024	4069.345413
464.390106	4036.507337
464.762130	4098.780711
465.134094	4215.062486
465.505999	4403.294129
465.877845	4568.454932
466.249631	4596.327472
466.621358	4446.816931
466.993026	4266.066360
467.364634	4102.874128
467.736184	3948.977783
468.107674	3819.178154
468.479105	3740.367275
468.850477	3651.912669
469.221790	3559.447825
469.593043	3459.305304
469.964238	3378.873695
470.335373	3327.569872
470.706449	3313.341215
471.077467	3306.893579
471.448425	3370.893548
471.819324	3407.484763
472.190164	3359.208153
472.560945	3248.237234
472.931667	3146.264774
473.302330	3092.553800
473.672934	3040.639998
474.043479	3017.004548
474.413965	2982.676811
474.784393	2951.295628
475.154761	2939.426232
475.525070	2918.228180
475.895321	2891.419323
476.265513	2882.219218
476.635645	2872.482229
477.005719	2854.008921
477.375734	2840.922085
477.745691	2835.419666
478.115588	2829.357678
478.485427	2833.193997
478.855207	2847.896522
479.224928	2856.209384
479.594591	2860.890096
479.964194	2843.498115
480.333739	2836.256498
480.703226	2826.176710
481.072653	2819.398879
481.442022	2815.048363
481.811333	2808.953608
482.180584	2791.085238
482.549777	2780.513939
482.918912	2767.724532
483.287988	2763.212699
483.657005	2755.819847
484.025964	2749.614186
484.394864	2740.663618
484.763706	2735.025087
485.132489	2725.141905
485.501213	2718.507747
485.869879	2718.966492
486.238487	2714.041284
486.607036	2710.855275
486.975527	2702.829758
487.343959	2702.212217
487.712333	2700.616692
488.080648	2695.315918
488.448905	2693.281813
488.817104	2690.342820
489.185244	2693.717872
489.553326	2696.109900
489.921350	2705.574666
490.289315	2719.291646
490.657222	2719.538662
491.025070	2720.148642
491.392861	2716.395503
491.760593	2709.048021
492.128267	2697.523944
492.495883	2689.354754
492.863440	2678.536438
493.230939	2672.938236
493.598380	2663.286947
493.965763	2661.671257
494.333088	2655.468118
494.700354	2652.130874
495.067563	2652.599701
495.434713	2646.749442
495.801805	2648.823877
496.168839	2644.238947
496.535815	2638.895324
496.902733	2638.615540
497.269593	2638.025725
497.636395	2636.094963
498.003139	2638.063534
498.369825	2634.693523
498.736453	2635.598410
499.103023	2635.752165
499.469535	2634.832154
499.835989	2633.256794
500.202385	2629.138171
500.568723	2623.910495
500.935003	2626.584827
501.301226	2625.483335
501.667390	2630.857205
502.033497	2634.443986
502.399546	2631.872997
502.765537	2628.064405
503.131470	2627.905609
503.497345	2629.382667
503.863163	2627.046092
504.228923	2627.003242
504.594625	2630.892493
504.960269	2625.987450
505.325856	2627.900568
505.691385	2624.936369
506.056856	2627.638428
506.422270	2629.344858
506.787625	2627.487193
507.152924	2629.443161
507.518164	2628.056844
507.883347	2626.967954
508.248472	2625.947121
508.613540	2626.887296
508.978550	2626.231946
509.343503	2628.482821
509.708398	2628.649179
510.073236	2631.487349
510.438016	2632.442647
510.802738	2629.112965
511.167403	2628.916360
511.532010	2631.376443
511.896561	2636.044552
512.261053	2636.815848
512.625488	2634.227216
512.989866	2633.665127
513.354186	2635.182515
513.718449	2631.111783
514.082655	2636.263842
514.446803	2633.566825
514.810894	2637.032618
515.174927	2638.252577
515.538904	2637.629995
515.902822	2637.168729
516.266684	2635.124541
516.630488	2639.008750
516.994235	2634.572535
517.357925	2636.921713
517.721558	2640.377424
518.085133	2637.347690
518.448651	2638.043369
518.812112	2632.218316
519.175516	2637.037659
519.538863	2636.304171
519.902152	2639.926240
520.265385	2641.231899
520.628560	2641.783906
520.991678	2640.092598
521.354739	2638.963380
521.717743	2642.356077
522.080690	2640.876498
522.443580	2643.024029
522.806413	2642.373721
523.169189	2643.996972
523.531908	2644.987559
523.894569	2641.771303
524.257174	2640.034625
524.619722	2642.192239
524.982213	2641.670480
525.344647	2641.909934
525.707025	2641.824235
526.069345	2641.864564
526.431608	2640.543782
526.793815	2644.223824
527.155964	2638.144192
527.518057	2642.769451
527.880093	2640.470685
528.242072	2640.400109
528.603995	2637.309882
528.965860	2635.157309
529.327669	2638.580252
529.689421	2636.485653
530.051117	2635.497587
530.412755	2635.593369
530.774337	2636.853657
531.135862	2634.754017
531.497331	2633.400467
531.858743	2632.745117
532.220098	2635.762247
532.581396	2632.926598
532.942638	2629.838892
533.303824	2630.040538
533.664953	2629.319653
534.026025	2626.589868
534.387040	2628.255969
534.747999	2630.529530
535.108902	2630.005250
535.469748	2626.327728
535.830537	2625.561473
536.191270	2625.632049
536.551947	2623.794548
536.912567	2621.868827
537.273131	2624.444857
537.633638	2619.814557
537.994089	2622.138529
538.354483	2623.333282
538.714821	2624.984260
539.075103	2621.972171
539.435328	2620.164917
539.795497	2621.621811
540.155609	2622.377984
540.515665	2622.791358
540.875665	2618.781121
541.235609	2619.086110
541.595496	2621.301697
541.955328	2621.846142
542.315102	2618.672736
542.674821	2617.891357
543.034483	2616.779782
543.394090	2617.248610
543.753640	2618.055194
544.113134	2621.770525
544.472571	2616.537807
544.831953	2621.457973
545.191278	2615.338012
545.550548	2619.018055
545.909761	2619.431429
546.268918	2622.859414
546.628019	2618.176182
546.987064	2615.406068
547.346053	2613.598814
547.704986	2616.620986
548.063863	2617.515791
548.422684	2616.131994
548.781449	2617.430091
549.140158	2619.882613
549.498811	2616.270626
549.857408	2613.646705
550.215949	2616.358846
550.574434	2615.953033
550.932864	2614.080245
551.291237	2615.761469
551.649555	2616.734412
552.007817	2616.550410
552.366022	2614.246603
552.724173	2615.779113
553.082267	2618.032509
553.440305	2620.038888
553.798288	2618.113168
554.156215	2617.029320
554.514086	2616.142077
554.871902	2612.338526
555.229661	2614.423043
555.587365	2608.522372
555.945014	2615.655605
556.302606	2614.294494
556.660143	2615.544700
557.017625	2618.972684
557.375050	2614.909514
557.732421	2617.057046
558.089735	2616.298352
558.446994	2616.933538
558.804197	2621.369753
559.161345	2617.515791
559.518437	2616.000924
559.875474	2616.086624
560.232455	2617.626696
560.589381	2615.897581
560.946251	2617.225925
561.303065	2618.667695
561.659825	2616.434463
562.016528	2616.439505
562.373177	2613.313989
562.729770	2617.646861
563.086307	2617.266254
563.442789	2617.102416
563.799216	2618.148456
564.155587	2616.678959
564.511904	2614.947323
564.868164	2620.527880
565.224370	2616.081583
565.580520	2615.562344
565.936615	2617.883795
566.292654	2617.011676
566.648638	2615.428753
567.004567	2615.791716
567.360441	2617.825822
567.716260	2617.009155
568.072023	2616.222735
568.427732	2619.602829
568.783385	2615.950513
569.138982	2613.674432
569.494525	2614.002107
569.850013	2618.168620
570.205445	2616.908332
570.560823	2616.240379
570.916145	2612.824997
571.271412	2612.202415
571.626625	2617.278857
571.981782	2614.914556
572.336884	2611.360542
572.691931	2613.082096
573.046923	2611.209307
573.401860	2607.249481
573.756743	2613.750049
574.111570	2612.535131
574.466342	2614.118053
574.821059	2615.395986
575.175722	2611.340377
575.530330	2609.253340
575.884882	2610.876591
576.239380	2611.189143
576.593823	2611.181581
576.948211	2608.789554
577.302544	2607.985490
577.656823	2608.822321
578.011047	2611.960439
578.365216	2607.753597
578.719330	2606.876436
579.073389	2607.221755
579.427394	2611.322733
579.781344	2606.198401
580.135239	2607.526745
580.489080	2604.580190
580.842866	2604.572628
581.196597	2606.999944
581.550273	2607.504059
581.903895	2605.333843
582.257463	2606.611775
582.610975	2606.132866
582.964434	2602.465426
583.317837	2603.740838
583.671186	2605.991713
584.024481	2604.502052
584.377721	2606.193359
584.730906	2605.318719
585.084037	2602.503235
585.437113	2603.362752
585.790135	2604.002978
586.143103	2601.361413
586.496016	2601.971393
586.848874	2604.118925
587.201679	2602.596496
587.554428	2601.328646
587.907124	2600.970724
588.259765	2603.597165
588.612352	2600.879983
588.964884	2598.102307
589.317362	2600.610282
589.669786	2600.201948
590.022155	2598.745055
590.374470	2599.581886
590.726731	2598.185487
591.078937	2596.060640
591.431090	2598.215733
591.783188	2598.548450
592.135232	2595.596854
592.487222	2595.279261
592.839157	2598.369489
593.191038	2595.884200
593.542866	2595.659868
593.894639	2593.197265
594.246358	2596.375712
594.598022	2594.626432
594.949633	2590.976637
595.301190	2594.790269
595.652692	2590.288519
596.004141	2592.022676
596.355535	2592.221802
596.706876	2591.142995
597.058162	2591.856318
597.409395	2589.270206
597.760573	2594.583582
598.111698	2592.221802
598.462768	2592.095773
598.813785	2589.955803
599.164748	2588.531677
599.515657	2588.324990
599.866511	2587.775504
600.217312	2589.376070
600.568060	2588.004876
600.918753	2591.052254
601.269392	2588.796337
601.619978	2585.370873
601.970510	2588.972778
602.320988	2585.864907
602.671412	2590.258272
603.021783	2587.621749
603.372100	2584.990266
603.722363	2586.386666
604.072572	2585.615369
604.422728	2583.608990
604.772830	2589.650813
605.122878	2585.685946
605.472872	2586.744588
605.822813	2588.700556
606.172701	2586.195102
606.522534	2585.607808
606.872314	2585.073445
607.222041	2588.506471
607.571714	2585.539752
607.921333	2581.360636
608.270899	2583.165369
608.620411	2583.288877
608.969870	2585.557396
609.319276	2584.259299
609.668627	2587.944382
610.017926	2585.685946
610.367171	2587.203333
610.716362	2586.610997
611.065500	2588.302304
611.414585	2586.731985
611.763616	2586.560586
612.112594	2590.210381
612.461518	2587.657037
612.810389	2586.051429
613.159207	2587.064701
613.507971	2586.759711
613.856682	2589.933118
614.205340	2588.498909
614.553945	2590.414548
614.902496	2588.423292
615.250994	2588.554362
615.599439	2589.386152
615.947830	2590.626276
616.296169	2589.824733
616.644454	2589.229877
616.992686	2590.543097
617.340864	2589.083683
617.688990	2589.396235
618.037063	2591.440423
618.385082	2588.992942
618.733048	2591.057295
619.080961	2590.404466
619.428821	2592.831781
619.776628	2589.461770
620.124382	2590.505289
620.472083	2591.742892
620.819731	2589.776842
621.167326	2590.059147
621.514868	2587.594022
621.862357	2586.754670
622.209793	2588.183837
622.557176	2585.559917
622.904506	2587.029413
623.251783	2583.304000
623.599007	2584.271902
623.946179	2581.726119
624.293297	2584.881882
624.640363	2579.883577
624.987376	2579.341653
625.334336	2575.893504
625.681243	2577.400809
626.028097	2570.302865
626.374899	2577.786457
626.721647	2577.347877
627.068343	2577.534400
627.414987	2578.164544
627.761577	2576.327043
628.108115	2578.066242
628.454600	2575.381827
628.801032	2573.168761
629.147412	2575.938875
629.493739	2574.746642
629.840014	2574.562640
630.186236	2571.968966
630.532405	2569.392936
630.878521	2573.352763
631.224585	2573.536765
631.570597	2572.188256
631.916556	2574.895356
632.262462	2573.561971
632.608316	2573.498956
632.954117	2571.971487
633.299866	2574.277814
633.645562	2568.437638
633.991206	2568.117524
634.336797	2566.756413
634.682336	2565.178532
635.027823	2567.661300
635.373257	2567.431927
635.718639	2564.815569
636.063968	2564.051834
636.409245	2564.301371
636.754470	2563.870352
637.099642	2561.395146
637.444762	2564.114848
637.789829	2561.165773
638.134845	2562.312636
638.479808	2559.303067
638.824719	2562.388253
639.169577	2559.431616
639.514383	2560.699467
639.859137	2557.836091
640.203839	2558.980433
640.548489	2559.126627
640.893086	2558.088149
641.237632	2559.393808
641.582125	2557.949517
641.926566	2558.209137
642.270955	2553.230997
642.615292	2551.370811
642.959576	2552.547921
643.303809	2547.920142
643.647990	2555.416337
643.992118	2554.619835
644.336195	2556.623694
644.680219	2556.353992
645.024192	2554.045143
645.368112	2558.317521
645.711981	2555.159238
646.055797	2559.608057
646.399562	2558.811554
646.743274	2559.628221
647.086935	2561.359858
647.430544	2561.627039
647.774101	2562.678119
648.117606	2561.359858
648.461059	2563.139385
648.804460	2564.233315
649.147810	2560.389436
649.491108	2561.571586
649.834354	2561.926987
650.177548	2556.253169
650.520690	2557.518498
650.863781	2554.738302
651.206820	2556.064126
651.549807	2556.464897
651.892742	2553.588919
652.235626	2556.903478
652.578458	2551.227138
652.921238	2551.741336
653.263967	2553.288970
653.606644	2551.501881
653.949269	2550.642365
654.291843	2550.755791
654.634365	2552.908363
654.976836	2550.760832
655.319255	2549.044319
655.661622	2549.185471
656.003938	2551.146480
656.346203	2548.058773
656.688416	2548.900646
657.030577	2549.124977
657.372687	2550.125646
657.714746	2550.216387
658.056753	2549.130018
658.398708	2548.197405
658.740612	2548.885523
659.082465	2550.032385
659.424266	2546.745553
659.766016	2544.681200
660.107715	2546.755635
660.449362	2543.738504
660.790958	2545.732281
661.132503	2546.924514
661.473996	2548.278063
661.815438	2546.773279
662.156829	2551.428785
662.498168	2547.897456
662.839456	2547.151366
663.180693	2547.312682
663.521879	2549.929041
663.863013	2546.591797
664.204097	2547.196736
664.545129	2549.568599
664.886110	2546.967363
665.227040	2550.370142
665.567918	2547.622713
665.908746	2549.203115
666.249522	2550.324772
666.590248	2547.617672
666.930922	2550.012220
667.271545	2548.973743
667.612118	2547.506767
667.952639	2547.433670
668.293109	2546.289328
668.633528	2548.189843
668.973896	2548.184802
669.314213	2547.836962
669.654480	2550.271840
669.994695	2547.353012
670.334859	2549.477858
670.674973	2547.700851
671.015035	2546.826211
671.355047	2547.017775
671.695008	2548.993907
672.034918	2547.196736
672.374777	2548.830070
672.714585	2546.869061
673.054342	2548.822508
673.394049	2545.084493
673.733705	2545.565923
674.073310	2550.516336
674.412864	2546.818649
674.752368	2545.611293
675.091820	2546.362425
675.431223	2547.111036
675.770574	2545.074410
676.109875	2546.037271
676.449125	2540.933102
676.788324	2540.645757
677.127473	2540.832279
677.466571	2534.878677
677.805619	2543.970397
678.144616	2541.850592
678.483562	2540.809594
678.822458	2542.626930
679.161303	2540.401261
679.500098	2540.849923
679.838842	2542.291693
680.177535	2539.408153
680.516179	2541.293545
680.854771	2540.605427
681.193314	2542.458051
681.531805	2545.046684
681.870247	2546.306972
682.208638	2549.462735
682.546978	2549.150183
682.885268	2548.812426
683.223508	2548.542724
683.561697	2550.029864
683.899836	2549.742519
684.237925	2547.252189
684.575963	2545.548279
684.913951	2544.103988
685.251889	2545.235727
685.589776	2545.374359
685.927614	2543.617517
686.265401	2545.870912
686.603137	2546.823691
686.940824	2545.918803
687.278460	2547.801674
687.616046	2550.178578
687.953582	2549.780327
688.291068	2550.211346
688.628504	2548.278063
688.965889	2549.404761
689.303224	2551.862324
689.640510	2549.389638
689.977745	2545.878474
690.314930	2546.211190
690.652065	2545.003834
690.989150	2543.768751
691.326185	2541.096940
691.663170	2537.928575
692.000105	2537.747093
692.336990	2535.249201
692.673825	2537.343801
693.010610	2534.876156
693.347345	2534.220806
693.684030	2528.138654
694.020665	2529.048582
694.357251	2526.260824
694.693786	2530.870959
695.030272	2528.428520
695.366707	2527.760567
695.703093	2526.883407
696.039429	2527.321987
696.375716	2527.546318
696.711952	2528.801566
697.048139	2527.001874
697.384276	2523.694877
697.720363	2525.567665
698.056400	2525.870135
698.392388	2522.918539
698.728326	2527.344672
699.064214	2527.107738
699.400053	2525.524816
699.735842	2526.898530
700.071581	2524.690505
700.407270	2521.905267
700.742910	2522.689167
701.078501	2523.541122
701.414042	2521.766635
701.749533	2523.762932
702.084974	2520.098013
702.420366	2520.743281
702.755709	2517.781603
703.091002	2519.689680
703.426246	2517.922756
703.761440	2515.145080
704.096584	2516.874196
704.431679	2516.107940
704.766725	2517.920235
705.101721	2515.886129
705.436668	2518.305883
705.771565	2518.923425
706.106413	2518.003414
706.441212	2518.900739
706.775961	2518.676408
707.110661	2518.618435
707.445311	2520.181193
707.779913	2516.150790
708.114465	2521.070956
708.448967	2520.723117
708.783421	2520.886954
709.117825	2522.124557
709.452180	2525.144208
709.786485	2524.614887
710.120742	2522.878210
710.454949	2521.943076
710.789107	2526.835516
711.123216	2523.329393
711.457275	2528.060516
711.791286	2530.266021
712.125247	2533.192411
712.459159	2528.995650
712.793023	2534.218285
713.126837	2531.501103
713.460602	2531.435568
713.794318	2530.805424
714.127985	2530.271062
714.461602	2528.259642
714.795171	2529.731658
715.128691	2523.455422
715.462162	2526.467511
715.795584	2523.583971
716.128957	2523.740247
716.462281	2522.215298
716.795556	2522.159845
717.128782	2520.972654
717.461960	2518.905781
717.795088	2518.913342
718.128167	2519.828312
718.461198	2516.677591
718.794180	2516.158352
719.127113	2514.988804
719.459997	2513.612569
719.792833	2514.157014
720.125619	2514.295645
720.458357	2510.865140
720.791046	2513.917559
721.123686	2511.351612
721.456278	2510.666015
721.788821	2510.570233
722.121315	2513.499143
722.453761	2508.689882
722.786158	2511.979235
723.118506	2508.672238
723.450805	2512.957219
723.783056	2509.877074
724.115259	2509.539317
724.447412	2511.301200
724.779518	2510.925634
725.111574	2510.872702
725.443582	2513.463855
725.775542	2512.364883
726.107453	2509.030160
726.439315	2512.753052
726.771129	2511.976715
727.102895	2512.188443
727.434612	2512.362363
727.766281	2509.546878
728.097901	2518.028620
728.429473	2516.236490
728.760996	2516.763290
729.092471	2517.693383
729.423897	2517.678260
729.755276	2516.826305
730.086606	2516.289422
730.417887	2516.949813
730.749120	2518.739422
731.080305	2518.822602
731.411442	2521.166738
731.742530	2522.757222
732.073570	2526.535567
732.404562	2524.355268
732.735506	2526.243180
733.066401	2522.177489
733.397249	2521.970802
733.728048	2519.971985
734.058798	2518.021058
734.389501	2517.499299
734.720156	2517.196829
735.050762	2515.732374
735.381320	2511.011334
735.711831	2509.786333
736.042293	2514.388907
736.372707	2510.305572
736.703073	2510.953360
737.033391	2510.265243
737.363661	2513.012672
737.693883	2511.979235
738.024056	2511.737260
738.354182	2508.601662
738.684260	2512.029647
739.014290	2513.927641
739.344272	2514.204905
739.674207	2514.746829
740.004093	2516.491068
740.333931	2518.638599
740.663722	2516.932169
740.993464	2516.352436
741.323159	2517.736233
741.652806	2515.409740
741.982405	2511.288597
742.311956	2511.245747
742.641460	2513.867147
742.970915	2512.228772
743.300323	2509.045284
743.629683	2508.145438
743.958996	2508.611744
744.288260	2504.702330
744.617477	2507.409429
744.946647	2507.467403
745.275768	2509.425891
745.604842	2507.943792
745.933869	2509.193998
746.262847	2505.289624
746.591778	2506.428925
746.920662	2507.162413
747.249498	2505.682834
747.578286	2506.822135
747.907027	2505.798781
748.235720	2506.988493
748.564365	2504.848523
748.892963	2509.612413
749.221514	2505.385406
749.550017	2506.237361
749.878473	2505.791219
750.206881	2509.453617
750.535242	2507.553102
750.863555	2506.572598
751.191821	2506.807011
751.520039	2506.020591
751.848210	2505.584532
752.176334	2504.173008
752.504411	2506.612927
752.832440	2504.238543
753.160421	2507.850530
753.488356	2507.361538
753.816243	2507.089316
754.144082	2504.077227
754.471875	2507.172495
754.799620	2502.837103
755.127318	2505.360200
755.454969	2506.113853
755.782572	2506.686024
756.110129	2502.385919
756.437638	2505.266939
756.765100	2503.641167
757.092515	2504.490601
757.419882	2506.834738
757.747203	2503.557988
758.074477	2505.755931
758.401703	2503.865498
758.728882	2508.301713
759.056014	2504.556136
759.383099	2505.899604
759.710138	2502.784171
760.037129	2502.040600
760.364073	2504.941784
760.690970	2501.554129
761.017820	2505.188801
761.344623	2507.936230
761.671379	2510.199708
761.998088	2512.987466
762.324751	2515.644154
762.651366	2524.806451
762.977935	2534.089736
763.304456	2545.001313
763.630931	2550.082797
763.957359	2551.433826
764.283740	2543.899821
764.610074	2536.839685
764.936362	2529.608150
765.262602	2524.322500
765.588796	2519.780421
765.914943	2515.797909
766.241044	2512.435460
766.567097	2509.166271
766.893104	2506.373472
767.219064	2504.314161
767.544978	2501.289468
767.870845	2503.492453
768.196665	2502.254849
768.522438	2498.905003
768.848165	2500.306443
769.173846	2498.920126
769.499479	2497.795949
769.825066	2498.015239
770.150607	2496.989364
770.476101	2495.051041
770.801548	2494.131030
771.126949	2494.274703
771.452303	2497.879128
771.777611	2491.015597
772.102872	2492.681698
772.428087	2492.248159
772.753256	2495.487100
773.078378	2493.649600
773.403453	2493.894096
773.728482	2490.100627
774.053465	2492.646410
774.378401	2495.290495
774.703291	2492.762357
775.028135	2492.737151
775.352932	2490.624907
775.677683	2490.284630
776.002388	2487.028044
776.327046	2486.496202
776.651658	2485.929073
776.976224	2484.827581
777.300743	2489.150370
777.625216	2486.279433
777.949643	2490.443426
778.274024	2489.571306
778.598359	2489.281440
778.922647	2486.589464
779.246889	2490.375370
779.571086	2487.385966
779.895236	2490.133395
780.219339	2489.568786
780.543397	2488.023672
780.867409	2487.796820
781.191374	2490.541728
781.515294	2486.917139
781.839167	2488.570637
782.162995	2488.696666
782.486776	2489.636841
782.810511	2487.126347
783.134201	2489.727582
783.457844	2487.925370
783.781441	2489.039465
784.104993	2487.474186
784.428498	2486.914618
784.751958	2488.316059
785.075372	2489.709938
785.398739	2487.398569
785.722061	2490.181286
786.045337	2487.408651
786.368568	2489.591471
786.691752	2485.702221
787.014891	2488.908395
787.337983	2490.541728
787.661030	2493.301760
787.984031	2494.002481
788.306987	2499.525065
788.629897	2496.880979
788.952760	2499.068840
789.275579	2496.223109
789.598351	2498.126144
789.921078	2495.469456
790.243759	2493.669764
790.566395	2493.155567
790.888984	2493.624394
791.211529	2488.943683
791.534027	2492.984167
791.856480	2488.250524
792.178888	2487.948055
792.501249	2483.655512
792.823566	2485.329175
793.145836	2481.591160
793.468062	2487.834629
793.790241	2488.684063
794.112375	2487.751450
794.434464	2486.148363
794.756507	2484.908239
795.078505	2488.618528
795.400457	2487.819505
795.722364	2492.608602
796.044226	2490.834115
796.366042	2493.379898
796.687812	2491.121461
797.009538	2494.751092
797.331218	2492.328818
797.652852	2490.269506
797.974442	2490.062819
798.295986	2491.290340
798.617484	2491.020638
798.938938	2489.901502
799.260346	2491.532315
799.581709	2488.905874
799.903026	2489.742706
800.224299	2486.160966
800.545526	2489.780514
800.866708	2487.086018
801.187845	2489.019300
801.508936	2486.803713
801.829983	2485.767756
802.150984	2488.399238
802.471940	2490.393014
802.792851	2488.689104
803.113717	2488.215236
803.434538	2486.987715
803.755314	2485.792962
804.076045	2486.171048
804.396731	2488.371512
804.717372	2485.445122
805.037967	2487.622900
805.358518	2488.106851
805.679024	2485.621562
805.999485	2485.636686
806.319901	2486.186172
806.640272	2488.865545
806.960598	2488.996615
807.280879	2485.437560
807.601115	2488.154742
807.921306	2487.270020
808.241453	2484.164669
808.561554	2484.636017
808.881611	2485.130050
809.201623	2481.699545
809.521590	2486.715493
809.841513	2484.257930
810.161390	2488.694146
810.481223	2487.640544
810.801011	2486.203816
811.120755	2486.667602
811.440453	2489.399907
811.760107	2487.214567
812.079716	2485.107365
812.399281	2487.116264
812.718801	2487.723723
813.038276	2484.779690
813.357707	2485.641727
813.677093	2485.891264
813.996434	2485.765235
814.315731	2486.662561
814.634983	2485.803044
814.954191	2484.217601
815.273354	2484.777169
815.592473	2486.710452
815.911547	2488.497541
816.230577	2488.535349
816.549562	2489.737664
816.868502	2489.089876
817.187399	2489.223467
817.506250	2492.147336
817.825058	2490.133395
818.143821	2492.114568
818.462539	2493.067347
818.781213	2496.548263
819.099843	2495.676144
819.418429	2501.924654
819.736970	2503.200066
820.055466	2510.035870
820.373919	2516.738084
820.692327	2524.466173
821.010691	2537.986548
821.329011	2571.162381
821.647286	2627.305712
821.965517	2692.818027
822.283704	2744.142014
822.601847	2774.162085
822.919945	2753.140473
823.237999	2724.665516
823.556010	2692.886082
823.873976	2666.702329
824.191897	2634.232257
824.509775	2608.928185
824.827609	2588.309866
825.145398	2573.420818
825.463144	2568.687175
825.780845	2566.433779
826.098502	2568.067113
826.416116	2583.883733
826.733685	2600.244798
827.051210	2605.144799
827.368692	2603.007350
827.686129	2587.712489
828.003522	2571.631209
828.320872	2555.905329
828.638177	2543.569626
828.955439	2530.162677
829.272656	2524.420803
829.589830	2517.116171
829.906960	2513.705830
830.224046	2503.767196
830.541088	2501.130672
830.858086	2498.826865
831.175041	2498.557163
831.491952	2494.804024
831.808819	2497.289313
832.125642	2495.456853
832.442421	2501.503718
832.759157	2509.498988
833.075849	2518.953672
833.392497	2532.395908
833.709101	2547.582384
834.025662	2547.819318
834.342179	2540.144162
834.658653	2532.993285
834.975083	2524.937521
835.291469	2518.779752
835.607811	2508.536127
835.924110	2504.470437
836.240366	2499.159581
836.556578	2497.430465
836.872746	2496.018942
837.188871	2492.679178
837.504952	2490.027531
837.820990	2489.818323
838.136984	2486.168528
838.452935	2484.764566
838.768842	2485.964361
839.084706	2486.332365
839.400526	2490.718169
839.716303	2496.616319
840.032037	2500.639160
840.347727	2504.112515
840.663373	2499.991371
840.978977	2493.238746
841.294537	2490.808910
841.610054	2489.508292
841.925527	2487.048209
842.240957	2485.460245
842.556344	2482.911942
842.871687	2483.716006
843.186987	2480.867754
843.502244	2481.240800
843.817458	2480.310707
844.132629	2479.131077
844.447756	2477.543113
844.762840	2478.402630
845.077881	2477.916159
845.392879	2478.105202
845.707833	2477.144862
846.022745	2475.143524
846.337613	2477.333905
846.652438	2475.791312
846.967221	2475.549337
847.281960	2474.662094
847.596656	2479.302476
847.911309	2476.744090
848.225919	2475.347691
848.540485	2474.518421
848.855009	2475.347691
849.169490	2473.603452
849.483928	2474.372228
849.798323	2476.854996
850.112675	2474.702423
850.426984	2475.440952
850.741251	2473.207721
851.055474	2473.565643
851.369654	2475.274594
851.683792	2476.423977
851.997887	2470.503142
852.311938	2477.517908
852.625947	2478.465644
852.939914	2475.398102
853.253837	2477.197794
853.567718	2475.980356
853.881555	2473.847948
854.195350	2474.687300
854.509103	2474.846096
854.822812	2474.213431
855.136479	2474.011785
855.450103	2474.586477
855.763685	2471.612196
856.077224	2467.927112
856.390720	2472.726291
856.704173	2470.987093
857.017584	2474.183184
857.330953	2473.346353
857.644278	2475.652681
857.957561	2480.028402
858.270802	2474.687300
858.584000	2476.194605
858.897155	2474.558750
859.210268	2476.003041
859.523339	2477.959008
859.836367	2477.132259
860.149352	2473.298462
860.462295	2478.140490
860.775195	2476.055973
861.088054	2473.976497
861.400869	2477.333905
861.713642	2475.461117
862.026373	2475.302320
862.339062	2475.612351
862.651708	2474.157978
862.964312	2476.643267
863.276873	2475.055304
863.589392	2477.984214
863.901869	2476.880202
864.214303	2477.081848
864.526696	2474.503297
864.839045	2477.008751
865.151353	2475.745942
865.463619	2478.077476
865.775842	2478.558906
866.088023	2474.586477
866.400162	2475.645119
866.712258	2475.410705
867.024313	2477.563278
867.336325	2475.332567
867.648296	2477.684266
867.960224	2476.509677
868.272110	2477.096971
868.583954	2480.923207
868.895755	2477.046560
869.207515	2477.603607
869.519233	2480.764411
869.830909	2474.914152
870.142542	2478.591673
870.454134	2480.368680
870.765684	2478.689976
871.077191	2479.083186
871.388657	2477.432208
871.700081	2474.296610
872.011463	2479.955305
872.322803	2475.629995
872.634101	2478.415233
872.945357	2482.319607
873.256571	2480.724081
873.567744	2482.387662
873.878874	2481.092086
874.189963	2481.820532
874.501010	2483.539566
874.812015	2482.662405
875.122979	2482.032261
875.433900	2478.248875
875.744780	2482.866572
876.055618	2481.288691
876.366415	2481.485296
876.677169	2481.296252
876.987882	2483.277426
877.298554	2481.061839
877.609183	2483.398413
877.919771	2484.585605
878.230317	2485.614001
878.540822	2486.990236
878.851285	2489.261275
879.161707	2493.321925
879.472087	2495.875269
879.782425	2501.596979
880.092722	2513.622651
880.402977	2535.327339
880.713191	2563.237687
881.023363	2592.491503
881.333494	2615.040584
881.643583	2627.129271
881.953631	2624.565845
882.263637	2621.962089
882.573602	2611.027826
882.883526	2596.715990
883.193408	2589.741554
883.503248	2577.630182
883.813048	2567.144582
884.122806	2556.732078
884.432522	2547.602549
884.742197	2535.108049
885.051831	2527.508510
885.361424	2520.493744
885.670975	2514.620800
885.980485	2507.147289
886.289954	2504.367093
886.599382	2499.036073
886.908768	2496.742348
887.218113	2489.346975
887.527417	2489.001656
887.836680	2487.879999
888.145901	2489.233549
888.455082	2487.602736
888.764221	2485.104844
889.073319	2482.667446
889.382376	2483.700883
889.691392	2487.065853
890.000366	2484.787251
890.309300	2482.581747
890.618193	2484.089052
890.927044	2483.221973
891.235855	2482.629638
891.544625	2484.381438
891.853353	2483.983187
892.162041	2484.278095
892.470687	2482.228866
892.779293	2488.666419
893.087858	2489.901502
893.396381	2492.429641
893.704864	2498.350476
894.013306	2506.686024
894.321707	2515.931500
894.630068	2522.386697
894.938387	2523.649506
895.246665	2523.039527
895.554903	2517.973167
895.863100	2515.714730
896.171256	2511.815398
896.479371	2509.183915
896.787446	2506.111332
897.095480	2498.103459
897.403473	2497.889210
897.711425	2494.380567
898.019336	2495.882831
898.327207	2491.398725
898.635038	2490.985350
898.942827	2489.498210
899.250576	2488.868065
899.558284	2484.073928
899.865952	2484.888074
900.173579	2484.797334
900.481165	2481.487816
900.788711	2482.720378
901.096216	2482.395224
901.403681	2483.126191
901.711105	2484.729278
902.018489	2478.407671
902.325832	2479.957826
902.633135	2478.533700
902.940397	2485.482931
903.247619	2482.397744
903.554800	2497.528768
903.861941	2511.402023
904.169041	2524.753519
904.476101	2531.435568
904.783121	2531.831299
905.090100	2529.466998
905.397039	2521.421316
905.703938	2513.960409
906.010796	2512.143073
906.317614	2505.574449
906.624391	2503.842813
906.931129	2500.606392
907.237826	2498.501710
907.544483	2493.687408
907.851099	2489.530977
908.157675	2489.961996
908.464211	2485.835811
908.770707	2479.778865
909.077163	2480.179637
909.383578	2480.575367
909.689954	2478.279122
909.996289	2475.745942
910.302584	2474.329378
910.608839	2475.098154
910.915054	2475.080510
911.221229	2474.036991
911.527363	2473.248050
911.833458	2473.558081
912.139513	2473.323668
912.445527	2476.466827
912.751502	2478.616879
913.057436	2475.133442
913.363331	2477.827938
913.669186	2479.650316
913.975000	2479.340285
914.280775	2484.721716
914.586510	2489.946872
914.892205	2494.468787
915.197859	2501.468429
915.503475	2514.278001
915.809050	2523.321831
916.114585	2528.907430
916.420081	2533.192411
916.725536	2533.328522
917.030952	2532.816845
917.336328	2524.745957
917.641665	2520.985257
917.946961	2518.525173
918.252218	2514.013341
918.557435	2507.227948
918.862612	2509.957732
919.167750	2503.636126
919.472848	2500.939108
919.777906	2499.787205
920.082925	2496.081957
920.387904	2491.459218
920.692843	2489.853611
920.997743	2489.117602
921.302603	2484.852786
921.607423	2485.021665
921.912204	2480.756849
922.216946	2479.211735
922.521647	2480.199801
922.826310	2478.674852
923.130932	2478.004379
923.435516	2476.522280
923.740059	2477.699389
924.044564	2473.928606
924.349028	2475.274594
924.653454	2474.994810
924.957840	2473.542958
925.262186	2471.571867
925.566493	2472.416260
925.870761	2473.076651
926.174989	2472.184367
926.479178	2471.922227
926.783328	2470.419963
927.087438	2471.791157
927.391509	2471.166054
927.695541	2471.261836
927.999533	2469.285703
928.303486	2469.638584
928.607400	2470.813173
928.911275	2468.088429
929.215110	2470.853502
929.518906	2469.983903
929.822663	2470.848461
930.126381	2469.381485
930.430060	2469.895683
930.733699	2470.051959
931.037299	2469.603296
931.340861	2468.010291
931.644383	2470.979531
931.947866	2469.885601
932.251309	2470.808132
932.554714	2469.371403
932.858080	2468.544654
933.161407	2464.882255
933.464694	2467.241515
933.767943	2465.351083
934.071153	2470.916517
934.374323	2467.579273
934.677455	2469.913327
934.980548	2468.935343
935.283602	2467.216310
935.586617	2469.315950
935.889593	2469.782257
936.192530	2469.930971
936.495428	2470.702268
936.798287	2471.879377
937.101108	2466.976855
937.403890	2469.000878
937.706632	2469.504993
938.009336	2471.697895
938.312002	2471.556743
938.614628	2471.400467
938.917216	2472.640591
939.219765	2475.090592
939.522275	2473.966415
939.824747	2470.893831
940.127179	2475.153606
940.429573	2475.955150
940.731929	2473.966415
941.034246	2472.247381
941.336524	2473.104377
941.638763	2474.893987
941.940964	2472.222175
942.243126	2471.826445
942.545250	2471.511373
942.847335	2474.004223
943.149381	2474.909110
943.451389	2471.939871
943.753359	2469.898203
944.055290	2472.350725
944.357182	2469.031125
944.659036	2473.091774
944.960851	2472.459110
945.262628	2470.029273
945.564367	2469.943574
945.866067	2471.949953
946.167729	2468.310240
946.469352	2468.796711
946.770937	2468.569859
947.072484	2469.784777
947.373992	2470.702268
947.675462	2471.695375
947.976893	2469.079016
948.278286	2466.334108
948.579641	2466.369396
948.880958	2466.190435
949.182236	2468.552215
949.483476	2470.989613
949.784678	2467.349900
950.085841	2469.303347
950.386967	2467.506176
950.688054	2468.403501
950.989103	2469.752010
951.290114	2470.162864
951.591087	2470.712350
951.892021	2472.010447
952.192917	2470.939202
952.493776	2471.914665
952.794596	2470.593883
953.095378	2470.374592
953.396122	2473.111939
953.696828	2471.145889
953.997496	2471.143368
954.298126	2471.839048
954.598718	2471.097998
954.899272	2471.075313
955.199788	2471.256794
955.500266	2471.874336
955.800706	2471.375262
956.101108	2468.842082
956.401472	2468.153964
956.701798	2467.271762
957.002087	2471.440797
957.302337	2469.187401
957.602550	2470.634212
957.902724	2464.887297
958.202861	2466.470219
958.502960	2464.589868
958.803022	2467.347380
959.103045	2469.154633
959.403031	2466.364355
959.702979	2467.115487
960.002889	2464.940229
960.302762	2467.808645
960.602596	2466.659262
960.902393	2465.625826
961.202153	2464.269755
961.501875	2465.267904
961.801559	2463.780763
962.101205	2464.352934
962.400814	2467.027266
962.700385	2466.308902
962.999918	2463.309415
963.299414	2462.845629
963.598873	2461.814713
963.898293	2459.710032
964.197677	2464.897379
964.497022	2464.912502
964.796331	2462.830506
965.095601	2467.402832
965.394835	2465.159519
965.694030	2465.903089
965.993189	2464.473922
966.292309	2466.107256
966.591393	2463.848819
966.890439	2463.831175
967.189447	2467.112966
967.488419	2465.124231
967.787353	2467.302009
968.086249	2464.443675
968.385108	2464.549539
968.683930	2464.058027
968.982714	2465.945939
969.281462	2463.780763
969.580172	2464.972996
969.878844	2464.254632
970.177480	2465.076340
970.476078	2465.083902
970.774639	2466.228243
971.073162	2464.032821
971.371649	2463.843778
971.670098	2465.099025
971.968510	2465.467029
972.266885	2468.035497
972.565223	2464.181535
972.863524	2466.097173
973.161788	2462.354117
973.460014	2464.093315
973.758204	2463.069961
974.056356	2464.877214
974.354471	2467.934674
974.652550	2465.076340
974.950591	2469.565487
975.248595	2465.318315
975.546563	2464.791515
975.844493	2467.223871
976.142386	2465.041052
976.440243	2465.560291
976.738062	2464.267235
977.035845	2465.648511
977.333590	2466.598768
977.631299	2466.490383
977.928971	2463.611885
978.226606	2462.850670
978.524204	2460.125927
978.821765	2460.272120
979.119290	2464.085753
979.416777	2464.040383
979.714228	2464.272276
980.011642	2462.515434
980.309020	2463.644652
980.606360	2464.355455
980.903664	2466.964252
981.200931	2464.731021
981.498162	2467.675055
981.795356	2464.604992
982.092513	2467.259159
982.389633	2468.307719
982.686717	2469.570528
982.983764	2470.672021
983.280775	2470.949284
983.577749	2472.854840
983.874686	2473.573205
984.171587	2472.539768
984.468451	2471.627319
984.765279	2471.967597
985.062070	2470.717391
985.358824	2471.161013
985.655543	2470.760241
985.952224	2468.393419
986.248869	2469.774695
986.545478	2466.538274
986.842050	2465.267904
987.138586	2465.847636
987.435086	2465.368727
987.731549	2466.306381
988.027975	2464.143726
988.324366	2463.243880
988.620719	2465.106587
988.917037	2462.661627
989.213318	2462.860753
989.509563	2464.368058
989.805772	2464.085753
990.101944	2461.860084
990.398080	2462.656586
990.694180	2463.392594
990.990244	2462.651545
991.286271	2465.615743
991.582262	2462.384364
991.878217	2464.098356
992.174136	2464.189097
992.470019	2461.010649
992.765865	2460.350258
993.061676	2458.527881
993.357450	2460.632563
993.653188	2461.202213
993.948890	2461.524847
994.244556	2464.751185
994.540186	2463.768160
994.835780	2465.288068
995.131337	2466.424848
995.426859	2464.947790
995.722345	2468.521968
996.017795	2466.366875
996.313208	2471.529017
996.608586	2467.758234
996.903928	2468.867287
997.199234	2466.795373
997.494504	2467.962400
997.789738	2466.500466
998.084936	2466.243367
998.380099	2468.007771
998.675225	2465.169601
998.970316	2467.531382
999.265371	2468.897534
999.560390	2464.574745
999.855373	2466.369396
1000.150320	2462.896041
1000.445232	2466.810497
1000.740108	2464.927626
1001.034948	2463.788325
1001.329752	2460.645166
1001.624521	2462.069292
1001.919254	2464.524333
1002.213951	2466.044241
1002.508613	2461.678602
1002.803239	2457.721296
1003.097829	2462.263376
1003.392384	2462.180197
1003.686903	2462.664148
1003.981386	2463.165743
1004.275834	2461.008129
1004.570246	2462.102059
1004.864623	2464.080712
1005.158964	2462.331432
1005.453270	2462.429734
1005.747540	2464.869653
1006.041775	2459.034517
1006.335974	2463.145578
1006.630138	2460.498972
1006.924266	2463.836216
1007.218359	2462.583489
1007.512416	2457.345730
1007.806438	2456.171142
1008.100425	2459.694908
1008.394376	2457.476800
1008.688292	2462.734724
1008.982172	2462.908644
1009.276017	2461.265227
1009.569827	2463.087605
1009.863602	2460.700618
1010.157341	2459.253807
1010.451045	2461.449230
1010.744714	2464.300002
1011.038347	2462.631380
1011.331945	2461.406380
1011.625508	2461.169446
1011.919036	2460.446040
1012.212528	2464.607513
1012.505986	2462.684312
1012.799408	2462.623818
1013.092795	2462.548201
1013.386147	2461.764302
1013.679464	2459.687346
1013.972745	2460.468725
1014.265992	2462.157512
1014.559204	2464.191617
1014.852380	2459.957048
1015.145521	2461.202213
1015.438628	2463.710187
1015.731699	2463.473253
1016.024736	2463.621967
1016.317737	2462.200362
1016.610703	2460.617439
1016.903635	2461.267748
1017.196531	2462.664148
1017.489393	2462.099538
1017.782219	2460.342696
1018.075011	2460.788838
1018.367768	2461.940742
1018.660490	2463.813531
1018.953177	2463.813531
1019.245829	2463.813531
