Dividing Wavelength (nm)	Counts (n)	Blue Motor Position (mm): 0.000000	Red Motor Position (mm): 44.500000	
326.493990	2054.386139
326.888308	2054.386139
327.282561	2054.386139
327.676750	2032.411749
328.070874	2031.814372
328.464933	2037.868798
328.858929	2043.910621
329.252859	2052.228525
329.646726	2068.153530
330.040528	2084.401169
330.434265	2102.025043
330.827938	2123.240739
331.221547	2143.256640
331.615091	2162.271872
332.008571	2185.400686
332.401986	2203.994982
332.795338	2225.268651
333.188625	2245.284553
333.581847	2263.064702
333.975006	2280.444080
334.368100	2298.267080
334.761129	2312.563792
335.154095	2332.259580
335.546996	2371.232740
335.939833	2453.779114
336.332606	2466.349231
336.725315	2477.858185
337.117960	2488.530308
337.510540	2500.921464
337.903056	2510.179543
338.295508	2514.842611
338.687896	2521.837212
339.080220	2527.059847
339.472480	2528.821730
339.864676	2534.208203
340.256807	2540.035777
340.648875	2539.115766
341.040879	2542.140459
341.432818	2541.585932
341.824694	2548.172199
342.216506	2543.683052
342.608253	2544.285470
342.999937	2542.637012
343.391557	2542.127856
343.783113	2543.899821
344.174605	2538.916641
344.566033	2536.635519
344.957397	2538.815818
345.348697	2538.185673
345.739934	2533.630991
346.131106	2532.589993
346.522215	2532.128727
346.913260	2528.710825
347.304241	2529.066226
347.695159	2526.951462
348.086012	2527.024559
348.476802	2522.628673
348.867528	2520.022396
349.258191	2518.706655
349.648789	2518.018538
350.039324	2514.625841
350.429796	2517.549710
350.820203	2516.100378
351.210548	2517.811850
351.600828	2514.018382
351.991045	2514.630882
352.381198	2514.993845
352.771288	2514.512415
353.161314	2512.916890
353.551276	2514.121726
353.941175	2512.768176
354.331010	2514.280522
354.720782	2516.508712
355.110490	2519.656913
355.500135	2517.406037
355.889717	2512.627023
356.279235	2516.372601
356.668689	2515.487878
357.058080	2516.206243
357.447408	2516.758249
357.836672	2519.341840
358.225873	2515.840759
358.615010	2520.161028
359.004084	2516.213804
359.393095	2520.720596
359.782043	2518.701614
360.170927	2521.053312
360.559748	2518.497447
360.948505	2520.687828
361.337199	2521.010462
361.725830	2523.349558
362.114398	2521.892664
362.502903	2524.171266
362.891344	2525.696215
363.279722	2525.555062
363.668037	2524.693025
364.056289	2527.906761
364.444478	2527.962213
364.832603	2527.596730
365.220665	2526.800227
365.608665	2528.693181
365.996601	2528.357944
366.384474	2529.053623
366.772284	2529.512368
367.160031	2530.134951
367.547715	2529.678726
367.935336	2531.057482
368.322893	2527.505989
368.710388	2531.516227
369.097820	2528.259642
369.485189	2528.189065
369.872495	2535.254242
370.259738	2535.324819
370.646918	2536.053265
371.034035	2537.807587
371.421090	2535.153419
371.808081	2540.068544
372.195010	2540.234903
372.581875	2540.597866
372.968678	2545.553320
373.355418	2542.037115
373.742096	2543.456200
374.128710	2547.899977
374.515262	2550.208825
374.901751	2555.260062
375.288177	2557.536142
375.674540	2559.275341
376.060841	2563.441854
376.447079	2568.409911
376.833254	2576.304358
377.219367	2578.764441
377.605417	2582.653692
377.991404	2588.816502
378.377329	2598.303954
378.763191	2602.004161
379.148991	2610.243927
379.534727	2619.754063
379.920402	2628.976854
380.306013	2638.794501
380.691563	2651.745226
381.077049	2660.690753
381.462474	2670.233657
381.847835	2684.033816
382.233134	2697.884386
382.618371	2704.495859
383.003545	2724.531925
383.388657	2738.100191
383.773706	2753.566451
384.158693	2772.047321
384.543618	2790.686987
384.928480	2804.923206
385.313280	2824.074549
385.698017	2844.599607
386.082692	2865.253214
386.467305	2885.914383
386.851856	2908.055131
387.236344	2935.910027
387.620770	2951.824949
388.005133	2971.740028
388.389435	3008.623630
388.773674	3022.264992
389.157851	3053.331103
389.541965	3081.874116
389.926018	3095.069336
390.310008	3127.078142
390.693936	3151.421874
391.077802	3181.343643
391.461606	3211.802294
391.845348	3231.160325
392.229027	3259.100920
392.612645	3298.973927
392.996200	3330.844101
393.379694	3364.619832
393.763125	3410.393509
394.146494	3436.506686
394.529801	3475.782316
394.913047	3518.856455
395.296230	3522.791075
395.679351	3547.470044
396.062410	3596.689349
396.445408	3575.206472
396.828343	3621.181795
397.211217	3653.702279
397.594028	3629.978609
397.976778	3675.865712
398.359466	3709.109601
398.742092	3721.379769
399.124656	3734.748909
399.507158	3793.090183
399.889598	3795.880461
400.271977	3864.858569
400.654294	3852.931199
401.036549	3912.651228
401.418742	3909.717277
401.800874	3980.074141
402.182944	4008.014736
402.564952	4091.007252
402.946898	4090.099844
403.328783	4081.098864
403.710606	4129.672902
404.092367	4203.936659
404.474067	4266.643572
404.855705	4255.991614
405.237282	4223.876943
405.618797	4320.785564
406.000250	4400.448398
406.381642	4486.261439
406.762972	4485.689268
407.144240	4450.970842
407.525447	4514.799411
407.906593	4533.549983
408.287677	4617.074341
408.668700	4640.772805
409.049661	4685.240823
409.430560	4726.220362
409.811399	4703.056261
410.192176	4754.634826
410.572891	4838.393597
410.953545	4944.928302
411.334138	4840.992312
411.714669	4948.968786
412.095139	4865.116754
412.475547	4975.359227
412.855894	4979.011543
413.236180	5081.833437
413.616405	5007.824258
413.996568	5110.666317
414.376670	5114.273262
414.756711	5109.529536
415.136691	5184.829251
415.516609	5265.943937
415.896466	5300.012055
416.276262	5383.987596
416.655997	5493.655377
417.035670	5590.916879
417.415283	5731.391151
417.794834	5805.493592
418.174324	5767.513539
418.553753	5768.892295
418.933121	5935.704076
419.312428	5949.113545
419.691674	5870.158993
420.070859	6104.804540
420.449983	5980.991281
420.829045	6180.535274
421.208047	6100.630465
421.586988	6260.399754
421.965867	6333.141083
422.344686	6417.393887
422.723444	6582.259783
423.102141	6193.813673
423.480777	6587.545433
423.859352	6407.777886
424.237866	6773.745491
424.616319	6767.237361
424.994712	6931.004285
425.373044	6846.113775
425.751314	7166.279976
426.129524	6876.060749
426.507673	7142.488251
426.885762	7190.066661
427.263789	7237.501398
427.641756	7323.705129
428.019662	7404.008189
428.397508	7444.226514
428.775292	7427.421828
429.153016	7602.022191
429.530679	7528.716253
429.908282	7578.923624
430.285824	7520.358020
430.663305	7807.197153
431.040726	7690.076026
431.418086	7693.002415
431.795385	7828.576686
432.172624	8020.679936
432.549802	7906.311279
432.926920	8037.172071
433.303977	7977.086558
433.680974	8022.948455
434.057910	8224.622335
434.434786	8284.879247
434.811601	8232.426042
435.188355	8575.030419
435.565050	8465.725600
435.941683	8479.248496
436.318257	8809.708733
436.694770	8762.021938
437.071222	8995.540787
437.447614	8767.552084
437.823946	8734.277948
438.200218	8896.482114
438.576429	8760.575127
438.952580	8936.637425
439.328670	8941.071120
439.704700	9023.690590
440.080670	8909.679855
440.456580	9179.855454
440.832429	9161.614039
441.208218	8900.351200
441.583947	9008.005040
441.959616	9129.695973
442.335224	9162.357609
442.710773	9250.063604
443.086261	9427.393752
443.461689	9142.684506
443.837057	9311.595928
444.212365	9532.395946
444.587612	9513.582359
444.962800	9408.035721
445.337927	9544.020846
445.712995	9079.312161
446.088002	9764.762891
446.462949	9813.034460
446.837837	9799.493920
447.212664	9825.665071
447.587431	10656.873202
447.962139	11668.413489
448.336786	12625.678193
448.711374	12408.336406
449.085901	11185.652432
449.460369	11106.173600
449.834776	10876.186079
450.209124	11803.763428
450.583412	11621.606375
450.957640	11938.720158
451.331808	11529.625482
451.705917	10948.965218
452.079965	10826.931486
452.453954	11030.049657
452.827883	10971.284926
453.201752	10951.137955
453.575562	10945.131420
453.949311	11301.218363
454.323001	11364.247910
454.696632	11281.106680
455.070202	11874.319418
455.443713	11928.665577
455.817164	12109.290119
456.190556	12427.384406
456.563888	12288.921554
456.937160	12558.542626
457.310373	12033.939992
457.683526	12052.632591
458.056619	12065.691700
458.429653	12132.398768
458.802628	12270.970005
459.175542	12326.246257
459.548398	12886.439437
459.921194	13457.682826
460.293930	13737.731525
460.666607	14598.710191
461.039224	15406.000567
461.411782	15758.936789
461.784280	15437.777481
462.156719	15389.251334
462.529099	15305.782429
462.901419	14657.409386
463.273680	14251.354526
463.645882	14474.690244
464.018024	14353.024517
464.390106	14718.167893
464.762130	15791.565658
465.134094	17332.227973
465.505999	19614.204564
465.877845	21917.616141
466.249631	23203.269168
466.621358	22749.043562
466.993026	21939.081374
467.364634	21199.919671
467.736184	20380.512880
468.107674	19764.186452
468.479105	19624.669999
468.850477	19347.381332
469.221790	18920.642618
469.593043	18243.547600
469.964238	17848.439606
470.335373	17906.291888
470.706449	18629.362228
471.077467	19493.141254
471.448425	21975.405408
471.819324	23873.898905
472.190164	23801.757473
472.560945	22045.618599
472.931667	20448.618869
473.302330	20102.299161
473.672934	19540.407113
474.043479	19975.945161
474.413965	19745.516539
474.784393	19576.915149
475.154761	20254.438664
475.525070	20376.984073
475.895321	20207.157682
476.265513	20740.985627
476.635645	21348.444666
477.005719	21403.930126
477.375734	21789.739712
477.745691	22416.985279
478.115588	23063.485533
478.485427	24255.259673
478.855207	26082.173827
479.224928	27918.232634
479.594591	29382.234122
479.964194	29029.118939
480.333739	29499.065383
480.703226	29726.111391
481.072653	30161.709933
481.442022	30696.324298
481.811333	31099.523345
482.180584	30670.253971
482.549777	30442.353488
482.918912	30205.348681
483.287988	30146.503292
483.657005	29997.075931
484.025964	29645.737754
484.394864	29818.162860
484.763706	29755.380330
485.132489	29213.983092
485.501213	29290.447314
485.869879	29469.282246
486.238487	29389.904238
486.607036	29673.595171
486.975527	29348.859163
487.343959	29717.475894
487.712333	30054.729087
488.080648	30017.301040
488.448905	30456.118359
488.817104	30328.473823
489.185244	31190.843847
489.553326	32133.937867
489.921350	34043.239598
490.289315	36587.517506
490.657222	37527.400311
491.025070	38124.275447
491.392861	37849.628345
491.760593	37072.471465
492.128267	36085.000167
492.495883	35089.389927
492.863440	34172.124258
493.230939	33183.697662
493.598380	32589.101127
493.965763	32454.507361
494.333088	31937.559719
494.700354	31739.165109
495.067563	31708.540100
495.434713	31576.408937
495.801805	31868.755531
496.168839	31689.686184
496.535815	31540.122711
496.902733	31669.536692
497.269593	31488.546666
497.636395	31651.627993
498.003139	31926.973296
498.369825	31675.215552
498.736453	32092.764243
499.103023	31933.824224
499.469535	32025.822761
499.835989	32125.055354
500.202385	32013.567716
500.568723	32056.813254
500.935003	32354.931969
501.301226	32215.476010
501.667390	32967.691781
502.033497	33186.606407
502.399546	32972.659838
502.765537	32566.239494
503.131470	33067.239446
503.497345	33504.100797
503.863163	32422.642227
504.228923	33224.193250
504.594625	33610.199442
504.960269	33072.129365
505.325856	33771.055099
505.691385	33402.917278
506.056856	33746.240019
506.422270	34257.322278
506.787625	33768.950417
507.152924	34230.412599
507.518164	34407.336935
507.883347	33983.262470
508.248472	34128.543483
508.613540	34829.284032
508.978550	35044.195982
509.343503	34891.454062
509.708398	35263.231596
510.073236	35868.868258
510.438016	35951.187779
510.802738	35615.409125
511.167403	36190.582093
511.532010	36421.386281
511.896561	36960.388971
512.261053	37735.151303
512.625488	37508.208639
512.989866	37419.481810
513.354186	37475.007599
513.718449	37435.668955
514.082655	38343.099333
514.446803	38014.476596
514.810894	38662.383332
515.174927	38664.974485
515.538904	38667.792490
515.902822	39318.038322
516.266684	39001.393367
516.630488	39369.735355
516.994235	39366.680416
517.357925	39954.448707
517.721558	40196.189678
518.085133	40600.671698
518.448651	40785.311519
518.812112	40677.577021
519.175516	40824.204021
519.538863	41294.142903
519.902152	41347.982427
520.265385	41904.974474
520.628560	41921.690940
520.991678	41870.906356
521.354739	42110.472069
521.717743	42493.289731
522.080690	42370.764486
522.443580	43072.994697
522.806413	43068.634098
523.169189	43216.987694
523.531908	43437.321406
523.894569	43281.020431
524.257174	43477.998476
524.619722	43851.220301
524.982213	43998.893341
525.344647	44051.497782
525.707025	44159.910316
526.069345	44616.729595
526.431608	44514.552968
526.793815	44911.793371
527.155964	44452.856807
527.518057	44709.421291
527.880093	44555.182148
528.242072	45203.494697
528.603995	44929.137460
528.965860	44833.814282
529.327669	45061.886165
529.689421	45133.397452
530.051117	45089.453714
530.412755	45366.860849
530.774337	45428.133553
531.135862	45344.704978
531.497331	45525.165682
531.858743	45502.556108
532.220098	45926.378514
532.581396	45639.400749
532.942638	45401.843936
533.303824	45664.785479
533.664953	45722.967957
534.026025	45382.254012
534.387040	45958.863710
534.747999	46010.903541
535.108902	46346.644387
535.469748	45661.720458
535.830537	45949.078830
536.191270	46198.464711
536.551947	45933.499144
536.912567	46200.135853
537.273131	46349.999275
537.633638	45977.533623
537.994089	46156.101374
538.354483	45891.967598
538.714821	46551.390850
539.075103	46852.753548
539.435328	46709.055457
539.795497	46441.100487
540.155609	46576.657113
540.515665	47183.140689
540.875665	46465.081255
541.235609	46736.570075
541.595496	46885.266470
541.955328	47464.399265
542.315102	46888.797798
542.674821	46784.433310
543.034483	46679.504214
543.394090	46693.745473
543.753640	46675.730910
544.113134	47738.264988
544.472571	46839.250817
544.831953	47972.580340
545.191278	47230.245230
545.550548	46929.462265
545.909761	47572.794155
546.268918	47691.803194
546.628019	48118.985530
546.987064	47549.398160
547.346053	46865.779889
547.704986	47780.469528
548.063863	47404.039009
548.422684	47614.550032
548.781449	47188.355762
549.140158	47707.047643
549.498811	47461.886249
549.857408	46864.501957
550.215949	47703.586891
550.574434	47537.329637
550.932864	47493.000251
551.291237	48204.123057
551.649555	47958.124831
552.007817	48112.623594
552.366022	47811.691915
552.724173	47888.710663
553.082267	48276.904715
553.440305	48653.793980
553.798288	47892.088236
554.156215	48289.978948
554.514086	48498.322274
554.871902	48073.899970
555.229661	48247.411445
555.587365	47917.475487
555.945014	48050.975323
556.302606	48078.827698
556.660143	48154.674378
557.017625	48390.953259
557.375050	48093.321016
557.732421	48482.556066
558.089735	48562.198735
558.446994	48410.727185
558.804197	48882.770749
559.161345	48741.550386
559.518437	48089.043597
559.875474	48340.818984
560.232455	48546.782886
560.589381	48593.947922
560.946251	48419.002239
561.303065	49078.090255
561.659825	48739.196167
562.016528	48553.527950
562.373177	48117.478225
562.729770	48765.957132
563.086307	48269.143859
563.442789	48828.984158
563.799216	48674.308955
564.155587	48595.591338
564.511904	48544.645437
564.868164	48587.374257
565.224370	48900.240868
565.580520	48622.483373
565.936615	48827.837296
566.292654	48472.040219
566.648638	48822.927212
567.004567	48774.038102
567.360441	48841.866827
567.716260	48554.647086
568.072023	48947.605029
568.427732	48848.485862
568.783385	48378.602432
569.138982	48799.206062
569.494525	48945.028999
569.850013	48552.101304
570.205445	48662.842851
570.560823	48431.905073
570.916145	48307.983429
571.271412	48573.380014
571.626625	48186.025314
571.981782	48261.695554
572.336884	47873.803971
572.691931	48199.313796
573.046923	47839.483796
573.401860	47669.450718
573.756743	47686.300775
574.111570	47831.395265
574.466342	47749.761340
574.821059	47897.857837
575.175722	47367.203298
575.530330	47451.710680
575.884882	47115.092673
576.239380	47003.269799
576.593823	47105.340561
576.948211	47045.033238
577.302544	46576.858760
577.656823	46571.169817
578.011047	46841.771394
578.365216	46668.486772
578.719330	46377.299643
579.073389	46352.635798
579.427394	46391.422436
579.781344	46306.547049
580.135239	46076.841833
580.489080	46133.206974
580.842866	45621.363501
581.196597	46113.652338
581.550273	46098.201202
581.903895	46023.181271
582.257463	46457.070862
582.610975	45892.446508
582.964434	46212.194293
583.317837	45720.243213
583.671186	45676.780905
584.024481	45952.554706
584.377721	45497.887999
584.730906	45696.655654
585.084037	45857.007196
585.437113	45583.590135
585.790135	45695.591971
586.143103	45237.212454
586.496016	45408.044555
586.848874	45518.501277
587.201679	45551.732563
587.554428	45013.455800
587.907124	45296.095652
588.259765	45062.453294
588.612352	45225.542183
588.964884	44679.721333
589.317362	44961.849508
589.669786	45001.828378
590.022155	44862.367378
590.374470	45331.416496
590.726731	44906.553091
591.078937	44250.414151
591.431090	44611.333040
591.783188	44101.233805
592.135232	43907.245164
592.487222	44177.665259
592.839157	44342.813459
593.191038	43986.741640
593.542866	43785.405517
593.894639	43150.739371
594.246358	43474.454545
594.598022	43465.216630
594.949633	43022.247921
595.301190	43009.307279
595.652692	42955.374495
596.004141	43473.423629
596.355535	42325.341170
596.706876	42348.800179
597.058162	42053.575086
597.409395	42562.746748
597.760573	42792.852736
598.111698	42385.719069
598.462768	42310.018582
598.813785	42315.367247
599.164748	41936.083434
599.515657	42210.700290
599.866511	41705.947199
600.217312	42394.709967
600.568060	41318.090905
600.918753	42167.605986
601.269392	42068.809453
601.619978	41800.015130
601.970510	42013.807944
602.320988	42131.811273
602.671412	42410.140939
603.021783	42264.585183
603.372100	41820.963645
603.722363	41931.881633
604.072572	41982.141936
604.422728	41967.991418
604.772830	41735.876530
605.122878	41933.888012
605.472872	41788.410394
605.822813	42023.544933
606.172701	41772.689556
606.522534	42093.385078
606.872314	42301.189002
607.222041	42142.188489
607.571714	42472.724343
607.921333	41941.111985
608.270899	42159.585511
608.620411	42541.652040
608.969870	42286.549491
609.319276	42299.676655
609.668627	42334.130421
610.017926	42725.697005
610.367171	42856.567880
610.716362	42921.215637
611.065500	42819.459946
611.414585	43041.220304
611.763616	43181.760111
612.112594	43086.719238
612.461518	43209.499060
612.810389	43595.928708
613.159207	43383.635638
613.507971	43350.157335
613.856682	43861.746230
614.205340	43674.313610
614.553945	44392.720882
614.902496	43692.907906
615.250994	44140.658149
615.599439	44204.378334
615.947830	44313.960415
616.296169	44311.167616
616.644454	44320.304707
616.992686	44486.995501
617.340864	44929.397080
617.688990	44413.288790
618.037063	45103.465602
618.385082	44922.369711
618.733048	45251.562099
619.080961	45120.338343
619.428821	45148.425132
619.776628	45180.678434
620.124382	45017.004772
620.472083	45128.754550
620.819731	45264.674140
621.167326	44826.328169
621.514868	44835.374519
621.862357	44251.641672
622.209793	44384.639913
622.557176	43954.712669
622.904506	43699.945356
623.251783	43349.844783
623.599007	43018.900595
623.946179	42947.875779
624.293297	42658.299299
624.640363	42094.458844
624.987376	41960.913638
625.334336	41773.168465
625.681243	41342.127126
626.028097	41238.589388
626.374899	41066.766700
626.721647	41038.556403
627.068343	40768.002718
627.414987	40470.680505
627.761577	40218.466537
628.108115	40546.146578
628.454600	39763.320921
628.801032	40004.141881
629.147412	39867.834122
629.493739	39768.707394
629.840014	39309.397784
630.186236	39711.611285
630.532405	39135.851022
630.878521	39371.293071
631.224585	39144.365531
631.570597	38782.841703
631.916556	38963.844332
632.262462	38852.787713
632.608316	38777.634192
632.954117	38637.747213
633.299866	38573.754807
633.645562	38506.488170
633.991206	37979.266657
634.336797	37548.200112
634.682336	37436.485622
635.027823	37202.001392
635.373257	37073.971208
635.718639	36747.672443
636.063968	36658.645666
636.409245	35982.480742
636.754470	35916.401297
637.099642	35687.656421
637.444762	35114.633504
637.789829	35247.558649
638.134845	34841.430692
638.479808	34755.226962
638.824719	34700.348961
639.169577	34180.245557
639.514383	34274.626039
639.859137	33838.747713
640.203839	34008.989999
640.548489	33723.297728
640.893086	33683.633930
641.237632	33401.367123
641.582125	33474.809173
641.926566	33267.176649
642.270955	33288.576347
642.615292	33210.582135
642.959576	33069.961669
643.303809	33069.631473
643.647990	33144.190139
643.992118	33106.719242
644.336195	32913.799326
644.680219	32981.625530
645.024192	33136.010867
645.368112	33670.731096
645.711981	33667.454346
646.055797	34335.770194
646.399562	34108.378867
646.743274	34936.766473
647.086935	35310.542825
647.430544	35268.746619
647.774101	35299.916073
648.117606	35626.461854
648.461059	35753.403149
648.804460	35384.042848
649.147810	34862.341398
649.491108	34580.170374
649.834354	34457.022547
650.177548	33641.293278
650.520690	33108.498770
650.863781	33074.473502
651.206820	32896.311563
651.549807	32463.404997
651.892742	31867.023894
652.235626	31761.721752
652.578458	31606.645777
652.921238	30886.763967
653.263967	31158.978713
653.606644	30841.975836
653.949269	30723.685161
654.291843	30318.608285
654.634365	30641.342954
654.976836	30181.226760
655.319255	30253.774005
655.661622	30087.753685
656.003938	29943.133064
656.346203	29776.165007
656.688416	29987.286010
657.030577	29761.389385
657.372687	29554.765092
657.714746	29686.407263
658.056753	29864.402844
658.398708	29225.870133
658.740612	29297.477203
659.082465	29471.071856
659.424266	29354.545585
659.766016	29314.049996
660.107715	29147.810386
660.449362	29237.016124
660.790958	29174.031948
661.132503	29091.528424
661.473996	29164.302521
661.815438	29221.955677
662.156829	29313.860953
662.498168	29096.239382
662.839456	29044.154181
663.180693	29154.999072
663.521879	29205.748367
663.863013	29148.304419
664.204097	29116.890469
664.545129	29488.264711
664.886110	29396.684590
665.227040	29497.401803
665.567918	29444.797362
665.908746	29480.587034
666.249522	29547.392405
666.590248	29560.322964
666.930922	29635.113523
667.271545	29630.513470
667.612118	29665.675518
667.952639	29452.890935
668.293109	29486.283538
668.633528	29322.277159
668.973896	29266.322872
669.314213	29220.914679
669.654480	29023.180460
669.994695	28988.945984
670.334859	28894.910821
670.674973	28689.221662
671.015035	28836.594753
671.355047	28754.670962
671.695008	28656.401230
672.034918	28535.325317
672.374777	28590.654501
672.714585	28456.607700
673.054342	28547.557677
673.394049	28392.038081
673.733705	28575.450381
674.073310	28286.884653
674.412864	28309.874835
674.752368	28033.773359
675.091820	28256.063038
675.431223	27854.572943
675.770574	27653.624989
676.109875	27474.167474
676.449125	27256.026665
676.788324	27140.218758
677.127473	26656.401579
677.466571	26558.283081
677.805619	26274.788754
678.144616	26191.397987
678.483562	26131.045293
678.822458	25805.182588
679.161303	25717.141356
679.500098	25627.189528
679.838842	25524.070205
680.177535	25546.362188
680.516179	25723.306687
680.854771	25748.615800
681.193314	26345.380031
681.531805	27146.179922
681.870247	27813.404360
682.208638	28540.245483
682.546978	28880.029335
682.885268	29043.100580
683.223508	28637.121337
683.561697	28387.153203
683.899836	28220.636330
684.237925	27794.144632
684.575963	27595.225742
684.913951	27204.100259
685.251889	27308.621023
685.589776	27249.878977
685.927614	27203.981792
686.265401	27320.424884
686.603137	27370.591927
686.940824	27755.486544
687.278460	28006.561211
687.616046	28138.001736
687.953582	28730.773373
688.291068	28600.146994
688.628504	28905.386339
688.965889	28922.100284
689.303224	28696.846407
689.640510	28422.411033
689.977745	27871.188586
690.314930	27212.589563
690.652065	26851.378287
690.989150	26243.457982
691.326185	25473.555323
691.663170	24894.629215
692.000105	24230.575663
692.336990	23674.092773
692.673825	23267.213684
693.010610	22794.557620
693.347345	22307.965286
693.684030	21726.856359
694.020665	21532.252697
694.357251	20896.154863
694.693786	20877.984024
695.030272	20663.145171
695.366707	20190.456339
695.703093	19908.600387
696.039429	19937.329922
696.375716	19688.251552
696.711952	19661.019239
697.048139	19505.406381
697.384276	19337.057049
697.720363	19427.195400
698.056400	19298.219999
698.392388	19132.275297
698.728326	19115.735271
699.064214	18976.501123
699.400053	18977.670670
699.735842	18619.892420
700.071581	18436.911138
700.407270	18209.267754
700.742910	18037.354326
701.078501	17797.806257
701.414042	17598.451307
701.749533	17314.876321
702.084974	17024.876384
702.420366	17210.940332
702.755709	16830.580233
703.091002	16565.690283
703.426246	16599.506343
703.761440	16508.422776
704.096584	16302.738658
704.431679	16224.835187
704.766725	16164.548028
705.101721	16078.800522
705.436668	16159.821946
705.771565	15895.993160
706.106413	16128.982687
706.441212	16165.430230
706.775961	16228.999180
707.110661	16264.965292
707.445311	16550.697892
707.779913	16429.034685
708.114465	16642.998898
708.448967	16869.659257
708.783421	17353.920058
709.117825	17630.180330
709.452180	17783.990975
709.786485	18126.691134
710.120742	18723.316732
710.454949	18771.152241
710.789107	19162.557508
711.123216	19723.159022
711.457275	19899.117976
711.791286	20338.084009
712.125247	20460.195879
712.459159	20256.535784
712.793023	20890.639841
713.126837	20058.839374
713.460602	20270.174626
713.794318	20005.967752
714.127985	19781.318814
714.461602	19043.656854
714.795171	19032.208393
715.128691	18216.973158
715.462162	17758.455010
715.795584	17379.803862
716.128957	17137.957027
716.462281	16815.688664
716.795556	16560.702062
717.128782	16152.822304
717.461960	15651.545089
717.795088	15610.202586
718.128167	15322.597198
718.461198	14939.913127
718.794180	14825.572196
719.127113	14542.937385
719.459997	14372.828690
719.792833	14053.632910
720.125619	14064.037852
720.458357	13772.568419
720.791046	13647.888081
721.123686	13504.958767
721.456278	13303.121049
721.788821	13286.021455
722.121315	13050.705435
722.453761	13114.405455
722.786158	13002.249864
723.118506	13060.797825
723.450805	12938.113784
723.783056	13065.647415
724.115259	12952.090383
724.447412	12915.378181
724.779518	13068.546078
725.111574	13099.095471
725.443582	13274.575516
725.775542	13217.499572
726.107453	13598.905710
726.439315	13500.986338
726.771129	13791.850832
727.102895	14098.506741
727.434612	14289.342141
727.766281	14404.900510
728.097901	14657.212781
728.429473	14714.230752
728.760996	14720.209560
729.092471	14797.442558
729.423897	14704.934864
729.755276	14571.399740
730.086606	14617.007058
730.417887	15004.717160
730.749120	15390.090686
731.080305	15550.921138
731.411442	15850.360635
731.742530	15926.900474
732.073570	16023.635175
732.404562	16255.876092
732.735506	16181.786253
733.066401	16075.551498
733.397249	15733.587347
733.728048	15277.672955
734.058798	14633.806704
734.389501	14046.799626
734.720156	13632.298313
735.050762	13165.432014
735.381320	12826.469871
735.711831	12578.082138
736.042293	12274.135850
736.372707	12269.739963
736.703073	12080.747106
737.033391	12198.200949
737.363661	12161.861792
737.693883	12228.533572
738.024056	12344.417096
738.354182	12480.525729
738.684260	12725.954304
739.014290	12911.279722
739.344272	13076.939600
739.674207	13322.186693
740.004093	13443.481896
740.333931	13488.083504
740.663722	13545.308162
740.993464	13581.596908
741.323159	13478.316269
741.652806	13259.663783
741.982405	13136.876398
742.311956	12849.702028
742.641460	12762.353956
742.970915	12501.461641
743.300323	12235.061866
743.629683	12064.070969
743.958996	11822.488794
744.288260	11588.458268
744.617477	11346.823161
744.946647	11301.374639
745.275768	11060.309182
745.604842	10898.815819
745.933869	10758.084448
746.262847	10717.513242
746.591778	10635.745726
746.920662	10523.080979
747.249498	10510.364668
747.578286	10597.253996
747.907027	10699.607063
748.235720	10869.657785
748.564365	10910.985164
748.892963	10848.212717
749.221514	10930.164234
749.550017	10837.107055
749.878473	10805.572117
750.206881	10639.831581
750.535242	10574.699874
750.863555	10505.268062
751.191821	10419.071893
751.520039	10418.870247
751.848210	10342.101035
752.176334	10366.311177
752.504411	10301.262648
752.832440	10168.128295
753.160421	10238.780067
753.488356	10159.334003
753.816243	10080.918854
754.144082	9957.493764
754.471875	9911.031970
754.799620	9874.534016
755.127318	9848.413277
755.454969	9833.728396
755.782572	9797.225401
756.110129	9787.679976
756.437638	9716.559378
756.765100	9711.419922
757.092515	9714.946209
757.419882	9722.003824
757.747203	9712.992762
758.074477	9761.839022
758.401703	9739.214323
758.728882	9853.517446
759.056014	9866.632007
759.383099	9965.206730
759.710138	10045.232526
760.037129	10124.010637
760.364073	10159.598663
760.690970	10173.320684
761.017820	10163.855917
761.344623	10289.095823
761.671379	10484.133024
761.998088	10828.620272
762.324751	11739.985270
762.651366	13643.446825
762.977935	16497.838873
763.304456	18787.016752
763.630931	19910.453011
763.957359	19406.158665
764.283740	18026.067182
764.610074	16559.499747
764.936362	14802.415656
765.262602	13518.746323
765.588796	12179.462980
765.914943	11265.443815
766.241044	10478.469288
766.567097	9912.493904
766.893104	9397.502230
767.219064	9071.579031
767.544978	8739.782888
767.870845	8455.676060
768.196665	8294.265876
768.522438	8121.182900
768.848165	7981.295922
769.173846	7827.255904
769.499479	7727.887200
769.825066	7616.475179
770.150607	7446.981505
770.476101	7382.742081
770.801548	7299.943650
771.126949	7191.677309
771.452303	7109.708148
771.777611	6972.876109
772.102872	6957.482946
772.428087	6862.331167
772.753256	6753.961483
773.078378	6695.829417
773.403453	6568.389048
773.728482	6486.712273
774.053465	6429.268325
774.378401	6360.287697
774.703291	6275.185458
775.028135	6192.918868
775.352932	6166.730074
775.677683	6089.628147
776.002388	6018.489904
776.327046	6014.779615
776.651658	5941.645075
776.976224	5880.669799
777.300743	5874.809458
777.625216	5814.902906
777.949643	5786.465757
778.274024	5787.773937
778.598359	5727.103650
778.922647	5732.510288
779.246889	5697.675914
779.571086	5695.356984
779.895236	5696.113157
780.219339	5694.958732
780.543397	5688.687537
780.867409	5734.118416
781.191374	5736.691925
781.515294	5709.809972
781.839167	5765.875164
782.162995	5748.962093
782.486776	5708.131267
782.810511	5680.157905
783.134201	5617.876970
783.457844	5613.486125
783.781441	5570.490123
784.104993	5527.408423
784.428498	5508.627604
784.751958	5494.527497
785.075372	5464.308300
785.398739	5430.139359
785.722061	5447.160815
786.045337	5442.671668
786.368568	5522.163102
786.691752	5518.538512
787.014891	5689.824317
787.337983	5874.819540
787.661030	6211.558535
787.984031	6592.054745
788.306987	6852.584096
788.629897	7005.394072
788.952760	6997.033318
789.275579	6882.717593
789.598351	6651.762171
789.921078	6439.849707
790.243759	6185.904103
790.566395	5998.214383
790.888984	5842.558676
791.211529	5709.414241
791.534027	5571.954579
791.856480	5442.225526
792.178888	5388.897680
792.501249	5323.692875
792.823566	5221.586825
793.145836	5216.248243
793.468062	5187.737997
793.790241	5152.427235
794.112375	5184.060475
794.434464	5260.733905
794.756507	5273.649341
795.078505	5350.272359
795.400457	5513.764540
795.722364	5709.494900
796.044226	5882.403956
796.366042	6052.784874
796.687812	6036.953130
797.009538	6084.834009
797.331218	6026.154978
797.652852	5976.572710
797.974442	5884.680037
798.295986	5830.825390
798.617484	5717.026383
798.938938	5632.289628
799.260346	5567.974588
799.581709	5452.547288
799.903026	5401.760184
800.224299	5333.818033
800.545526	5233.529318
800.866708	5176.166028
801.187845	5130.306652
801.508936	5072.998815
801.829983	5045.733734
802.150984	4955.872647
802.471940	4925.005662
802.792851	4914.285648
803.113717	4891.388727
803.434538	4870.218402
803.755314	4835.978885
804.076045	4833.687680
804.396731	4795.011948
804.717372	4811.814114
805.037967	4807.617353
805.358518	4823.033202
805.679024	4870.049523
805.999485	4868.569944
806.319901	4889.011823
806.640272	4897.672525
806.960598	4943.060554
807.280879	4941.797745
807.601115	4982.852902
807.921306	4953.102533
808.241453	4955.066062
808.561554	4963.394048
808.881611	4943.257159
809.201623	4943.310091
809.521590	4916.682717
809.841513	4898.842073
810.161390	4916.226492
810.481223	4838.323021
810.801011	4823.756607
811.120755	4810.581552
811.440453	4764.815436
811.760107	4740.340634
812.079716	4717.584866
812.399281	4682.221172
812.718801	4671.475952
813.038276	4645.755985
813.357707	4608.204430
813.677093	4624.525166
813.996434	4570.534408
814.315731	4588.594342
814.634983	4575.436930
814.954191	4579.474895
815.273354	4624.194970
815.592473	4649.430987
815.911547	4713.746027
816.230577	4748.862705
816.549562	4827.171989
816.868502	4873.119586
817.187399	4918.656328
817.506250	4990.454962
817.825058	4993.532586
818.143821	5115.513386
818.462539	5233.783896
818.781213	5394.942023
819.099843	5642.777749
819.418429	6118.413135
819.736970	6598.177226
820.055466	7165.604462
820.373919	7857.684309
820.692327	8879.526193
821.010691	10577.608619
821.329011	14621.534015
821.647286	21572.965055
821.965517	30531.695337
822.283704	36734.898159
822.601847	40136.799845
822.919945	37309.715727
823.237999	33369.484345
823.556010	28964.468662
823.873976	24818.822864
824.191897	21045.246988
824.509775	18285.202655
824.827609	15651.945861
825.145398	14060.942583
825.463144	13092.095829
825.780845	12961.187146
826.098502	13579.315786
826.416116	15316.918338
826.733685	17294.552909
827.051210	18297.084654
827.368692	17724.049135
827.686129	15832.479662
828.003522	13729.108632
828.320872	11773.576999
828.638177	10289.090782
828.955439	9154.513574
829.272656	8200.278603
829.589830	7418.655261
829.906960	6739.783238
830.224046	6216.594647
830.541088	5805.528880
830.858086	5539.792017
831.175041	5317.517462
831.491952	5224.924068
831.808819	5203.446233
832.125642	5336.804916
832.442421	5664.409340
832.759157	6403.719758
833.075849	7690.043258
833.392497	9278.329353
833.709101	10523.806905
834.025662	10728.008924
834.342179	10071.106248
834.658653	9024.943317
834.975083	8044.930407
835.291469	7232.160295
835.607811	6552.990843
835.924110	6088.483805
836.240366	5653.157485
836.556578	5244.798818
836.872746	4917.824538
837.188871	4652.763189
837.504952	4437.478194
837.820990	4264.790948
838.136984	4150.263494
838.452935	4091.007252
838.768842	4072.859098
839.084706	4205.587637
839.400526	4681.182694
839.716303	5420.430097
840.032037	6040.676022
840.347727	6151.929246
840.663373	5756.390233
840.978977	5239.326645
841.294537	4834.501827
841.610054	4528.314745
841.925527	4316.397240
842.240957	4135.117348
842.556344	3972.285558
842.871687	3832.562417
843.186987	3690.595963
843.502244	3577.386771
843.817458	3494.963906
844.132629	3427.316663
844.447756	3376.010319
844.762840	3338.017663
845.077881	3296.997794
845.392879	3265.717435
845.707833	3244.315216
846.022745	3222.872668
846.337613	3208.954042
846.652438	3186.110054
846.967221	3178.606296
847.281960	3161.121054
847.596656	3155.230466
847.911309	3141.216058
848.225919	3131.552166
848.540485	3118.306535
848.855009	3113.023405
849.169490	3101.791715
849.483928	3096.962289
849.798323	3092.173193
850.112675	3083.877974
850.426984	3087.610949
850.741251	3076.548137
851.055474	3072.961356
851.369654	3076.517890
851.683792	3072.295923
851.997887	3077.841193
852.311938	3075.272725
852.625947	3078.317582
852.939914	3073.551171
853.253837	3074.932447
853.567718	3075.537385
853.881555	3069.629153
854.195350	3075.010585
854.509103	3066.647311
854.822812	3066.911971
855.136479	3064.832495
855.450103	3067.534554
855.763685	3058.289077
856.077224	3058.163049
856.390720	3063.902402
856.704173	3071.257446
857.017584	3078.367993
857.330953	3083.714137
857.644278	3094.373657
857.957561	3096.017073
858.270802	3092.281578
858.584000	3094.434151
858.897155	3091.764860
859.210268	3085.528952
859.523339	3074.869433
859.836367	3071.509503
860.149352	3068.371385
860.462295	3065.094635
860.775195	3058.518450
861.088054	3053.817574
861.400869	3053.167265
861.713642	3051.803633
862.026373	3057.333779
862.339062	3059.234294
862.651708	3066.647311
862.964312	3079.590473
863.276873	3082.773962
863.589392	3103.472939
863.901869	3122.213429
864.214303	3143.744197
864.526696	3157.176351
864.839045	3180.332892
865.151353	3187.604756
865.463619	3192.431661
865.775842	3194.027186
866.088023	3198.791076
866.400162	3194.574151
866.712258	3199.131354
867.024313	3196.159594
867.336325	3195.042978
867.648296	3195.990715
867.960224	3196.056250
868.272110	3200.678988
868.583954	3201.248639
868.895755	3201.493135
869.207515	3199.133875
869.519233	3214.282542
869.830909	3218.196998
870.142542	3227.949110
870.454134	3235.215933
870.765684	3245.096595
871.077191	3260.146960
871.388657	3269.657097
871.700081	3279.230248
872.011463	3299.967034
872.322803	3310.230823
872.634101	3329.992146
872.945357	3345.944878
873.256571	3372.637787
873.567744	3384.189591
873.878874	3391.728637
874.189963	3406.751275
874.501010	3410.174219
874.812015	3408.235895
875.122979	3425.514450
875.433900	3420.155703
875.744780	3424.201229
876.055618	3429.549894
876.366415	3432.151129
876.677169	3433.729010
876.987882	3449.696865
877.298554	3466.688074
877.609183	3492.889471
877.919771	3531.081253
878.230317	3577.273345
878.540822	3654.604645
878.851285	3763.609515
879.161707	3925.019699
879.472087	4193.244372
879.782425	4623.169096
880.092722	5440.829126
880.402977	6830.768503
880.713191	8703.612609
881.023363	10732.430016
881.333494	12150.211685
881.643583	12914.208633
881.953631	12861.445396
882.263637	12354.779188
882.573602	11584.712691
882.883526	10796.001486
883.193408	9995.526749
883.503248	9212.975835
883.813048	8495.405394
884.122806	7840.335178
884.432522	7161.062382
884.742197	6570.392907
885.051831	6045.278596
885.361424	5570.147325
885.670975	5179.074774
885.980485	4855.899004
886.289954	4591.566102
886.599382	4374.690622
886.908768	4205.345662
887.218113	4043.965724
887.527417	3915.209614
887.836680	3799.721821
888.145901	3707.509034
888.455082	3631.821151
888.764221	3567.543918
889.073319	3512.224817
889.382376	3473.579331
889.691392	3452.184674
890.000366	3436.310081
890.309300	3424.622166
890.618193	3424.864141
890.927044	3421.962957
891.235855	3426.716765
891.544625	3433.048454
891.853353	3455.063173
892.162041	3492.937362
892.470687	3556.786096
892.779293	3646.795898
893.087858	3776.134262
893.396381	3984.495232
893.704864	4274.911064
894.013306	4720.405392
894.321707	5218.113470
894.630068	5597.054484
894.938387	5736.162603
895.246665	5672.200443
895.554903	5439.906595
895.863100	5157.483512
896.171256	4932.103606
896.479371	4721.809353
896.787446	4518.103888
897.095480	4342.553267
897.403473	4208.367834
897.711425	4081.141713
898.019336	3972.774550
898.327207	3860.019062
898.635038	3766.513220
898.942827	3661.425327
899.250576	3578.112697
899.558284	3499.127899
899.865952	3450.105198
900.173579	3388.993811
900.481165	3343.078982
900.788711	3306.313847
901.096216	3277.402829
901.403681	3247.294538
901.711105	3234.802559
902.018489	3224.251424
902.325832	3240.816655
902.633135	3272.434772
902.940397	3377.724312
903.247619	3627.689925
903.554800	4152.509328
903.861941	4943.146254
904.169041	5659.637888
904.476101	6040.103851
904.783121	5956.511438
905.090100	5658.301982
905.397039	5306.167304
905.703938	4983.611596
906.010796	4698.662895
906.317614	4474.278617
906.624391	4253.402982
906.931129	4083.218669
907.237826	3919.371087
907.544483	3763.974999
907.851099	3612.455558
908.157675	3458.481076
908.464211	3321.482679
908.770707	3216.914024
909.077163	3129.780201
909.383578	3063.927608
909.689954	3016.092099
909.996289	2984.126143
910.302584	2959.842905
910.608839	2943.290276
910.915054	2930.442895
911.221229	2925.134560
911.527363	2924.683377
911.833458	2928.910385
912.139513	2935.645366
912.445527	2946.279680
912.751502	2969.557208
913.057436	3003.859739
913.363331	3048.610062
913.669186	3114.878550
913.975000	3201.871221
914.280775	3345.166019
914.586510	3545.337636
914.892205	3831.123168
915.197859	4229.608735
915.503475	4726.104416
915.809050	5192.683369
916.114585	5507.790772
916.420081	5661.621582
916.725536	5663.418753
917.030952	5496.077652
917.336328	5329.182692
917.641665	5161.203884
917.946961	4966.968226
918.252218	4800.010252
918.557435	4594.719344
918.862612	4424.681225
919.167750	4277.393833
919.472848	4104.567955
919.777906	3957.504895
920.082925	3806.529899
920.387904	3655.476765
920.692843	3546.471895
920.997743	3440.642953
921.302603	3345.823890
921.607423	3280.102367
921.912204	3213.400340
922.216946	3167.919050
922.521647	3119.188737
922.826310	3077.838672
923.130932	3046.233158
923.435516	3006.753362
923.740059	2980.549444
924.044564	2949.125412
924.349028	2927.725713
924.653454	2904.889287
924.957840	2880.306100
925.262186	2862.069726
925.566493	2838.295644
925.870761	2817.994918
926.174989	2803.884728
926.479178	2791.924591
926.783328	2775.563526
927.087438	2765.108173
927.391509	2749.720051
927.695541	2739.166395
927.999533	2733.051475
928.303486	2724.718448
928.607400	2716.836604
928.911275	2709.874771
929.215110	2705.758668
929.518906	2702.164326
929.822663	2701.284644
930.126381	2698.234746
930.430060	2702.431507
930.733699	2704.054758
931.037299	2705.504090
931.340861	2703.210365
931.644383	2704.445448
931.947866	2707.492825
932.251309	2706.751776
932.554714	2702.857484
932.858080	2703.086857
933.161407	2696.772812
933.464694	2692.969261
933.767943	2690.262162
934.071153	2691.724096
934.374323	2687.318128
934.677455	2685.437777
934.980548	2682.632375
935.283602	2681.205729
935.586617	2679.864782
935.889593	2681.445183
936.192530	2681.800585
936.495428	2685.997345
936.798287	2694.106041
937.101108	2702.587783
937.403890	2715.929196
937.706632	2734.074830
938.009336	2763.689088
938.312002	2784.478806
938.614628	2811.630461
938.917216	2831.154850
939.219765	2840.463340
939.522275	2851.886595
939.824747	2856.279961
940.127179	2855.816174
940.429573	2855.571678
940.731929	2852.584795
941.034246	2849.376100
941.336524	2844.692868
941.638763	2839.548371
941.940964	2836.105263
942.243126	2824.036741
942.545250	2818.793941
942.847335	2803.279790
943.149381	2793.860394
943.451389	2777.925306
943.753359	2765.382916
944.055290	2760.004004
944.357182	2747.144021
944.659036	2740.953484
944.960851	2737.855695
945.262628	2733.709346
945.564367	2734.589027
945.866067	2732.202041
946.167729	2730.679612
946.469352	2728.554766
946.770937	2729.671382
947.072484	2723.553942
947.373992	2721.159393
947.675462	2721.429095
947.976893	2713.128835
948.278286	2709.277394
948.579641	2710.036087
948.880958	2703.462423
949.182236	2706.434183
949.483476	2702.665921
949.784678	2704.745397
950.085841	2703.434697
950.386967	2704.440407
950.688054	2708.264122
950.989103	2714.893239
951.290114	2722.933880
951.591087	2729.530229
951.892021	2740.865264
952.192917	2751.665936
952.493776	2760.543408
952.794596	2764.911568
953.095378	2769.645211
953.396122	2768.122783
953.696828	2767.147319
953.997496	2763.847884
954.298126	2757.052409
954.598718	2748.300966
954.899272	2745.039339
955.199788	2733.076681
955.500266	2723.117882
955.800706	2710.830069
956.101108	2698.645600
956.401472	2686.443487
956.701798	2677.805470
957.002087	2661.698984
957.302337	2651.954433
957.602550	2644.690131
957.902724	2633.828965
958.202861	2623.232459
958.502960	2613.253495
958.803022	2608.870212
959.103045	2601.053903
959.403031	2597.091556
959.702979	2587.389856
960.002889	2585.131419
960.302762	2579.041705
960.602596	2576.644636
960.902393	2572.722618
961.202153	2570.391085
961.501875	2565.826320
961.801559	2561.253993
962.101205	2560.500341
962.400814	2559.187120
962.700385	2557.140412
962.999918	2551.973229
963.299414	2548.212528
963.598873	2551.680842
963.898293	2544.081303
964.197677	2548.777138
964.497022	2546.591798
964.796331	2546.259081
965.095601	2544.845038
965.394835	2545.797816
965.694030	2544.202291
965.993189	2543.499050
966.292309	2544.149358
966.591393	2543.678011
966.890439	2542.306817
967.189447	2540.723894
967.488419	2542.669780
967.787353	2541.870757
968.086249	2541.311189
968.385108	2541.200283
968.683930	2543.373021
968.982714	2544.784544
969.281462	2543.675490
969.580172	2548.310831
969.878844	2550.188661
970.177480	2550.990204
970.476078	2554.622356
970.774639	2556.868190
971.073162	2560.475135
971.371649	2560.331462
971.670098	2561.107800
971.968510	2564.407235
972.266885	2566.002760
972.565223	2566.950497
972.863524	2566.587534
973.161788	2570.549881
973.460014	2572.210941
973.758204	2572.508369
974.056356	2571.921075
974.354471	2573.138514
974.652550	2573.158678
974.950591	2570.496949
975.248595	2573.408215
975.546563	2573.771178
975.844493	2571.220355
976.142386	2567.734397
976.440243	2568.447720
976.738062	2563.875393
977.035845	2562.383212
977.333590	2562.589899
977.631299	2557.788200
977.928971	2555.146636
978.226606	2550.178578
978.524204	2548.877961
978.821765	2546.493495
979.119290	2554.040102
979.416777	2550.670091
979.714228	2551.217056
980.011642	2553.558672
980.309020	2554.778631
980.606360	2559.459343
980.903664	2564.480332
981.200931	2578.172106
981.498162	2591.372367
981.795356	2618.619804
982.092513	2648.125677
982.389633	2689.881554
982.686717	2726.974364
982.983764	2759.174735
983.280775	2788.705814
983.577749	2793.300826
983.874686	2786.492747
984.171587	2775.525717
984.468451	2762.055754
984.765279	2746.158475
985.062070	2730.840929
985.358824	2713.842159
985.655543	2695.192410
985.952224	2676.507373
986.248869	2651.989722
986.545478	2627.714045
986.842050	2607.194028
987.138586	2587.457911
987.435086	2570.557443
987.731549	2556.749722
988.027975	2547.468958
988.324366	2539.806404
988.620719	2537.744572
988.917037	2528.748633
989.213318	2526.706966
989.509563	2522.792510
989.805772	2524.990453
990.101944	2523.410052
990.398080	2521.988446
990.694180	2519.198168
990.990244	2521.343178
991.286271	2518.857890
991.582262	2519.825791
991.878217	2522.144722
992.174136	2523.702438
992.470019	2520.970133
992.765865	2524.193951
993.061676	2520.155987
993.357450	2525.524816
993.653188	2524.403159
993.948890	2536.421270
994.244556	2539.624923
994.540186	2548.003321
994.835780	2559.908005
995.131337	2572.773030
995.426859	2583.951789
995.722345	2603.012391
996.017795	2623.446708
996.313208	2635.053965
996.608586	2647.271202
996.903928	2655.939466
997.199234	2658.361740
997.494504	2656.879641
997.789738	2650.190030
998.084936	2642.817342
998.380099	2629.869138
998.675225	2623.265227
998.970316	2608.918103
999.265371	2598.419900
999.560390	2579.076993
999.855373	2570.920406
1000.150320	2559.108983
1000.445232	2553.321738
1000.740108	2543.302445
1001.034948	2539.488812
1001.329752	2530.301309
1001.624521	2526.180166
1001.919254	2521.151615
1002.213951	2519.475431
1002.508613	2518.741943
1002.803239	2515.878568
1003.097829	2509.993021
1003.392384	2510.890346
1003.686903	2508.400016
1003.981386	2508.286590
1004.275834	2508.616786
1004.570246	2504.770385
1004.864623	2507.495129
1005.158964	2503.956239
1005.453270	2501.004643
1005.747540	2502.920282
1006.041775	2501.932216
1006.335974	2500.772750
1006.630138	2501.324757
1006.924266	2503.038749
1007.218359	2499.275528
1007.512416	2497.498521
1007.806438	2495.842502
1008.100425	2497.238901
1008.394376	2495.272851
1008.688292	2499.552791
1008.982172	2499.593120
1009.276017	2500.210662
1009.569827	2498.269817
1009.863602	2499.124293
1010.157341	2498.383243
1010.451045	2498.519354
1010.744714	2497.750578
1011.038347	2499.988851
1011.331945	2498.320229
1011.625508	2496.603716
1011.919036	2493.561380
1012.212528	2495.030876
1012.505986	2494.340238
1012.799408	2496.434837
1013.092795	2493.342089
1013.386147	2498.010198
1013.679464	2493.430310
1013.972745	2493.067347
1014.265992	2493.014414
1014.559204	2494.282265
1014.852380	2493.634476
1015.145521	2495.729076
1015.438628	2495.265290
1015.731699	2493.296719
1016.024736	2494.294868
1016.317737	2493.223622
1016.610703	2496.271000
1016.903635	2495.696308
1017.196531	2496.225629
1017.489393	2496.891062
1017.782219	2495.731596
1018.075011	2495.610609
1018.367768	2496.117245
1018.660490	2497.884169
1018.953177	2497.884169
1019.245829	2497.884169
