Dividing Wavelength (nm)	Counts (n)	Blue Motor Position (mm): 0.000000	Red Motor Position (mm): 48.500000	
326.493990	2053.695501
326.888308	2053.695501
327.282561	2053.695501
327.676750	2026.884124
328.070874	2030.261697
328.464933	2034.128262
328.858929	2042.224355
329.252859	2056.629452
329.646726	2066.832748
330.040528	2086.077353
330.434265	2101.281473
330.827938	2123.185286
331.221547	2143.443163
331.615091	2162.687768
332.008571	2181.919769
332.401986	2204.403316
332.795338	2222.506099
333.188625	2241.213821
333.581847	2260.952459
333.975006	2278.972063
334.368100	2295.834723
334.761129	2313.080510
335.154095	2329.859991
335.546996	2382.313197
335.939833	2490.841677
336.332606	2504.719974
336.725315	2513.446211
337.117960	2525.257634
337.510540	2533.129396
337.903056	2548.814946
338.295508	2550.155893
338.687896	2559.726524
339.080220	2563.010836
339.472480	2567.089129
339.864676	2572.679769
340.256807	2576.261508
340.648875	2577.834348
341.040879	2578.956005
341.432818	2580.974987
341.824694	2582.210070
342.216506	2580.468351
342.608253	2580.788465
342.999937	2577.385686
343.391557	2579.893660
343.783113	2575.134811
344.174605	2575.422156
344.566033	2572.773030
344.957397	2570.375961
345.348697	2568.435117
345.739934	2566.053172
346.131106	2569.947463
346.522215	2564.334138
346.913260	2563.567883
347.304241	2561.279199
347.695159	2561.289282
348.086012	2560.573438
348.476802	2558.423386
348.867528	2553.069680
349.258191	2551.895091
349.648789	2550.773435
350.039324	2549.044319
350.429796	2552.709238
350.820203	2551.040616
351.210548	2549.130018
351.600828	2550.803682
351.991045	2549.190512
352.381198	2547.801674
352.771288	2547.867209
353.161314	2546.243958
353.551276	2546.110367
353.941175	2543.862013
354.331010	2547.869730
354.720782	2550.748229
355.110490	2554.193857
355.500135	2550.007179
355.889717	2547.473999
356.279235	2546.775800
356.668689	2549.271171
357.058080	2551.960626
357.447408	2551.864844
357.836672	2548.961140
358.225873	2549.918959
358.615010	2548.799823
359.004084	2551.149001
359.393095	2551.736295
359.782043	2555.552448
360.170927	2555.955741
360.559748	2554.634958
360.948505	2554.224104
361.337199	2557.193344
361.725830	2557.178221
362.114398	2558.055381
362.502903	2559.164435
362.891344	2558.972871
363.279722	2560.936401
363.668037	2558.761143
364.056289	2561.445557
364.444478	2560.490259
364.832603	2561.846329
365.220665	2563.653583
365.608665	2564.525702
365.996601	2564.588717
366.384474	2563.464539
366.772284	2564.223233
367.160031	2562.141237
367.547715	2564.651731
367.935336	2562.789025
368.322893	2560.913716
368.710388	2562.708366
369.097820	2562.211813
369.485189	2562.733572
369.872495	2569.191290
370.259738	2567.033676
370.646918	2568.467885
371.034035	2571.003585
371.421090	2570.585169
371.808081	2572.049624
372.195010	2572.420149
372.581875	2573.617423
372.968678	2574.323185
373.355418	2574.925603
373.742096	2578.383834
374.128710	2581.768969
374.515262	2583.056984
374.901751	2584.264340
375.288177	2592.206678
375.674540	2593.797162
376.060841	2598.797987
376.447079	2598.540888
376.833254	2606.410129
377.219367	2607.811570
377.605417	2618.060236
377.991404	2620.502675
378.377329	2630.055661
378.763191	2634.746455
379.148991	2647.198105
379.534727	2652.440905
379.920402	2660.098417
380.306013	2669.051507
380.691563	2684.716892
381.077049	2692.649148
381.462474	2701.705581
381.847835	2714.374000
382.233134	2728.890003
382.618371	2740.774523
383.003545	2755.156935
383.388657	2768.004316
383.773706	2790.618932
384.158693	2802.596713
384.543618	2820.243272
384.928480	2833.453616
385.313280	2856.867255
385.698017	2876.069010
386.082692	2900.120355
386.467305	2917.676173
386.851856	2939.670728
387.236344	2965.670478
387.620770	2986.397183
388.005133	3004.560460
388.389435	3038.137065
388.773674	3050.805485
389.157851	3083.943509
389.541965	3112.025257
389.926018	3125.049078
390.310008	3157.375477
390.693936	3183.085362
391.077802	3210.247098
391.461606	3244.249681
391.845348	3262.110489
392.229027	3291.689459
392.612645	3328.560459
392.996200	3362.739482
393.379694	3400.197775
393.763125	3439.178498
394.146494	3468.873414
394.529801	3503.775843
394.913047	3550.104047
395.296230	3553.229562
395.679351	3579.592276
396.062410	3627.543732
396.445408	3606.864918
396.828343	3650.601969
397.211217	3682.842669
397.594028	3656.701765
397.976778	3708.176987
398.359466	3739.792584
398.742092	3747.853389
399.124656	3765.192437
399.507158	3825.109071
399.889598	3830.813137
400.271977	3891.896798
400.654294	3885.708782
401.036549	3944.599541
401.418742	3942.835137
401.800874	4011.399871
402.182944	4037.066905
402.564952	4122.345584
402.946898	4123.716778
403.328783	4113.324440
403.710606	4162.064836
404.092367	4238.680292
404.474067	4299.632883
404.855705	4282.583701
405.237282	4255.903394
405.618797	4354.868806
406.000250	4434.279582
406.381642	4516.016850
406.762972	4514.353269
407.144240	4483.055266
407.525447	4548.093712
407.906593	4566.100713
408.287677	4649.186491
408.668700	4676.310419
409.049661	4713.524217
409.430560	4752.817490
409.811399	4733.948451
410.192176	4787.467861
410.572891	4866.238411
410.953545	4975.906192
411.334138	4871.705542
411.714669	4981.365762
412.095139	4893.977360
412.475547	5006.364843
412.855894	5011.474053
413.236180	5113.489363
413.616405	5039.235687
413.996568	5142.828878
414.376670	5145.145288
414.756711	5140.434330
415.136691	5212.404363
415.516609	5302.862827
415.896466	5336.615873
416.276262	5410.312501
416.655997	5525.306262
417.035670	5622.398885
417.415283	5762.442138
417.794834	5836.637841
418.174324	5796.306089
418.553753	5799.368590
418.933121	5963.453107
419.312428	5977.157484
419.691674	5897.499691
420.070859	6129.652387
420.449983	6005.990363
420.829045	6204.989911
421.208047	6128.976873
421.586988	6287.730369
421.965867	6360.849785
422.344686	6447.179545
422.723444	6608.713237
423.102141	6227.339867
423.480777	6623.584641
423.859352	6429.805208
424.237866	6803.238762
424.616319	6797.827083
424.994712	6962.798843
425.373044	6874.066973
425.751314	7196.045469
426.129524	6914.305463
426.507673	7176.866399
426.885762	7223.887762
427.263789	7265.341170
427.641756	7350.365271
428.019662	7431.578259
428.397508	7476.285732
428.775292	7452.244469
429.153016	7631.475133
429.530679	7552.374388
429.908282	7610.377904
430.285824	7549.695014
430.663305	7834.583221
431.040726	7720.050726
431.418086	7727.423414
431.795385	7855.327569
432.172624	8047.977784
432.549802	7937.248840
432.926920	8065.478150
433.303977	8014.968309
433.680974	8050.803351
434.057910	8253.853466
434.434786	8308.983524
434.811601	8263.623222
435.188355	8605.965459
435.565050	8490.467583
435.941683	8502.079881
436.318257	8838.987755
436.694770	8791.331207
437.071222	9024.686218
437.447614	8799.409656
437.823946	8763.050334
438.200218	8918.519518
438.576429	8796.634501
438.952580	8964.038617
439.328670	8967.106159
439.704700	9041.997541
440.080670	8938.575749
440.456580	9208.892500
440.832429	9181.425774
441.208218	8918.567409
441.583947	9030.586889
441.959616	9158.302001
442.335224	9188.281743
442.710773	9273.837685
443.086261	9456.798803
443.461689	9170.511676
443.837057	9342.611627
444.212365	9559.872755
444.587612	9539.582110
444.962800	9438.065875
445.337927	9569.158560
445.712995	9108.054300
446.088002	9788.418505
446.462949	9844.561836
446.837837	9820.870933
447.212664	9843.561167
447.587431	10678.686275
447.962139	11691.852333
448.336786	12649.439671
448.711374	12436.670211
449.085901	11215.070085
449.460369	11133.579833
449.834776	10910.488611
450.209124	11819.267497
450.583412	11650.562763
450.957640	11970.628141
451.331808	11559.038094
451.705917	10978.352624
452.079965	10858.531959
452.453954	11060.223483
452.827883	11006.136943
453.201752	10974.143260
453.575562	10982.844292
453.949311	11325.083185
454.323001	11388.639532
454.696632	11315.802421
455.070202	11897.886812
455.443713	11952.038886
455.817164	12131.269550
456.190556	12457.404477
456.563888	12320.290134
456.937160	12596.777258
457.310373	12071.733523
457.683526	12077.732496
458.056619	12096.251174
458.429653	12162.373469
458.802628	12301.491671
459.175542	12353.770957
459.548398	12908.111357
459.921194	13487.765912
460.293930	13765.120114
460.666607	14629.925015
461.039224	15437.961483
461.411782	15796.700073
461.784280	15468.515916
462.156719	15432.204485
462.529099	15332.651779
462.901419	14695.517988
463.273680	14295.444457
463.645882	14515.548796
464.018024	14388.325197
464.390106	14754.600312
464.762130	15808.251877
465.134094	17342.418665
465.505999	19638.250868
465.877845	21928.164755
466.249631	23211.957597
466.621358	22779.265280
466.993026	21972.758802
467.364634	21240.586659
467.736184	20417.953530
468.107674	19812.153031
468.479105	19665.362193
468.850477	19393.487725
469.221790	18958.100911
469.593043	18287.592162
469.964238	17897.260660
470.335373	17952.975493
470.706449	18670.573660
471.077467	19518.543628
471.448425	22006.955469
471.819324	23918.392129
472.190164	23836.314583
472.560945	22088.362542
472.931667	20485.575568
473.302330	20150.880761
473.672934	19583.952599
474.043479	19999.469705
474.413965	19784.514905
474.784393	19608.578636
475.154761	20289.575506
475.525070	20413.383724
475.895321	20240.459544
476.265513	20777.566760
476.635645	21380.264429
477.005719	21445.756579
477.375734	21800.434520
477.745691	22454.027678
478.115588	23084.222320
478.485427	24290.356186
478.855207	26107.631654
479.224928	27933.010776
479.594591	29386.120852
479.964194	29049.989316
480.333739	29534.106444
480.703226	29753.119373
481.072653	30191.689675
481.442022	30724.206920
481.811333	31127.829423
482.180584	30713.065970
482.549777	30483.963172
482.918912	30250.507337
483.287988	30177.352633
483.657005	30031.166733
484.025964	29666.124181
484.394864	29875.639576
484.763706	29793.882143
485.132489	29261.183416
485.501213	29330.010289
485.869879	29503.108389
486.238487	29440.262844
486.607036	29699.317658
486.975527	29379.615243
487.343959	29738.643699
487.712333	30084.492059
488.080648	30051.873273
488.448905	30492.553298
488.817104	30382.603212
489.185244	31208.770190
489.553326	32170.783660
489.921350	34079.538426
490.289315	36608.304704
490.657222	37533.328708
491.025070	38147.666401
491.392861	37880.258395
491.760593	37118.025852
492.128267	36124.210262
492.495883	35134.563706
492.863440	34218.578491
493.230939	33221.370204
493.598380	32664.771367
493.965763	32483.007524
494.333088	31977.523466
494.700354	31796.218368
495.067563	31748.924783
495.434713	31614.053753
495.801805	31913.679773
496.168839	31742.572929
496.535815	31587.587695
496.902733	31726.801679
497.269593	31544.286704
497.636395	31692.685671
498.003139	31967.604996
498.369825	31722.246997
498.736453	32145.600576
499.103023	31979.272746
499.469535	32069.542168
499.835989	32194.464481
500.202385	32058.494479
500.568723	32099.859667
500.935003	32407.438107
501.301226	32264.959976
501.667390	33019.078783
502.033497	33234.504931
502.399546	33030.363406
502.765537	32624.661426
503.131470	33128.965854
503.497345	33558.731781
503.863163	32477.953767
504.228923	33271.590179
504.594625	33673.239070
504.960269	33129.018786
505.325856	33814.126717
505.691385	33471.245077
506.056856	33810.915502
506.422270	34303.340451
506.787625	33816.722912
507.152924	34295.778721
507.518164	34464.196109
507.883347	34040.497210
508.248472	34197.014955
508.613540	34882.989965
508.978550	35113.471518
509.343503	34954.886901
509.708398	35318.757385
510.073236	35912.045740
510.438016	36013.292274
510.802738	35675.799627
511.167403	36243.872131
511.532010	36493.326067
511.896561	37034.130969
512.261053	37789.820095
512.625488	37571.459996
512.989866	37488.253231
513.354186	37540.950933
513.718449	37510.454473
514.082655	38415.124818
514.446803	38085.176258
514.810894	38745.564891
515.174927	38732.102490
515.538904	38747.732587
515.902822	39374.741221
516.266684	39068.551618
516.630488	39444.699833
516.994235	39444.629257
517.357925	40013.367193
517.721558	40275.436617
518.085133	40672.220795
518.448651	40855.900276
518.812112	40758.371593
519.175516	40895.395196
519.538863	41353.638601
519.902152	41419.619743
520.265385	41955.131434
520.628560	41994.507887
520.991678	41942.531070
521.354739	42164.934175
521.717743	42537.540979
522.080690	42444.146042
522.443580	43137.947443
522.806413	43139.031291
523.169189	43282.681491
523.531908	43506.228937
523.894569	43371.214235
524.257174	43556.605188
524.619722	43912.964353
524.982213	44068.776336
525.344647	44110.673366
525.707025	44237.284465
526.069345	44684.253330
526.431608	44588.552065
526.793815	44999.499365
527.155964	44529.331111
527.518057	44782.712106
527.880093	44635.671730
528.242072	45269.183452
528.603995	44981.068907
528.965860	44899.180404
529.327669	45125.979395
529.689421	45189.205546
530.051117	45166.364078
530.412755	45423.624241
530.774337	45498.510582
531.135862	45430.449963
531.497331	45581.987048
531.858743	45581.198107
532.220098	45975.512120
532.581396	45713.732563
532.942638	45478.454351
533.303824	45740.869094
533.664953	45795.482434
534.026025	45450.480988
534.387040	46020.237237
534.747999	46070.845381
535.108902	46440.861032
535.469748	45753.648419
535.830537	46040.648869
536.191270	46277.341124
536.551947	46000.778383
536.912567	46278.687113
537.273131	46419.247085
537.633638	46055.409367
537.994089	46227.721047
538.354483	45972.464743
538.714821	46640.967113
539.075103	46931.650126
539.435328	46783.752755
539.795497	46529.822274
540.155609	46677.583534
540.515665	47272.406920
540.875665	46553.109884
541.235609	46831.958788
541.595496	46963.845455
541.955328	47559.288903
542.315102	46981.988568
542.674821	46875.723565
543.034483	46765.523942
543.394090	46791.437994
543.753640	46772.485776
544.113134	47828.889811
544.472571	46934.158100
544.831953	48063.041325
545.191278	47309.910584
545.550548	47021.302006
545.909761	47655.968152
546.268918	47807.202767
546.628019	48197.955205
546.987064	47643.866862
547.346053	46941.298895
547.704986	47855.852423
548.063863	47505.739247
548.422684	47702.992035
548.781449	47279.134340
549.140158	47814.295671
549.498811	47563.253771
549.857408	46952.772561
550.215949	47798.854617
550.574434	47632.771283
550.932864	47587.408460
551.291237	48303.171647
551.649555	48030.147796
552.007817	48220.400942
552.366022	47916.232843
552.724173	47977.770208
553.082267	48378.025220
553.440305	48751.564638
553.798288	47977.266092
554.156215	48394.776974
554.514086	48570.093182
554.871902	48160.383485
555.229661	48351.395325
555.587365	48024.279893
555.945014	48151.281682
556.302606	48172.242800
556.660143	48279.821023
557.017625	48492.459412
557.375050	48179.781845
557.732421	48580.745140
558.089735	48650.507147
558.446994	48510.761322
558.804197	48991.349641
559.161345	48851.674392
559.518437	48187.580510
559.875474	48435.375907
560.232455	48659.414866
560.589381	48692.227737
560.946251	48540.703255
561.303065	49181.907777
561.659825	48852.047437
562.016528	48649.776180
562.373177	48225.104339
562.729770	48885.341738
563.086307	48391.485101
563.442789	48942.679821
563.799216	48785.718455
564.155587	48690.231440
564.511904	48653.733486
564.868164	48701.838696
565.224370	49024.341473
565.580520	48735.896732
565.936615	48932.471485
566.292654	48577.841435
566.648638	48948.467066
567.004567	48881.790245
567.360441	48971.278287
567.716260	48665.897790
568.072023	49069.900900
568.427732	48979.460080
568.783385	48490.120317
569.138982	48938.334347
569.494525	49065.202545
569.850013	48665.497018
570.205445	48807.465993
570.560823	48585.423331
570.916145	48442.456208
571.271412	48682.969658
571.626625	48321.304678
571.981782	48387.563083
572.336884	47985.011825
572.691931	48316.208071
573.046923	47966.011716
573.401860	47787.761558
573.756743	47815.702153
574.111570	47960.524420
574.466342	47862.156385
574.821059	48032.761634
575.175722	47515.380453
575.530330	47597.452959
575.884882	47240.173783
576.239380	47152.225813
576.593823	47233.481651
576.948211	47190.510856
577.302544	46711.737351
577.656823	46689.362190
578.011047	46984.804052
578.365216	46817.233578
578.719330	46495.252561
579.073389	46484.812332
579.427394	46546.594192
579.781344	46433.533715
580.135239	46194.492282
580.489080	46264.100534
580.842866	45755.997597
581.196597	46238.582213
581.550273	46236.288488
581.903895	46150.324212
582.257463	46599.899353
582.610975	46031.297529
582.964434	46354.125459
583.317837	45838.508682
583.671186	45814.346432
584.024481	46075.682368
584.377721	45623.687473
584.730906	45839.905082
585.084037	45991.119533
585.437113	45710.619650
585.790135	45839.108579
586.143103	45375.960132
586.496016	45532.336724
586.848874	45664.394790
587.201679	45685.149220
587.554428	45157.410989
587.907124	45434.871055
588.259765	45204.709615
588.612352	45361.638213
588.964884	44809.566332
589.317362	45114.344412
589.669786	45131.532226
590.022155	45010.751221
590.374470	45479.220606
590.726731	45054.674794
591.078937	44378.456938
591.431090	44739.544705
591.783188	44237.652470
592.135232	44053.763780
592.487222	44320.791179
592.839157	44468.670906
593.191038	44123.523267
593.542866	43924.122947
593.894639	43286.464877
594.246358	43602.146972
594.598022	43609.179381
594.949633	43147.956654
595.301190	43152.539063
595.652692	43082.487189
596.004141	43612.471255
596.355535	42466.024650
596.706876	42481.667350
597.058162	42191.677496
597.409395	42701.449055
597.760573	42930.261987
598.111698	42509.350847
598.462768	42418.950355
598.813785	42443.432719
599.164748	42054.532906
599.515657	42334.034639
599.866511	41835.817405
600.217312	42523.387940
600.568060	41459.157513
600.918753	42302.232520
601.269392	42196.892570
601.619978	41904.561099
601.970510	42134.901501
602.320988	42258.981941
602.671412	42530.947150
603.021783	42398.238775
603.372100	41945.890999
603.722363	42051.946794
604.072572	42094.531941
604.422728	42098.978238
604.772830	41871.506253
605.122878	42045.191648
605.472872	41903.701583
605.822813	42164.109946
606.172701	41907.321131
606.522534	42201.399361
606.872314	42431.563322
607.222041	42270.400154
607.571714	42600.915845
607.921333	42063.279308
608.270899	42274.012141
608.620411	42648.799244
608.969870	42426.239864
609.319276	42427.260698
609.668627	42465.112201
610.017926	42865.795712
610.367171	42989.717356
610.716362	43047.771283
611.065500	42957.456492
611.414585	43157.615505
611.763616	43306.039677
612.112594	43219.457860
612.461518	43351.112634
612.810389	43719.071494
613.159207	43513.765462
613.507971	43469.506652
613.856682	43967.532323
614.205340	43798.353721
614.553945	44511.901321
614.902496	43851.374056
615.250994	44262.979227
615.599439	44346.216238
615.947830	44450.915963
616.296169	44435.661431
616.644454	44473.555784
616.992686	44620.510460
617.340864	45059.060598
617.688990	44553.442949
618.037063	45263.411331
618.385082	45065.185600
618.733048	45400.311425
619.080961	45280.130318
619.428821	45290.724302
619.776628	45349.526841
620.124382	45176.408577
620.472083	45304.506817
620.819731	45434.003977
621.167326	44992.522408
621.514868	44990.914280
621.862357	44449.990911
622.209793	44574.154530
622.557176	44125.103669
622.904506	43884.895209
623.251783	43533.355386
623.599007	43208.216087
623.946179	43144.052281
624.293297	42856.678785
624.640363	42297.811428
624.987376	42157.480829
625.334336	41970.968219
625.681243	41552.247460
626.028097	41441.974740
626.374899	41261.955136
626.721647	41240.583164
627.068343	40985.142858
627.414987	40692.395492
627.761577	40423.651581
628.108115	40773.623604
628.454600	39996.955716
628.801032	40223.084234
629.147412	40113.497111
629.493739	39982.974076
629.840014	39546.664731
630.186236	39971.361778
630.532405	39389.274867
630.878521	39628.245724
631.224585	39393.146473
631.570597	39057.448477
631.916556	39242.920089
632.262462	39131.107296
632.608316	39076.798946
632.954117	38931.863252
633.299866	38881.182012
633.645562	38809.262391
633.991206	38274.174157
634.336797	37860.557566
634.682336	37751.444312
635.027823	37516.140894
635.373257	37412.779596
635.718639	37077.769718
636.063968	36985.032651
636.409245	36322.451116
636.754470	36259.146827
637.099642	36037.371346
637.444762	35456.353159
637.789829	35595.546978
638.134845	35201.416968
638.479808	35110.053616
638.824719	35066.311524
639.169577	34536.750916
639.514383	34651.888349
639.859137	34239.436265
640.203839	34404.521450
640.548489	34134.965913
640.893086	34102.528608
641.237632	33802.627846
641.582125	33888.168665
641.926566	33688.889332
642.270955	33712.310533
642.615292	33648.910462
642.959576	33519.819115
643.303809	33517.507746
643.647990	33619.941471
643.992118	33583.574587
644.336195	33402.680343
644.680219	33461.152687
645.024192	33658.128212
645.368112	34182.352759
645.711981	34183.892832
646.055797	34880.789501
646.399562	34661.794216
646.743274	35524.658273
647.086935	35919.138644
647.430544	35896.564357
647.774101	35957.587524
648.117606	36286.409387
648.461059	36447.144057
648.804460	36061.828503
649.147810	35567.752577
649.491108	35281.283968
649.834354	35174.434192
650.177548	34357.006055
650.520690	33830.795293
650.863781	33796.855724
651.206820	33639.022239
651.549807	33215.230079
651.892742	32601.993878
652.235626	32508.603982
652.578458	32350.657071
652.921238	31629.310805
653.263967	31936.228854
653.606644	31608.150562
653.949269	31531.381351
654.291843	31103.238675
654.634365	31452.300770
654.976836	30978.661681
655.319255	31076.117267
655.661622	30932.961101
656.003938	30796.963373
656.346203	30627.636057
656.688416	30873.619158
657.030577	30645.247327
657.372687	30449.280033
657.714746	30598.142786
658.056753	30790.805604
658.398708	30154.581741
658.740612	30226.019932
659.082465	30446.789703
659.424266	30335.967498
659.766016	30320.992750
660.107715	30162.569450
660.449362	30244.344527
660.790958	30228.525386
661.132503	30149.326338
661.473996	30251.525650
661.815438	30324.400570
662.156829	30440.470617
662.498168	30219.617667
662.839456	30204.083352
663.180693	30337.552941
663.521879	30403.965102
663.863013	30352.399139
664.204097	30326.379223
664.545129	30735.534393
664.886110	30672.018375
665.227040	30778.101896
665.567918	30766.761820
665.908746	30820.064461
666.249522	30909.728943
666.590248	30954.002877
666.930922	31054.173125
667.271545	31061.127396
667.612118	31146.884985
667.952639	30930.412798
668.293109	30983.740644
668.633528	30829.761120
668.973896	30802.042336
669.314213	30770.051173
669.654480	30575.442470
669.994695	30576.697718
670.334859	30490.294861
670.674973	30284.618305
671.015035	30471.660236
671.355047	30400.204401
671.695008	30317.521916
672.034918	30221.180425
672.374777	30314.681226
672.714585	30182.043427
673.054342	30324.327474
673.394049	30170.869709
673.733705	30394.132331
674.073310	30102.647774
674.412864	30160.182463
674.752368	29900.593287
675.091820	30146.455401
675.431223	29742.046478
675.770574	29544.660099
676.109875	29375.615087
676.449125	29166.848304
676.788324	29064.908611
677.127473	28563.911180
677.466571	28469.099679
677.805619	28181.519496
678.144616	28127.566547
678.483562	28054.086689
678.822458	27716.551192
679.161303	27667.420107
679.500098	27579.220079
679.838842	27497.755033
680.177535	27550.906438
680.516179	27751.073013
680.854771	27815.607344
681.193314	28489.896959
681.531805	29408.891744
681.870247	30167.681180
682.208638	30995.242036
682.546978	31392.232902
682.885268	31589.813365
683.223508	31182.629286
683.561697	30933.954208
683.899836	30768.619486
684.237925	30350.695229
684.575963	30179.474959
684.913951	29785.992737
685.251889	29926.792164
685.589776	29892.940816
685.927614	29865.464007
686.265401	30043.852797
686.603137	30114.552459
686.940824	30587.821023
687.278460	30905.277605
687.616046	31091.369278
687.953582	31774.483433
688.291068	31708.088916
688.628504	32067.253484
688.965889	32114.559672
689.303224	31905.555954
689.640510	31641.959060
689.977745	31060.812324
690.314930	30332.020274
690.652065	29954.780650
690.989150	29280.440623
691.326185	28434.386294
691.663170	27796.627400
692.000105	27052.248103
692.336990	26458.944624
692.673825	26027.222729
693.010610	25504.659242
693.347345	24989.163453
693.684030	24343.404248
694.020665	24149.856708
694.357251	23454.109422
694.693786	23457.988589
695.030272	23221.044276
695.366707	22694.558772
695.703093	22383.466647
696.039429	22457.435497
696.375716	22193.755425
696.711952	22188.084127
697.048139	22034.976723
697.384276	21863.146473
697.720363	21989.911328
698.056400	21879.484853
698.392388	21707.377340
698.728326	21712.277342
699.064214	21570.144530
699.400053	21589.530287
699.735842	21191.200995
700.071581	21010.601658
700.407270	20769.261459
700.742910	20586.577606
701.078501	20323.686474
701.414042	20123.295567
701.749533	19825.010494
702.084974	19511.823770
702.420366	19735.729139
702.755709	19319.143308
703.091002	19018.594757
703.426246	19075.166586
703.761440	18994.210696
704.096584	18760.747300
704.431679	18689.493111
704.766725	18638.975708
705.101721	18553.472698
705.436668	18655.921547
705.771565	18366.645016
706.106413	18673.157252
706.441212	18734.424915
706.775961	18826.577207
707.110661	18907.218025
707.445311	19256.638042
707.779913	19130.934350
708.114465	19395.791532
708.448967	19719.000070
708.783421	20325.163532
709.117825	20664.793628
709.452180	20865.078670
709.786485	21306.131741
710.120742	22032.062936
710.454949	22119.708437
710.789107	22643.239825
711.123216	23348.219985
711.457275	23596.509415
711.791286	24164.655015
712.125247	24341.286963
712.459159	24121.343942
712.793023	24934.804691
713.126837	23950.317756
713.460602	24242.518157
713.794318	23948.891110
714.127985	23696.520866
714.461602	22817.789777
714.795171	22816.247184
715.128691	21833.496927
715.462162	21303.391874
715.795584	20868.826768
716.128957	20594.192268
716.462281	20220.882223
716.795556	19918.564227
717.128782	19436.067831
717.461960	18820.500096
717.795088	18787.772926
718.128167	18445.438250
718.461198	17988.790370
718.794180	17843.189244
719.127113	17527.406326
719.459997	17321.208010
719.792833	16912.834220
720.125619	16963.066797
720.458357	16609.137468
720.791046	16459.039633
721.123686	16289.767769
721.456278	16062.966257
721.788821	16060.891823
722.121315	15786.713547
722.453761	15881.293155
722.786158	15758.586429
723.118506	15845.911817
723.450805	15718.007661
723.783056	15890.178189
724.115259	15766.611946
724.447412	15748.625109
724.779518	15960.993797
725.111574	15992.017058
725.443582	16261.237359
725.775542	16197.605394
726.107453	16710.378961
726.439315	16603.577075
726.771129	17002.740678
727.102895	17410.809479
727.434612	17704.615487
727.766281	17889.635915
728.097901	18232.325992
728.429473	18336.020006
728.760996	18370.355305
729.092471	18501.445469
729.423897	18388.377430
729.755276	18237.578874
730.086606	18314.232139
730.417887	18864.965594
730.749120	19402.904600
731.080305	19630.724425
731.411442	20044.159534
731.742530	20185.120278
732.073570	20325.410548
732.404562	20653.819036
732.735506	20579.585525
733.066401	20467.835747
733.397249	20048.767149
733.728048	19456.786973
734.058798	18609.119474
734.389501	17834.026947
734.720156	17285.738452
735.050762	16681.994744
735.381320	16253.683190
735.711831	15954.147910
736.042293	15558.180399
736.372707	15571.350414
736.703073	15338.194528
737.033391	15517.339491
737.363661	15489.671118
737.693883	15589.881695
738.024056	15768.414159
738.354182	15952.323013
738.684260	16299.928214
739.014290	16565.907053
739.344272	16798.984801
739.674207	17146.247204
740.004093	17336.734764
740.333931	17425.169206
740.663722	17518.309564
740.993464	17598.100947
741.323159	17469.919528
741.652806	17201.662088
741.982405	17047.715332
742.311956	16705.771346
742.641460	16595.168431
742.970915	16275.108093
743.300323	15926.406441
743.629683	15710.219079
743.958996	15408.201031
744.288260	15078.602831
744.617477	14761.907464
744.946647	14729.079470
745.275768	14389.449374
745.604842	14189.713817
745.933869	14003.745652
746.262847	13967.779540
746.591778	13870.220610
746.920662	13732.229106
747.249498	13725.887334
747.578286	13861.950597
747.907027	14015.567158
748.235720	14276.036015
748.564365	14359.847718
748.892963	14296.573676
749.221514	14413.558692
749.550017	14301.274552
749.878473	14273.036529
750.206881	14053.436305
750.535242	13982.620697
750.863555	13891.993353
751.191821	13798.147233
751.520039	13800.201504
751.848210	13717.292167
752.176334	13763.128858
752.504411	13673.260209
752.832440	13502.995238
753.160421	13631.963076
753.488356	13512.205426
753.816243	13431.483950
754.144082	13256.848298
754.471875	13201.751007
754.799620	13166.140296
755.127318	13139.979228
755.454969	13121.596661
755.782572	13092.085746
756.110129	13094.495418
756.437638	13003.469823
756.765100	13010.749250
757.092515	13031.135676
757.419882	13051.751474
757.747203	13056.212896
758.074477	13133.413126
758.401703	13108.925721
758.728882	13297.384216
759.056014	13332.616840
759.383099	13490.926715
759.710138	13615.818781
760.037129	13761.702212
760.364073	13837.130476
760.690970	13857.562273
761.017820	13863.014281
761.344623	14061.252614
761.671379	14380.188774
761.998088	14912.481688
762.324751	16304.981971
762.651366	19239.089785
762.977935	23566.391041
763.304456	26945.610055
763.630931	28680.906279
763.957359	28004.499379
764.283740	25973.262219
764.610074	23838.318441
764.936362	21163.230153
765.262602	19237.090968
765.588796	17195.070779
765.914943	15819.793599
766.241044	14626.038286
766.567097	13787.507878
766.893104	13021.018080
767.219064	12507.024554
767.544978	12003.231804
767.870845	11583.522978
768.196665	11342.389467
768.522438	11105.094793
768.848165	10895.985211
769.173846	10684.896976
769.499479	10545.617457
769.825066	10379.781140
770.150607	10145.889245
770.476101	10053.646212
770.801548	9943.098749
771.126949	9778.116907
771.452303	9667.153550
771.777611	9463.475811
772.102872	9455.838463
772.428087	9312.321854
772.753256	9161.772835
773.078378	9072.443589
773.403453	8887.191268
773.728482	8763.935056
774.053465	8683.783231
774.378401	8587.968540
774.703291	8464.898851
775.028135	8332.669386
775.352932	8304.617885
775.677683	8200.460085
776.002388	8090.522602
776.327046	8086.908095
776.651658	7995.053230
776.976224	7893.499186
777.300743	7891.147488
777.625216	7799.985782
777.949643	7755.827795
778.274024	7771.427646
778.598359	7676.016248
778.922647	7695.465019
779.246889	7639.946792
779.571086	7643.150445
779.895236	7646.911146
780.219339	7651.831312
780.543397	7644.753532
780.867409	7731.582366
781.191374	7744.172648
781.515294	7713.161990
781.839167	7805.954508
782.162995	7779.939634
782.486776	7728.015749
782.810511	7691.636263
783.134201	7605.966894
783.457844	7604.184846
783.781441	7544.580764
784.104993	7480.220353
784.428498	7452.869573
784.751958	7440.919517
785.075372	7403.103302
785.398739	7354.163780
785.722061	7391.801035
786.045337	7388.229377
786.368568	7529.459823
786.691752	7523.687702
787.014891	7823.817837
787.337983	8127.083570
787.661030	8674.671345
787.984031	9301.362385
788.306987	9748.757227
788.629897	10032.375063
788.952760	10046.868381
789.275579	9879.381085
789.598351	9512.463223
789.921078	9172.449999
790.243759	8760.615456
790.566395	8454.090617
790.888984	8202.632822
791.211529	7981.416909
791.534027	7752.145232
791.856480	7534.211110
792.178888	7452.002494
792.501249	7349.987184
792.823566	7182.124323
793.145836	7179.492841
793.468062	7141.338868
793.790241	7082.201092
794.112375	7141.865668
794.434464	7282.299612
794.756507	7299.764689
795.078505	7431.016171
795.400457	7714.754994
795.722364	8054.997591
796.044226	8342.812187
796.366042	8641.941654
796.687812	8625.573027
797.009538	8730.492042
797.331218	8649.372314
797.652852	8580.530318
797.974442	8428.158922
798.295986	8352.166048
798.617484	8167.138058
798.938938	8027.760237
799.260346	7925.906244
799.581709	7722.120120
799.903026	7639.719940
800.224299	7531.514093
800.545526	7358.985644
800.866708	7262.515603
801.187845	7192.113369
801.508936	7079.756132
801.829983	7039.499998
802.150984	6886.931998
802.471940	6838.390727
802.792851	6824.802297
803.113717	6791.898686
803.434538	6753.777481
803.755314	6688.499579
804.076045	6693.875970
804.396731	6632.005889
804.717372	6659.339025
805.037967	6650.995915
805.358518	6686.062182
805.679024	6767.096209
805.999485	6767.355828
806.319901	6807.075080
806.640272	6820.847512
806.960598	6909.281953
807.280879	6909.004690
807.601115	6993.083574
807.921306	6935.967301
808.241453	6957.079653
808.561554	6983.510423
808.881611	6953.681916
809.201623	6967.222455
809.521590	6914.431492
809.841513	6900.981693
810.161390	6938.152641
810.481223	6810.969371
810.801011	6794.613347
811.120755	6776.003928
811.440453	6697.936619
811.760107	6670.507701
812.079716	6635.060828
812.399281	6572.595891
812.718801	6560.479477
813.038276	6521.927253
813.357707	6455.046265
813.677093	6496.356001
813.996434	6402.257823
814.315731	6445.193330
814.634983	6432.058604
814.954191	6433.407112
815.273354	6535.616507
815.592473	6592.120280
815.911547	6711.958589
816.230577	6786.915505
816.549562	6930.996723
816.868502	7035.434308
817.187399	7137.832745
817.506250	7285.730117
817.825058	7307.646533
818.143821	7562.330667
818.462539	7806.972822
818.781213	8127.567521
819.099843	8611.241027
819.418429	9528.554586
819.736970	10434.255848
820.055466	11550.957125
820.373919	12974.659629
820.692327	15008.508107
821.010691	18368.328761
821.329011	25816.689021
821.647286	37497.481063
821.965517	51524.847042
822.283704	58926.657287
822.601847	62187.618393
822.919945	60258.457037
823.237999	56727.547183
823.556010	51085.182809
823.873976	44463.939783
824.191897	37880.391986
824.509775	32918.313679
824.827609	28132.547207
825.145398	25186.615367
825.463144	23422.503907
825.780845	23250.504779
826.098502	24421.343007
826.416116	27697.624180
826.733685	31399.081309
827.051210	33268.048768
827.368692	32377.624723
827.686129	28887.964111
828.003522	24843.025444
828.320872	21038.900176
828.638177	18102.604501
828.955439	15813.446786
829.272656	13920.175924
829.589830	12382.361861
829.906960	11044.187573
830.224046	10030.900526
830.541088	9217.563285
830.858086	8703.302578
831.175041	8271.883153
831.491952	8103.647246
831.808819	8081.630007
832.125642	8374.158082
832.442421	9071.495852
832.759157	10550.431759
833.075849	13139.066780
833.392497	16294.400589
833.709101	18838.101285
834.025662	19285.811199
834.342179	18007.475407
834.658653	15925.713282
834.975083	13960.220330
835.291469	12270.037392
835.607811	10889.580425
835.924110	9946.882135
836.240366	9052.843583
836.556578	8226.452274
836.872746	7543.325517
837.188871	7008.257447
837.504952	6559.471247
837.820990	6222.407098
838.136984	5977.696887
838.452935	5853.003947
838.768842	5824.203835
839.084706	6098.813129
839.400526	7057.643111
839.716303	8572.620747
840.032037	9856.277477
840.347727	10123.004927
840.663373	9355.728709
840.978977	8299.997668
841.294537	7440.274250
841.610054	6805.877806
841.925527	6347.407548
842.240957	5974.452905
842.556344	5637.315659
842.871687	5345.397563
843.186987	5050.182553
843.502244	4809.071726
843.817458	4634.146208
844.132629	4486.657170
844.447756	4383.391654
844.762840	4299.645486
845.077881	4217.900656
845.392879	4159.113240
845.707833	4106.309674
846.022745	4060.737643
846.337613	4028.562479
846.652438	3983.166888
846.967221	3966.994867
847.281960	3933.624949
847.596656	3915.212135
847.911309	3894.644227
848.225919	3866.186913
848.540485	3849.253678
848.855009	3835.214064
849.169490	3815.482988
849.483928	3801.652583
849.798323	3793.175882
850.112675	3771.135958
850.426984	3778.135600
850.741251	3763.876696
851.055474	3757.555089
851.369654	3764.491717
851.683792	3757.166920
851.997887	3763.647324
852.311938	3766.742592
852.625947	3772.313067
852.939914	3761.099020
853.253837	3766.059516
853.567718	3766.414917
853.881555	3757.693721
854.195350	3770.634363
854.509103	3766.634207
854.822812	3765.091614
855.136479	3756.352774
855.450103	3766.296450
855.763685	3749.141403
856.077224	3755.205912
856.390720	3767.191255
856.704173	3785.104995
857.017584	3797.309628
857.330953	3808.032163
857.644278	3829.643589
857.957561	3841.858305
858.270802	3839.572142
858.584000	3843.829396
858.897155	3839.133561
859.210268	3825.371211
859.523339	3801.309784
859.836367	3799.918426
860.149352	3793.788383
860.462295	3785.412505
860.775195	3773.865743
861.088054	3770.906585
861.400869	3763.571706
861.713642	3764.484155
862.026373	3774.276597
862.339062	3776.857667
862.651708	3797.274340
862.964312	3825.895491
863.276873	3834.233560
863.589392	3886.265829
863.901869	3928.309052
864.214303	3974.685147
864.526696	4009.103625
864.839045	4057.781007
865.151353	4083.039708
865.463619	4097.228035
865.775842	4104.716669
866.088023	4126.799444
866.400162	4118.116056
866.712258	4127.283395
867.024313	4127.848004
867.336325	4126.171820
867.648296	4131.906133
867.960224	4131.452429
868.272110	4142.490035
868.583954	4144.624964
868.895755	4156.756501
869.207515	4154.906397
869.519233	4194.943241
869.830909	4201.698387
870.142542	4225.825349
870.454134	4240.018718
870.765684	4269.522071
871.077191	4303.663285
871.388657	4323.757325
871.700081	4360.351060
872.011463	4401.764139
872.322803	4433.982153
872.634101	4464.171103
872.945357	4508.215664
873.256571	4556.797264
873.567744	4591.450156
873.878874	4611.440851
874.189963	4655.913910
874.501010	4663.974715
874.812015	4664.524201
875.122979	4706.012897
875.433900	4704.031724
875.744780	4718.472109
876.055618	4743.045213
876.366415	4746.566459
876.677169	4762.332668
876.987882	4807.440913
877.298554	4855.173078
877.609183	4925.817287
877.919771	5023.290518
878.230317	5153.818593
878.540822	5343.973437
878.851285	5627.601355
879.161707	6032.794178
879.472087	6692.466968
879.782425	7732.013384
880.092722	9574.192152
880.402977	12447.395266
880.713191	15992.448077
881.023363	19740.288863
881.333494	22249.190473
881.643583	23782.318784
881.953631	24060.504777
882.263637	23473.296053
882.573602	22192.563192
882.883526	20786.718975
883.193408	19199.181491
883.503248	17570.828305
883.813048	16063.893830
884.122806	14657.457277
884.432522	13204.087582
884.742197	11913.252249
885.051831	10800.437702
885.361424	9768.185834
885.670975	8907.696161
885.980485	8191.265020
886.289954	7584.824295
886.599382	7087.678306
886.908768	6704.091868
887.218113	6320.944011
887.527417	6018.578124
887.836680	5745.161063
888.145901	5514.213202
888.455082	5341.503272
888.764221	5182.162481
889.073319	5044.503693
889.382376	4959.545127
889.691392	4893.518615
890.000366	4861.802195
890.309300	4838.963248
890.618193	4838.393597
890.927044	4820.459692
891.235855	4839.434596
891.544625	4861.696331
891.853353	4912.496038
892.162041	5005.061705
892.470687	5168.634545
892.779293	5392.131580
893.087858	5709.336103
893.396381	6214.870573
893.704864	6905.269195
894.013306	7946.151517
894.321707	9095.932846
894.630068	9997.366771
894.938387	10368.695642
895.246665	10270.698132
895.554903	9754.519266
895.863100	9099.186910
896.171256	8563.357627
896.479371	8064.820279
896.787446	7568.984990
897.095480	7140.156717
897.403473	6809.605739
897.711425	6498.480847
898.019336	6226.654270
898.327207	5955.813238
898.635038	5724.260439
898.942827	5470.720648
899.250576	5267.262199
899.558284	5070.800872
899.865952	4944.136840
900.173579	4795.357267
900.481165	4680.786963
900.788711	4585.846913
901.096216	4511.280686
901.403681	4438.851908
901.711105	4408.269748
902.018489	4383.293352
902.325832	4438.110858
902.633135	4523.467675
902.940397	4782.630874
903.247619	5398.783382
903.554800	6593.572132
903.861941	8376.615644
904.169041	9995.688066
904.476101	10893.943544
904.783121	10805.325100
905.090100	10181.005923
905.397039	9396.161283
905.703938	8653.929517
906.010796	7967.765465
906.317614	7414.781135
906.624391	6884.471915
906.931129	6454.660617
907.237826	6056.936264
907.544483	5682.514644
907.851099	5304.889371
908.157675	4948.663797
908.464211	4608.968165
908.770707	4358.327037
909.077163	4134.260352
909.383578	3979.998523
909.689954	3851.116384
909.996289	3773.147378
910.302584	3699.304557
910.608839	3664.379443
910.915054	3626.190182
911.221229	3614.033439
911.527363	3619.031743
911.833458	3627.745378
912.139513	3651.282525
912.445527	3674.494518
912.751502	3748.463368
913.057436	3835.748427
913.363331	3955.856437
913.669186	4136.319663
913.975000	4363.098489
914.280775	4733.109099
914.586510	5234.058639
914.892205	5943.394356
915.197859	6877.386573
915.503475	8031.929271
915.809050	9098.153474
916.114585	9830.370988
916.420081	10202.524088
916.725536	10277.823803
917.030952	9917.056149
917.336328	9563.192354
917.641665	9185.766207
917.946961	8741.471675
918.252218	8338.454110
918.557435	7845.071342
918.862612	7415.900271
919.167750	7052.483490
919.472848	6632.210056
919.777906	6265.231700
920.082925	5907.627369
920.387904	5530.060070
920.692843	5263.110809
920.997743	4999.133308
921.302603	4755.086009
921.607423	4586.345987
921.912204	4419.340122
922.216946	4298.112975
922.521647	4172.331145
922.826310	4066.378694
923.130932	3971.244560
923.435516	3872.442985
923.740059	3800.094866
924.044564	3722.940006
924.349028	3666.519412
924.653454	3598.867128
924.957840	3531.953372
925.262186	3480.674755
925.566493	3417.867020
925.870761	3361.776621
926.174989	3325.240859
926.479178	3288.405148
926.783328	3247.163468
927.087438	3217.866802
927.391509	3182.298942
927.695541	3151.011020
927.999533	3123.773666
928.303486	3102.552929
928.607400	3084.480392
928.911275	3069.813155
929.215110	3054.485527
929.518906	3044.408260
929.822663	3041.786860
930.126381	3034.280582
930.430060	3043.137890
930.733699	3040.145965
931.037299	3053.918397
931.340861	3050.235834
931.644383	3059.559448
931.947866	3057.583316
932.251309	3050.939075
932.554714	3054.598953
932.858080	3048.189126
933.161407	3042.190153
933.464694	3032.911909
933.767943	3025.622401
934.071153	3024.289015
934.374323	3013.715195
934.677455	3005.551047
934.980548	2998.407732
935.283602	2991.776094
935.586617	2989.590753
935.889593	2996.164418
936.192530	3000.015860
936.495428	3012.081861
936.798287	3028.236239
937.101108	3054.984601
937.403890	3101.229626
937.706632	3149.544044
938.009336	3226.126733
938.312002	3298.573155
938.614628	3361.355685
938.917216	3419.880961
939.219765	3455.756332
939.522275	3488.168431
939.824747	3498.608660
940.127179	3501.111593
940.429573	3495.886437
940.731929	3499.442971
941.034246	3487.923935
941.336524	3476.573777
941.638763	3463.307980
941.940964	3453.286167
942.243126	3414.403747
942.545250	3393.881210
942.847335	3356.110364
943.149381	3322.742967
943.451389	3289.988070
943.753359	3257.901126
944.055290	3232.433217
944.357182	3204.013712
944.659036	3188.292873
944.960851	3177.502284
945.262628	3159.399500
945.564367	3160.241373
945.866067	3154.965805
946.167729	3150.552275
946.469352	3150.151503
946.770937	3147.656132
947.072484	3130.964872
947.373992	3133.215747
947.675462	3127.425982
947.976893	3111.838734
948.278286	3105.063423
948.579641	3097.657968
948.880958	3088.853593
949.182236	3090.539859
949.483476	3083.666246
949.784678	3082.582398
950.085841	3085.942327
950.386967	3093.446084
950.688054	3106.653907
950.989103	3122.599077
951.290114	3141.047180
951.591087	3167.515758
951.892021	3191.226825
952.192917	3221.491392
952.493776	3249.232862
952.794596	3255.017586
953.095378	3264.250459
953.396122	3265.462857
953.696828	3262.107969
953.997496	3250.956936
954.298126	3228.536405
954.598718	3214.910166
954.899272	3189.883357
955.199788	3160.062412
955.500266	3136.099287
955.800706	3100.077722
956.101108	3062.170766
956.401472	3033.902496
956.701798	3003.413597
957.002087	2960.155456
957.302337	2933.563370
957.602550	2904.644791
957.902724	2875.159082
958.202861	2848.262005
958.502960	2829.652586
958.803022	2806.896817
959.103045	2784.874537
959.403031	2768.208482
959.702979	2753.700042
960.002889	2741.472723
960.302762	2729.378995
960.602596	2715.402396
960.902393	2708.990048
961.202153	2698.249870
961.501875	2688.497758
961.801559	2681.445183
962.101205	2677.681962
962.400814	2671.249450
962.700385	2662.649241
962.999918	2658.056750
963.299414	2655.009373
963.598873	2649.925369
963.898293	2642.804739
964.197677	2644.364976
964.497022	2641.582259
964.796331	2636.210910
965.095601	2635.873153
965.394835	2634.270066
965.694030	2633.004736
965.993189	2629.609519
966.292309	2628.813017
966.591393	2627.038531
966.890439	2627.522481
967.189447	2627.756895
967.488419	2626.741102
967.787353	2628.765126
968.086249	2627.484673
968.385108	2628.427368
968.683930	2631.058851
968.982714	2636.742752
969.281462	2639.706950
969.580172	2644.690131
969.878844	2650.046357
970.177480	2658.749909
970.476078	2662.543377
970.774639	2672.892866
971.073162	2678.788495
971.371649	2684.132118
971.670098	2688.283509
971.968510	2693.622091
972.266885	2699.784901
972.565223	2705.514172
972.863524	2708.185984
973.161788	2708.538865
973.460014	2713.683362
973.758204	2717.360884
974.056356	2720.751060
974.354471	2718.933724
974.652550	2722.394476
974.950591	2719.004300
975.248595	2718.235524
975.546563	2717.814588
975.844493	2712.395348
976.142386	2708.687579
976.440243	2704.815973
976.738062	2700.750282
977.035845	2693.647296
977.333590	2689.511030
977.631299	2680.673887
977.928971	2676.129287
978.226606	2667.713080
978.524204	2668.713749
978.821765	2662.172852
979.119290	2663.876762
979.416777	2663.629746
979.714228	2665.527740
980.011642	2668.486897
980.309020	2675.960408
980.606360	2687.199661
980.903664	2707.863350
981.200931	2735.987947
981.498162	2777.879936
981.795356	2844.771006
982.092513	2924.128850
982.389633	3020.059487
982.686717	3121.638737
982.983764	3201.563711
983.280775	3259.519336
983.577749	3277.695216
983.874686	3271.386212
984.171587	3246.248499
984.468451	3212.132490
984.765279	3172.856860
985.062070	3125.522946
985.358824	3088.450301
985.655543	3035.853422
985.952224	2986.382059
986.248869	2918.649116
986.545478	2863.196424
986.842050	2804.197280
987.138586	2760.419900
987.435086	2717.151676
987.731549	2682.072807
988.027975	2657.509785
988.324366	2639.124697
988.620719	2621.349588
988.917037	2611.022785
989.213318	2598.077102
989.509563	2592.262131
989.805772	2586.293405
990.101944	2581.148907
990.398080	2578.688824
990.694180	2577.342836
990.990244	2579.192939
991.286271	2580.707806
991.582262	2578.101530
991.878217	2578.406519
992.174136	2583.409865
992.470019	2585.189392
992.765865	2590.608632
993.061676	2590.429671
993.357450	2602.120107
993.653188	2603.405601
993.948890	2624.553242
994.244556	2641.073103
994.540186	2662.616474
994.835780	2688.331400
995.131337	2723.833726
995.426859	2761.874272
995.722345	2806.397743
996.017795	2858.636700
996.313208	2895.883265
996.608586	2925.931063
996.903928	2945.518466
997.199234	2948.699434
997.494504	2949.533745
997.789738	2937.432455
998.084936	2914.621234
998.380099	2889.423027
998.675225	2859.448326
998.970316	2831.480004
999.265371	2795.856691
999.560390	2764.157915
999.855373	2730.881259
1000.150320	2701.839171
1000.445232	2673.434790
1000.740108	2651.505771
1001.034948	2633.652524
1001.329752	2619.320524
1001.624521	2607.798967
1001.919254	2591.992429
1002.213951	2582.706624
1002.508613	2574.156827
1002.803239	2569.667679
1003.097829	2563.701474
1003.392384	2555.716286
1003.686903	2553.974567
1003.981386	2550.254196
1004.275834	2544.769420
1004.570246	2542.954605
1004.864623	2541.044008
1005.158964	2535.869263
1005.453270	2537.074099
1005.747540	2532.854653
1006.041775	2533.424304
1006.335974	2532.894982
1006.630138	2527.911802
1006.924266	2532.224509
1007.218359	2525.797038
1007.512416	2526.293592
1007.806438	2520.881913
1008.100425	2525.124044
1008.394376	2520.183713
1008.688292	2524.957686
1008.982172	2524.940042
1009.276017	2523.886441
1009.569827	2522.784948
1009.863602	2523.984743
1010.157341	2521.580113
1010.451045	2524.592202
1010.744714	2517.433764
1011.038347	2520.587005
1011.331945	2516.352436
1011.625508	2519.823271
1011.919036	2518.094155
1012.212528	2513.284894
1012.505986	2515.974350
1012.799408	2514.230110
1013.092795	2514.409071
1013.386147	2512.652229
1013.679464	2512.894205
1013.972745	2513.196674
1014.265992	2512.450583
1014.559204	2514.640964
1014.852380	2512.183402
1015.145521	2513.330264
1015.438628	2510.834893
1015.731699	2511.873371
1016.024736	2515.203053
1016.317737	2513.773886
1016.610703	2515.180368
1016.903635	2516.294463
1017.196531	2518.552900
1017.489393	2519.069618
1017.782219	2520.337468
1018.075011	2520.012314
1018.367768	2523.417613
1018.660490	2522.510206
1018.953177	2522.510206
1019.245829	2522.510206
