Dividing Wavelength (nm)	Counts (n)	Blue Motor Position (mm): 0.000000	Red Motor Position (mm): 29.000000	
326.493990	2051.547969
326.888308	2051.547969
327.282561	2051.547969
327.676750	2025.517971
328.070874	2027.904958
328.464933	2032.618437
328.858929	2040.686803
329.252859	2050.761549
329.646726	2063.676985
330.040528	2082.556107
330.434265	2098.029928
330.827938	2119.686725
331.221547	2137.837400
331.615091	2160.147026
332.008571	2179.726868
332.401986	2199.977183
332.795338	2221.502909
333.188625	2238.862123
333.581847	2258.825092
333.975006	2275.612134
334.368100	2293.540998
334.761129	2309.881898
335.154095	2324.894454
335.546996	2345.618638
335.939833	2365.838706
336.332606	2381.151211
336.725315	2394.732079
337.117960	2403.609551
337.510540	2412.358473
337.903056	2420.187385
338.295508	2429.604261
338.687896	2437.697833
339.080220	2442.497012
339.472480	2444.629420
339.864676	2451.765173
340.256807	2453.423713
340.648875	2452.566717
341.040879	2457.212140
341.432818	2458.817747
341.824694	2459.400001
342.216506	2457.202057
342.608253	2461.492079
342.999937	2458.250618
343.391557	2455.238528
343.783113	2456.196347
344.174605	2454.489917
344.566033	2450.953547
344.957397	2452.170986
345.348697	2450.462035
345.739934	2447.457507
346.131106	2445.567074
346.522215	2445.773762
346.913260	2444.019440
347.304241	2438.121290
347.695159	2440.495674
348.086012	2439.648760
348.476802	2435.661207
348.867528	2435.751948
349.258191	2430.897317
349.648789	2431.643407
350.039324	2427.481935
350.429796	2433.090219
350.820203	2431.010743
351.210548	2428.427151
351.600828	2428.626277
351.991045	2429.011925
352.381198	2428.543098
352.771288	2427.547470
353.161314	2428.585948
353.551276	2428.885896
353.941175	2428.016297
354.331010	2428.422110
354.720782	2429.019487
355.110490	2432.568459
355.500135	2426.604774
355.889717	2429.488314
356.279235	2428.490166
356.668689	2431.267842
357.058080	2429.034610
357.447408	2432.513007
357.836672	2431.756833
358.225873	2432.875970
358.615010	2432.626432
359.004084	2430.683068
359.393095	2435.434355
359.782043	2434.199272
360.170927	2433.962338
360.559748	2434.758841
360.948505	2437.231527
361.337199	2435.865374
361.725830	2436.704726
362.114398	2439.111877
362.502903	2436.656835
362.891344	2437.652463
363.279722	2438.953081
363.668037	2438.022988
364.056289	2440.737649
364.444478	2441.415684
364.832603	2440.835952
365.220665	2443.608586
365.608665	2443.406940
365.996601	2443.038936
366.384474	2443.104471
366.772284	2442.469285
367.160031	2443.056580
367.547715	2446.502208
367.935336	2446.116560
368.322893	2443.936261
368.710388	2443.631271
369.097820	2442.827207
369.485189	2442.189501
369.872495	2446.887857
370.259738	2446.991200
370.646918	2448.836263
371.034035	2451.377004
371.421090	2451.482868
371.808081	2451.954216
372.195010	2455.334310
372.581875	2454.391614
372.968678	2453.643003
373.355418	2457.295319
373.742096	2460.776236
374.128710	2462.467543
374.515262	2461.000567
374.901751	2466.122379
375.288177	2469.131948
375.674540	2474.594038
376.060841	2476.456745
376.447079	2478.677373
376.833254	2485.135091
377.219367	2490.660196
377.605417	2497.778305
377.991404	2501.342401
378.377329	2508.100067
378.763191	2515.934020
379.148991	2524.874507
379.534727	2531.886752
379.920402	2540.504604
380.306013	2549.440049
380.691563	2562.665517
381.077049	2574.048442
381.462474	2583.414906
381.847835	2596.209354
382.233134	2611.773917
382.618371	2621.669702
383.003545	2642.038484
383.388657	2654.089362
383.773706	2674.443021
384.158693	2686.241841
384.543618	2703.485108
384.928480	2718.374156
385.313280	2739.988103
385.698017	2755.850094
386.082692	2782.127108
386.467305	2798.455405
386.851856	2821.238900
387.236344	2850.391893
387.620770	2866.999974
388.005133	2886.804147
388.389435	2920.300094
388.773674	2934.445572
389.157851	2969.126189
389.541965	2993.255672
389.926018	3006.597086
390.310008	3039.750234
390.693936	3067.000191
391.077802	3091.565734
391.461606	3123.040178
391.845348	3140.951398
392.229027	3169.612878
392.612645	3212.780278
392.996200	3240.904876
393.379694	3280.079682
393.763125	3323.952844
394.146494	3347.540403
394.529801	3382.919221
394.913047	3429.799431
395.296230	3431.836057
395.679351	3459.176755
396.062410	3508.562418
396.445408	3487.107268
396.828343	3530.504041
397.211217	3559.246179
397.594028	3536.112324
397.976778	3585.011517
398.359466	3616.899335
398.742092	3627.813433
399.124656	3642.160557
399.507158	3700.544680
399.889598	3706.437789
400.271977	3771.788787
400.654294	3760.176489
401.036549	3824.383145
401.418742	3821.630675
401.800874	3893.550297
402.182944	3918.836724
402.564952	3999.384280
402.946898	3997.917305
403.328783	3992.843383
403.710606	4039.413562
404.092367	4115.940798
404.474067	4175.491949
404.855705	4158.901512
405.237282	4131.119713
405.618797	4230.944641
406.000250	4306.113286
406.381642	4389.476327
406.762972	4387.530441
407.144240	4358.735371
407.525447	4420.630657
407.906593	4438.758647
408.287677	4524.594373
408.668700	4551.340215
409.049661	4588.695165
409.430560	4624.131956
409.811399	4608.390953
410.192176	4659.054549
410.572891	4736.922732
410.953545	4848.145709
411.334138	4742.495728
411.714669	4854.663921
412.095139	4768.384573
412.475547	4880.154516
412.855894	4887.370927
413.236180	4987.069827
413.616405	4912.054937
413.996568	5017.843551
414.376670	5020.510321
414.756711	5015.123848
415.136691	5084.071709
415.516609	5169.065563
415.896466	5206.196182
416.276262	5283.028408
416.655997	5395.723402
417.035670	5488.105067
417.415283	5635.125277
417.794834	5707.821237
418.174324	5665.142828
418.553753	5671.035937
418.933121	5830.820349
419.312428	5844.958265
419.691674	5769.968581
420.070859	5999.608262
420.449983	5877.269541
420.829045	6076.904274
421.208047	5996.129866
421.586988	6156.882180
421.965867	6228.335495
422.344686	6315.907899
422.723444	6482.250852
423.102141	6093.910607
423.480777	6486.944166
423.859352	6299.120856
424.237866	6664.796074
424.616319	6665.259860
424.994712	6827.428738
425.373044	6737.827270
425.751314	7056.559263
426.129524	6780.049454
426.507673	7040.412447
426.885762	7082.536329
427.263789	7133.817466
427.641756	7214.226391
428.019662	7295.018443
428.397508	7333.497570
428.775292	7315.866134
429.153016	7491.749472
429.530679	7422.030314
429.908282	7474.942265
430.285824	7417.059736
430.663305	7696.710184
431.040726	7580.143584
431.418086	7581.913029
431.795385	7712.299952
432.172624	7903.359683
432.549802	7791.320039
432.926920	7929.049403
433.303977	7868.726956
433.680974	7908.572236
434.057910	8115.798947
434.434786	8163.228643
434.811601	8118.773228
435.188355	8460.225702
435.565050	8344.944595
435.941683	8361.096452
436.318257	8689.983850
436.694770	8644.973908
437.071222	8879.266574
437.447614	8649.556317
437.823946	8617.625648
438.200218	8768.404039
438.576429	8649.102613
438.952580	8814.066811
439.328670	8823.629879
439.704700	8895.521774
440.080670	8789.344992
440.456580	9057.972957
440.832429	9033.951859
441.208218	8770.584338
441.583947	8885.683963
441.959616	9004.282148
442.335224	9039.257673
442.710773	9120.972257
443.086261	9301.866501
443.461689	9013.280608
443.837057	9185.403244
444.212365	9406.672089
444.587612	9382.406495
444.962800	9279.947564
445.337927	9411.960260
445.712995	8951.382800
446.088002	9622.438515
446.462949	9682.496301
446.837837	9666.462912
447.212664	9693.289412
447.587431	10508.930460
447.962139	11526.479802
448.336786	12463.597535
448.711374	12252.983168
449.085901	11044.129599
449.460369	10969.149998
449.834776	10743.644062
450.209124	11657.887559
450.583412	11474.553397
450.957640	11790.792539
451.331808	11379.028573
451.705917	10808.732920
452.079965	10684.438231
452.453954	10886.568336
452.827883	10826.107257
453.201752	10801.627414
453.575562	10805.168825
453.949311	11143.848663
454.323001	11209.328211
454.696632	11126.247475
455.070202	11717.121117
455.443713	11770.990887
455.817164	11945.414810
456.190556	12255.965011
456.563888	12123.685134
456.937160	12389.411915
457.310373	11870.714993
457.683526	11887.496994
458.056619	11899.963767
458.429653	11969.940024
458.802628	12104.453132
459.175542	12144.593319
459.548398	12687.825537
459.921194	13263.467333
460.293930	13540.501422
460.666607	14382.724475
461.039224	15175.448438
461.411782	15538.769436
461.784280	15215.185333
462.156719	15159.664585
462.529099	15069.564042
462.901419	14426.605198
463.273680	14014.868958
463.645882	14217.377149
464.018024	14099.688892
464.390106	14451.440443
464.762130	15490.482744
465.134094	16973.728838
465.505999	19199.602427
465.877845	21443.369593
466.249631	22689.600797
466.621358	22256.820260
466.993026	21453.759411
467.364634	20702.241839
467.736184	19908.217259
468.107674	19281.317011
468.479105	19108.234034
468.850477	18824.729624
469.221790	18378.350575
469.593043	17694.162654
469.964238	17275.152029
470.335373	17304.199157
470.706449	17983.056058
471.077467	18771.479916
471.448425	21121.194492
471.819324	22928.634668
472.190164	22813.184683
472.560945	21106.708736
472.931667	19536.187667
473.302330	19165.420884
473.672934	18596.413246
474.043479	18958.690726
474.413965	18706.154124
474.784393	18491.224530
475.154761	19078.690352
475.525070	19155.502413
475.895321	18940.900494
476.265513	19385.346261
476.635645	19894.974148
477.005719	19895.405166
477.375734	20176.825059
477.745691	20699.786798
478.115588	21214.463399
478.485427	22243.655286
478.855207	23808.910870
479.224928	25382.086107
479.594591	26586.344664
479.964194	26209.135287
480.333739	26548.672122
480.703226	26652.280436
481.072653	26929.317046
481.442022	27274.331094
481.811333	27523.532973
482.180584	27031.370164
482.549777	26728.764822
482.918912	26395.123617
483.287988	26221.294550
483.657005	25947.222138
484.025964	25516.838670
484.394864	25572.687093
484.763706	25371.819797
485.132489	24776.457007
485.501213	24708.950916
485.869879	24724.563370
486.238487	24521.896382
486.607036	24605.561892
486.975527	24182.921636
487.343959	24332.953936
487.712333	24459.045797
488.080648	24258.349900
488.448905	24447.904847
488.817104	24181.283261
489.185244	24666.212014
489.553326	25216.975716
489.921350	26464.358823
490.289315	28207.388177
490.657222	28710.180259
491.025070	28937.657285
491.392861	28529.318782
491.760593	27729.917811
492.128267	26752.783400
492.495883	25807.342722
492.863440	24926.917806
493.230939	23998.778368
493.598380	23365.289332
493.965763	23025.084544
494.333088	22442.710287
494.700354	22085.849527
495.067563	21839.483297
495.434713	21530.032068
495.801805	21496.820947
496.168839	21155.355871
496.535815	20840.873570
496.902733	20691.052998
497.269593	20334.887917
497.636395	20199.790036
498.003139	20137.521703
498.369825	19750.204812
498.736453	19756.002139
499.103023	19425.488969
499.469535	19239.919055
499.835989	19055.269152
500.202385	18744.998735
500.568723	18520.412811
500.935003	18434.554399
501.301226	18107.328062
501.667390	18272.415768
502.033497	18123.011091
502.399546	17759.324609
502.765537	17299.934341
503.131470	17295.561140
503.497345	17247.523985
503.863163	16497.841394
504.228923	16604.781911
504.594625	16547.307716
504.960269	16061.337965
505.325856	16098.980260
505.691385	15713.906683
506.056856	15603.497852
506.422270	15558.946655
506.787625	15118.143121
507.152924	15052.920673
507.518164	14876.621440
507.883347	14482.178878
508.248472	14298.496876
508.613540	14309.287466
508.978550	14154.977747
509.343503	13853.937683
509.708398	13741.769489
510.073236	13712.770252
510.438016	13509.548737
510.802738	13164.128876
511.167403	13102.941871
511.532010	12946.598046
511.896561	12878.786965
512.261053	12870.700955
512.625488	12569.113926
512.989866	12304.665077
513.354186	12094.602717
513.718449	11867.685259
514.082655	11883.867363
514.446803	11590.903228
514.810894	11526.996520
515.174927	11317.307206
515.538904	11110.274579
515.902822	11051.305682
516.266684	10783.678386
516.630488	10662.547021
516.994235	10457.586308
517.357925	10382.538651
517.721558	10243.075130
518.085133	10121.555596
518.448651	9967.361823
518.812112	9756.099668
519.175516	9593.809802
519.538863	9504.662038
519.902152	9334.374381
520.265385	9249.514118
520.628560	9075.914424
520.991678	8896.038493
521.354739	8756.396011
521.717743	8647.396182
522.080690	8466.403636
522.443580	8402.910303
522.806413	8247.133608
523.169189	8104.360569
523.531908	7978.104871
523.894569	7805.226062
524.257174	7675.759149
524.619722	7569.098416
524.982213	7445.333047
525.344647	7306.965977
525.707025	7177.582243
526.069345	7091.166784
526.431608	6952.061185
526.793815	6858.883018
527.155964	6682.137643
527.518057	6582.348003
527.880093	6449.397653
528.242072	6383.965996
528.603995	6245.926601
528.965860	6120.316171
529.327669	6028.662953
529.689421	5921.798053
530.051117	5813.415766
530.412755	5728.152210
530.774337	5626.361232
531.135862	5527.491602
531.497331	5444.972954
531.858743	5347.832440
532.220098	5282.667965
532.581396	5177.176780
532.942638	5073.124844
533.303824	5003.216643
533.664953	4925.403913
534.026025	4828.996887
534.387040	4782.701450
534.747999	4709.120769
535.108902	4655.036750
535.469748	4552.671080
535.830537	4494.513808
536.191270	4439.943318
536.551947	4363.063201
536.912567	4311.285510
537.273131	4259.172582
537.633638	4183.726674
537.994089	4140.455930
538.354483	4073.350610
538.714821	4046.211558
539.075103	4007.848378
539.435328	3951.243782
539.795497	3895.324783
540.155609	3854.299873
540.515665	3827.294412
540.875665	3767.259310
541.235609	3728.119792
541.595496	3697.371274
541.955328	3673.660207
542.315102	3621.327989
542.674821	3582.806012
543.034483	3546.451731
543.394090	3516.298069
543.753640	3483.643995
544.113134	3476.614106
544.472571	3432.970317
544.831953	3425.920263
545.191278	3384.444170
545.550548	3351.911083
545.909761	3340.833148
546.268918	3319.831701
546.628019	3305.628250
546.987064	3274.758744
547.346053	3239.858836
547.704986	3238.976634
548.063863	3215.903273
548.422684	3199.133875
548.781449	3177.832479
549.140158	3169.166736
549.498811	3146.857109
549.857408	3127.425982
550.215949	3124.179479
550.574434	3110.482664
550.932864	3094.648400
551.291237	3090.713779
551.649555	3078.519228
552.007817	3067.786611
552.366022	3055.319838
552.724173	3044.279711
553.082267	3041.769216
553.440305	3035.906354
553.798288	3017.697707
554.156215	3011.938188
554.514086	3005.868639
554.871902	2992.353306
555.229661	2986.666884
555.587365	2975.563743
555.945014	2972.299596
556.302606	2968.359934
556.660143	2958.804427
557.017625	2956.117492
557.375050	2946.756069
557.732421	2947.255143
558.089735	2940.888166
558.446994	2933.707043
558.804197	2934.012032
559.161345	2923.982657
559.518437	2916.042839
559.875474	2911.888929
560.232455	2909.476737
560.589381	2903.296282
560.946251	2897.493914
561.303065	2898.189593
561.659825	2891.847822
562.016528	2885.594270
562.373177	2878.985318
562.729770	2876.031201
563.086307	2868.335880
563.442789	2865.853112
563.799216	2863.657689
564.155587	2860.035620
564.511904	2855.296936
564.868164	2848.705627
565.224370	2853.446832
565.580520	2844.072807
565.936615	2842.883094
566.292654	2836.432938
566.648638	2834.671055
567.004567	2832.672237
567.360441	2827.462205
567.716260	2824.228304
568.072023	2825.125630
568.427732	2816.535504
568.783385	2815.134063
569.138982	2812.636171
569.494525	2810.241623
569.850013	2807.743731
570.205445	2805.258442
570.560823	2803.473874
570.916145	2797.041362
571.271412	2796.000363
571.626625	2794.515744
571.981782	2786.137346
572.336884	2780.897067
572.691931	2784.788837
573.046923	2776.269287
573.401860	2772.490942
573.756743	2774.686365
574.111570	2774.232661
574.466342	2772.170829
574.821059	2770.020777
575.175722	2766.129006
575.530330	2762.338059
575.884882	2762.123810
576.239380	2755.618201
576.593823	2757.334713
576.948211	2755.799682
577.302544	2749.473034
577.656823	2748.442118
578.011047	2751.161821
578.365216	2746.095461
578.719330	2743.879874
579.073389	2739.834348
579.427394	2739.993144
579.781344	2738.006930
580.135239	2733.263204
580.489080	2733.633729
580.842866	2730.997205
581.196597	2731.581979
581.550273	2732.436455
581.903895	2728.620301
582.257463	2728.138871
582.610975	2727.342369
582.964434	2723.949672
583.317837	2721.222408
583.671186	2723.596791
584.024481	2723.947152
584.377721	2719.135370
584.730906	2719.795761
585.084037	2720.594784
585.437113	2716.914742
585.790135	2716.818960
586.143103	2710.845193
586.496016	2713.239741
586.848874	2713.522045
587.201679	2714.195039
587.554428	2707.815459
587.907124	2710.686396
588.259765	2710.550285
588.612352	2708.518700
588.964884	2702.716332
589.317362	2706.119111
589.669786	2702.328163
590.022155	2701.816486
590.374470	2701.829089
590.726731	2701.451002
591.078937	2695.469673
591.431090	2699.633667
591.783188	2694.700897
592.135232	2694.189220
592.487222	2694.466484
592.839157	2697.652493
593.191038	2694.726103
593.542866	2691.822399
593.894639	2691.098993
594.246358	2691.552697
594.598022	2688.492717
594.949633	2689.639579
595.301190	2685.165555
595.652692	2685.636903
596.004141	2684.948785
596.355535	2682.627334
596.706876	2680.058866
597.058162	2681.440142
597.409395	2680.946109
597.760573	2682.163548
598.111698	2680.870492
598.462768	2678.591890
598.813785	2680.134483
599.164748	2676.653567
599.515657	2677.361849
599.866511	2675.602486
600.217312	2676.691375
600.568060	2672.403874
600.918753	2675.952846
601.269392	2674.455624
601.619978	2673.717095
601.970510	2674.697599
602.320988	2675.872188
602.671412	2675.247085
603.021783	2674.735408
603.372100	2673.941426
603.722363	2671.824141
604.072572	2671.990499
604.422728	2672.388751
604.772830	2672.114008
605.122878	2670.836075
605.472872	2670.442865
605.822813	2670.208452
606.172701	2671.362876
606.522534	2671.874553
606.872314	2670.936898
607.222041	2672.214831
607.571714	2667.939932
607.921333	2665.225271
608.270899	2668.280210
608.620411	2667.529078
608.969870	2669.520334
609.319276	2673.628874
609.668627	2670.223575
610.017926	2672.517300
610.367171	2670.437824
610.716362	2671.098215
611.065500	2669.467402
611.414585	2673.046621
611.763616	2672.948319
612.112594	2673.061745
612.461518	2672.610561
612.810389	2672.421518
613.159207	2673.606189
613.507971	2671.786333
613.856682	2673.230623
614.205340	2673.964111
614.553945	2674.748011
614.902496	2675.199194
615.250994	2672.676096
615.599439	2672.950839
615.947830	2675.181550
616.296169	2675.917558
616.644454	2674.937054
616.992686	2674.180881
617.340864	2678.533917
617.688990	2673.754903
618.037063	2674.145593
618.385082	2673.916220
618.733048	2678.838907
619.080961	2674.929492
619.428821	2676.126766
619.776628	2677.966787
620.124382	2676.043587
620.472083	2674.989986
620.819731	2677.205573
621.167326	2673.170129
621.514868	2675.302537
621.862357	2671.221723
622.209793	2671.667866
622.557176	2670.820952
622.904506	2667.594613
623.251783	2667.186280
623.599007	2664.554797
623.946179	2665.595796
624.293297	2662.450116
624.640363	2659.483397
624.987376	2655.750422
625.334336	2656.957779
625.681243	2655.488282
626.028097	2651.697335
626.374899	2656.559527
626.721647	2654.795124
627.068343	2656.514157
627.414987	2653.129022
627.761577	2651.949392
628.108115	2654.744712
628.454600	2650.598363
628.801032	2649.176758
629.147412	2649.489309
629.493739	2651.788075
629.840014	2648.244144
630.186236	2650.810092
630.532405	2650.212715
630.878521	2647.644247
631.224585	2645.829432
631.570597	2644.642240
631.916556	2646.693989
632.262462	2645.879843
632.608316	2644.554020
632.954117	2647.303969
633.299866	2643.538227
633.645562	2645.037970
633.991206	2642.275418
634.336797	2640.211066
634.682336	2640.095119
635.027823	2640.518576
635.373257	2639.616209
635.718639	2636.684778
636.063968	2635.873153
636.409245	2635.091774
636.754470	2630.940384
637.099642	2630.998357
637.444762	2628.316463
637.789829	2632.747637
638.134845	2631.449540
638.479808	2627.333438
638.824719	2629.738068
639.169577	2623.461832
639.514383	2627.920732
639.859137	2622.831688
640.203839	2625.934518
640.548489	2624.117182
640.893086	2624.452419
641.237632	2622.483848
641.582125	2623.555093
641.926566	2623.673560
642.270955	2621.185751
642.615292	2620.485031
642.959576	2617.528394
643.303809	2618.256841
643.647990	2622.330093
643.992118	2622.007459
644.336195	2621.468056
644.680219	2620.175000
645.024192	2620.951337
645.368112	2622.168776
645.711981	2627.053654
646.055797	2627.489714
646.399562	2624.515433
646.743274	2630.864766
647.086935	2630.239663
647.430544	2629.954838
647.774101	2630.068264
648.117606	2631.308388
648.461059	2633.869294
648.804460	2634.096146
649.147810	2627.023407
649.491108	2629.579272
649.834354	2628.203037
650.177548	2623.663478
650.520690	2621.268930
650.863781	2624.969137
651.206820	2624.298663
651.549807	2619.628034
651.892742	2618.788682
652.235626	2618.140894
652.578458	2617.979577
652.921238	2614.866665
653.263967	2617.616614
653.606644	2614.291973
653.949269	2615.282560
654.291843	2610.017075
654.634365	2613.346757
654.976836	2612.996397
655.319255	2610.884153
655.661622	2613.929010
656.003938	2611.481530
656.346203	2614.281891
656.688416	2610.183433
657.030577	2607.405757
657.372687	2607.249481
657.714746	2611.058073
658.056753	2609.364245
658.398708	2607.317537
658.740612	2609.432301
659.082465	2608.713936
659.424266	2606.730242
659.766016	2605.109511
660.107715	2605.127155
660.449362	2604.537340
660.790958	2609.618823
661.132503	2609.520521
661.473996	2608.804677
661.815438	2609.560850
662.156829	2611.688217
662.498168	2606.067331
662.839456	2609.008844
663.180693	2609.949019
663.521879	2611.098402
663.863013	2606.710078
664.204097	2610.460696
664.545129	2610.720316
664.886110	2611.514297
665.227040	2609.621344
665.567918	2610.886674
665.908746	2613.906325
666.249522	2610.886674
666.590248	2609.467589
666.930922	2612.842641
667.271545	2612.464555
667.612118	2612.207456
667.952639	2610.591766
668.293109	2611.421036
668.633528	2612.066304
668.973896	2611.854575
669.314213	2608.718977
669.654480	2612.305758
669.994695	2610.748042
670.334859	2609.722167
670.674973	2610.944647
671.015035	2607.930037
671.355047	2606.710078
671.695008	2608.098916
672.034918	2609.371807
672.374777	2610.339708
672.714585	2608.350973
673.054342	2609.896087
673.394049	2611.012703
673.733705	2609.583535
674.073310	2606.636981
674.412864	2610.198556
674.752368	2603.761003
675.091820	2608.734101
675.431223	2609.787702
675.770574	2607.899790
676.109875	2605.837958
676.449125	2602.730087
676.788324	2601.522730
677.127473	2598.092225
677.466571	2597.038624
677.805619	2602.097422
678.144616	2598.876125
678.483562	2599.949890
678.822458	2600.632967
679.161303	2598.661876
679.500098	2599.531475
679.838842	2602.445262
680.177535	2596.905033
680.516179	2599.455857
680.854771	2599.700353
681.193314	2604.307968
681.531805	2605.699326
681.870247	2610.992538
682.208638	2611.584873
682.546978	2615.083434
682.885268	2613.835749
683.223508	2613.485388
683.561697	2613.003958
683.899836	2613.046808
684.237925	2608.499687
684.575963	2610.054883
684.913951	2605.167485
685.251889	2606.165633
685.589776	2605.175046
685.927614	2610.911879
686.265401	2608.875253
686.603137	2611.053032
686.940824	2609.719647
687.278460	2615.524535
687.616046	2610.120418
687.953582	2615.900101
688.291068	2610.175871
688.628504	2616.769700
688.965889	2616.008486
689.303224	2617.568723
689.640510	2613.175357
689.977745	2615.907663
690.314930	2609.296190
690.652065	2611.337857
690.989150	2603.652618
691.326185	2601.822679
691.663170	2599.581886
692.000105	2594.848243
692.336990	2593.910588
692.673825	2594.354210
693.010610	2590.860690
693.347345	2582.741912
693.684030	2579.550861
694.020665	2582.073959
694.357251	2574.484502
694.693786	2583.067066
695.030272	2578.837538
695.366707	2578.852662
695.703093	2575.651529
696.039429	2578.217476
696.375716	2574.252609
696.711952	2574.166909
697.048139	2573.771178
697.384276	2576.054821
697.720363	2574.134142
698.056400	2573.607341
698.392388	2573.998030
698.728326	2571.737073
699.064214	2571.704305
699.400053	2570.809501
699.735842	2570.723801
700.071581	2571.361507
700.407270	2570.302865
700.742910	2566.811866
701.078501	2565.601989
701.414042	2562.554611
701.749533	2563.401525
702.084974	2564.523182
702.420366	2565.508727
702.755709	2562.239539
703.091002	2560.210475
703.426246	2559.666030
703.761440	2560.707028
704.096584	2560.288613
704.431679	2559.605536
704.766725	2561.034703
705.101721	2558.680484
705.436668	2560.802810
705.771565	2558.224260
706.106413	2559.088818
706.441212	2561.069991
706.775961	2558.136040
707.110661	2560.195351
707.445311	2562.050496
707.779913	2560.510423
708.114465	2563.280537
708.448967	2561.811041
708.783421	2564.213151
709.117825	2565.632236
709.452180	2569.460992
709.786485	2569.390416
710.120742	2573.597259
710.454949	2568.672051
710.789107	2573.836713
711.123216	2575.419636
711.457275	2579.520614
711.791286	2580.612024
712.125247	2585.375915
712.459159	2584.241655
712.793023	2585.045719
713.126837	2583.261151
713.460602	2587.543611
713.794318	2584.236614
714.127985	2583.044381
714.461602	2578.275449
714.795171	2580.085224
715.128691	2573.720767
715.462162	2570.645663
715.795584	2567.245405
716.128957	2568.228430
716.462281	2567.507545
716.795556	2569.362689
717.128782	2563.925805
717.461960	2562.388253
717.795088	2560.374312
718.128167	2558.456153
718.461198	2554.733261
718.794180	2559.318190
719.127113	2556.716955
719.459997	2554.685370
719.792833	2551.784186
720.125619	2551.537169
720.458357	2549.606407
720.791046	2551.630431
721.123686	2549.566078
721.456278	2547.496685
721.788821	2547.020296
722.121315	2548.265461
722.453761	2551.002807
722.786158	2545.724719
723.118506	2546.513660
723.450805	2548.038609
723.783056	2543.995603
724.115259	2547.905018
724.447412	2547.247147
724.779518	2547.549617
725.111574	2546.811088
725.443582	2549.649257
725.775542	2549.792930
726.107453	2550.856614
726.439315	2549.931562
726.771129	2554.556821
727.102895	2553.609084
727.434612	2554.108158
727.766281	2551.834597
728.097901	2561.301884
728.429473	2557.422717
728.760996	2562.012687
729.092471	2560.404559
729.423897	2561.526216
729.755276	2559.829868
730.086606	2562.040413
730.417887	2562.158881
730.749120	2564.979406
731.080305	2563.698953
731.411442	2567.767164
731.742530	2567.615930
732.073570	2572.117680
732.404562	2570.277659
732.735506	2572.926785
733.066401	2568.810683
733.397249	2567.225240
733.728048	2564.394632
734.058798	2561.294323
734.389501	2559.091338
734.720156	2556.553117
735.050762	2553.697304
735.381320	2547.985677
735.711831	2548.981304
736.042293	2547.824360
736.372707	2546.362425
736.703073	2545.389482
737.033391	2549.745039
737.363661	2548.976263
737.693883	2547.418547
738.024056	2545.084493
738.354182	2547.632796
738.684260	2551.814433
739.014290	2551.388455
739.344272	2554.836605
739.674207	2552.527756
740.004093	2555.207129
740.333931	2556.500185
740.663722	2558.730896
740.993464	2554.491286
741.323159	2558.446071
741.652806	2555.096224
741.982405	2554.264434
742.311956	2550.959957
742.641460	2553.722510
742.970915	2548.298228
743.300323	2547.703372
743.629683	2542.838658
743.958996	2545.966694
744.288260	2539.718184
744.617477	2543.481406
744.946647	2543.310006
745.275768	2539.856816
745.604842	2540.194573
745.933869	2541.497712
746.262847	2540.179450
746.591778	2538.210879
746.920662	2538.541075
747.249498	2539.483771
747.578286	2536.275076
747.907027	2540.436549
748.235720	2540.101312
748.564365	2540.217258
748.892963	2541.054090
749.221514	2542.243802
749.550017	2539.304810
749.878473	2541.943854
750.206881	2541.031405
750.535242	2538.639377
750.863555	2541.028884
751.191821	2538.455375
751.520039	2537.737011
751.848210	2539.352701
752.176334	2538.951929
752.504411	2540.865047
752.832440	2539.854295
753.160421	2538.732639
753.488356	2538.714995
753.816243	2537.260622
754.144082	2531.967410
754.471875	2532.947915
754.799620	2536.592669
755.127318	2535.095446
755.454969	2536.514531
755.782572	2535.831455
756.110129	2535.092926
756.437638	2535.019829
756.765100	2539.874460
757.092515	2536.398584
757.419882	2533.711649
757.747203	2537.111908
758.074477	2537.043852
758.401703	2539.269522
758.728882	2538.241126
759.056014	2538.036959
759.383099	2538.914120
759.710138	2537.487474
760.037129	2534.795498
760.364073	2537.099305
760.690970	2535.284489
761.017820	2540.355890
761.344623	2541.195242
761.671379	2544.804708
761.998088	2546.344781
762.324751	2555.686039
762.651366	2568.581311
762.977935	2592.972933
763.304456	2609.016406
763.630931	2619.199536
763.957359	2616.273147
764.283740	2604.471805
764.610074	2593.393870
764.936362	2582.436922
765.262602	2570.827145
765.588796	2561.538819
765.914943	2552.558003
766.241044	2547.012734
766.567097	2540.980993
766.893104	2538.228523
767.219064	2536.108718
767.544978	2530.956659
767.870845	2529.787111
768.196665	2525.855011
768.522438	2526.618746
768.848165	2523.266379
769.173846	2523.652027
769.499479	2520.982736
769.825066	2522.303518
770.150607	2518.371418
770.476101	2520.224042
770.801548	2516.367560
771.126949	2518.459638
771.452303	2518.467200
771.777611	2516.770852
772.102872	2515.384535
772.428087	2515.621469
772.753256	2515.414782
773.078378	2515.596263
773.403453	2514.441839
773.728482	2511.301200
774.053465	2514.726664
774.378401	2513.690707
774.703291	2508.994872
775.028135	2511.066786
775.352932	2510.781961
775.677683	2507.593431
776.002388	2510.199708
776.327046	2504.979593
776.651658	2507.671569
776.976224	2506.204593
777.300743	2506.953205
777.625216	2508.314316
777.949643	2510.618124
778.274024	2506.625530
778.598359	2511.414626
778.922647	2505.065293
779.246889	2507.449758
779.571086	2507.517814
779.895236	2505.771054
780.219339	2508.881446
780.543397	2511.371776
780.867409	2506.350787
781.191374	2506.307937
781.515294	2503.976403
781.839167	2505.919768
782.162995	2508.251302
782.486776	2505.705519
782.810511	2504.989675
783.134201	2506.441528
783.457844	2505.549243
783.781441	2506.817094
784.104993	2503.868019
784.428498	2505.269459
784.751958	2506.998575
785.075372	2506.565036
785.398739	2503.174860
785.722061	2505.584532
786.045337	2504.790550
786.368568	2504.851044
786.691752	2506.592762
787.014891	2503.396671
787.337983	2507.938750
787.661030	2516.027282
787.984031	2516.201202
788.306987	2520.352592
788.629897	2523.641945
788.952760	2519.747653
789.275579	2523.644465
789.598351	2519.624145
789.921078	2516.475944
790.243759	2513.494102
790.566395	2509.148627
790.888984	2512.589215
791.211529	2510.199708
791.534027	2511.061745
791.856480	2506.350787
792.178888	2507.081754
792.501249	2503.817607
792.823566	2505.002278
793.145836	2499.520023
793.468062	2504.891373
793.790241	2504.399860
794.112375	2504.367093
794.434464	2502.542195
794.756507	2505.355159
795.078505	2506.169305
795.400457	2507.492608
795.722364	2509.735922
796.044226	2511.349091
796.366042	2513.983094
796.687812	2512.894205
797.009538	2517.567354
797.331218	2512.619462
797.652852	2514.240193
797.974442	2510.499657
798.295986	2513.330264
798.617484	2510.729029
798.938938	2507.437156
799.260346	2508.122753
799.581709	2507.480005
799.903026	2507.023781
800.224299	2508.478154
800.545526	2505.191322
800.866708	2503.953718
801.187845	2503.500014
801.508936	2505.045128
801.829983	2502.718636
802.150984	2502.587566
802.471940	2503.043790
802.792851	2506.365910
803.113717	2502.058244
803.434538	2502.486743
803.755314	2498.332832
804.076045	2500.087153
804.396731	2504.286434
804.717372	2502.262411
805.037967	2502.963132
805.358518	2501.783502
805.679024	2503.973883
805.999485	2503.182422
806.319901	2504.062103
806.640272	2503.787360
806.960598	2506.446569
807.280879	2503.071516
807.601115	2505.332474
807.921306	2502.736280
808.241453	2504.044459
808.561554	2500.709736
808.881611	2500.901300
809.201623	2502.343070
809.521590	2504.283914
809.841513	2504.871208
810.161390	2505.035046
810.481223	2503.500014
810.801011	2501.387771
811.120755	2503.578152
811.440453	2498.562204
811.760107	2502.733759
812.079716	2502.834582
812.399281	2503.595796
812.718801	2501.685199
813.038276	2502.935405
813.357707	2503.931033
813.677093	2502.307782
813.996434	2503.444562
814.315731	2501.826351
814.634983	2505.012361
814.954191	2499.051196
815.273354	2502.020436
815.592473	2505.070334
815.911547	2503.724346
816.230577	2504.336846
816.549562	2504.238543
816.868502	2507.008657
817.187399	2509.909842
817.506250	2507.724501
817.825058	2508.533607
818.143821	2510.050994
818.462539	2513.662981
818.781213	2515.324041
819.099843	2521.592716
819.418429	2524.123375
819.736970	2534.782895
820.055466	2542.536189
820.373919	2555.131512
820.692327	2566.131310
821.010691	2593.804724
821.329011	2651.140287
821.647286	2741.694534
821.965517	2860.353213
822.283704	2948.366718
822.601847	3000.386384
822.919945	2967.812969
823.237999	2917.277922
823.556010	2862.437730
823.873976	2808.167188
824.191897	2754.398241
824.509775	2716.266954
824.827609	2680.005934
825.145398	2651.873775
825.463144	2639.729635
825.780845	2636.745272
826.098502	2644.213742
826.416116	2666.639315
826.733685	2693.715352
827.051210	2705.806559
827.368692	2702.396219
827.686129	2676.633402
828.003522	2652.690442
828.320872	2619.418827
828.638177	2598.210692
828.955439	2582.071438
829.272656	2567.373954
829.589830	2556.197716
829.906960	2543.814122
830.224046	2532.040507
830.541088	2527.984899
830.858086	2525.489527
831.175041	2520.163548
831.491952	2517.675739
831.808819	2517.128774
832.125642	2521.507016
832.442421	2525.615556
832.759157	2538.838503
833.075849	2557.606719
833.392497	2583.228383
833.709101	2605.011209
834.025662	2605.162443
834.342179	2598.694643
834.658653	2584.062694
834.975083	2568.102401
835.291469	2554.539177
835.607811	2540.804553
835.924110	2533.242822
836.240366	2526.712007
836.556578	2518.106758
836.872746	2517.214473
837.188871	2511.124760
837.504952	2505.153513
837.820990	2503.240395
838.136984	2501.899448
838.452935	2498.809221
838.768842	2497.627070
839.084706	2503.404233
839.400526	2509.556961
839.716303	2524.198992
840.032037	2532.287523
840.347727	2532.940353
840.663373	2528.620084
840.978977	2515.780265
841.294537	2511.608710
841.610054	2507.679131
841.925527	2502.582524
842.240957	2500.931547
842.556344	2498.355517
842.871687	2495.713952
843.186987	2491.912922
843.502244	2493.367295
843.817458	2489.440236
844.132629	2486.861686
844.447756	2486.350009
844.762840	2486.942345
845.077881	2487.048209
845.392879	2484.323465
845.707833	2482.261633
846.022745	2482.750625
846.337613	2480.832466
846.652438	2484.013434
846.967221	2482.175934
847.281960	2480.572847
847.596656	2485.550986
847.911309	2483.910091
848.225919	2480.724081
848.540485	2481.008907
848.855009	2483.579895
849.169490	2483.176603
849.483928	2482.997642
849.798323	2481.873464
850.112675	2482.738022
850.426984	2478.329533
850.741251	2481.465131
851.055474	2482.899339
851.369654	2479.244503
851.683792	2481.354226
851.997887	2480.535038
852.311938	2482.637199
852.625947	2480.351036
852.939914	2481.656695
853.253837	2482.216263
853.567718	2481.490337
853.881555	2480.726602
854.195350	2481.893629
854.509103	2483.005203
854.822812	2479.753659
855.136479	2481.860862
855.450103	2479.022692
855.763685	2479.050418
856.077224	2476.978504
856.390720	2478.561426
856.704173	2476.413895
857.017584	2482.380100
857.330953	2481.381952
857.644278	2481.906232
857.957561	2486.775987
858.270802	2483.471510
858.584000	2482.304483
858.897155	2481.805409
859.210268	2481.714668
859.523339	2481.230717
859.836367	2481.288691
860.149352	2482.569144
860.462295	2482.158290
860.775195	2482.559061
861.088054	2482.979998
861.400869	2482.806078
861.713642	2484.290698
862.026373	2480.280460
862.339062	2482.027220
862.651708	2479.831797
862.964312	2482.110399
863.276873	2481.994452
863.589392	2481.331540
863.901869	2482.387662
864.214303	2483.058136
864.526696	2481.560913
864.839045	2483.549648
865.151353	2482.221304
865.463619	2486.791110
865.775842	2484.966212
866.088023	2484.988898
866.400162	2486.115595
866.712258	2484.409165
867.024313	2485.997128
867.336325	2485.248517
867.648296	2484.895636
867.960224	2484.852786
868.272110	2488.058960
868.583954	2483.985708
868.895755	2486.450832
869.207515	2490.060298
869.519233	2486.017293
869.830909	2484.482262
870.142542	2484.268013
870.454134	2486.491161
870.765684	2489.704897
871.077191	2487.864876
871.388657	2485.069556
871.700081	2485.135091
872.011463	2484.472179
872.322803	2484.459576
872.634101	2491.292860
872.945357	2489.533498
873.256571	2489.130205
873.567744	2489.077273
873.878874	2490.133395
874.189963	2491.953252
874.501010	2492.046513
874.812015	2491.645741
875.122979	2493.296719
875.433900	2493.548777
875.744780	2492.472490
876.055618	2494.483911
876.366415	2493.173211
876.677169	2492.938797
876.987882	2491.222284
877.298554	2496.293685
877.609183	2494.347800
877.919771	2497.435506
878.230317	2498.849550
878.540822	2502.370796
878.851285	2505.488750
879.161707	2510.408916
879.472087	2516.601973
879.782425	2529.867770
880.092722	2553.145298
880.402977	2588.670309
880.713191	2634.300313
881.023363	2682.055163
881.333494	2717.645709
881.643583	2735.299830
881.953631	2736.769326
882.263637	2728.645507
882.573602	2711.253526
882.883526	2692.795341
883.193408	2674.959739
883.503248	2655.843684
883.813048	2638.580252
884.122806	2619.852366
884.432522	2604.418873
884.742197	2586.406831
885.051831	2573.584656
885.361424	2560.278530
885.670975	2548.764535
885.980485	2539.728267
886.289954	2531.370033
886.599382	2525.239990
886.908768	2520.100534
887.218113	2510.025788
887.527417	2511.245747
887.836680	2505.329953
888.145901	2505.395488
888.455082	2502.806856
888.764221	2503.046311
889.073319	2499.257883
889.382376	2496.641525
889.691392	2497.473315
890.000366	2497.420383
890.309300	2497.667399
890.618193	2494.995588
890.927044	2496.099601
891.235855	2495.083808
891.544625	2496.225629
891.853353	2497.604385
892.162041	2497.911895
892.470687	2503.205107
892.779293	2505.019922
893.087858	2506.892711
893.396381	2509.811539
893.704864	2522.948786
894.013306	2535.629808
894.321707	2552.492468
894.630068	2560.366750
894.938387	2566.958059
895.246665	2565.150805
895.554903	2562.882286
895.863100	2553.069680
896.171256	2543.085675
896.479371	2540.607948
896.787446	2535.108049
897.095480	2524.698066
897.403473	2522.792510
897.711425	2519.876203
898.019336	2515.240862
898.327207	2512.354801
898.635038	2507.119563
898.942827	2506.507063
899.250576	2503.615961
899.558284	2501.894407
899.865952	2499.653614
900.173579	2497.894251
900.481165	2495.121617
900.788711	2493.750423
901.096216	2494.249497
901.403681	2492.666575
901.711105	2495.015753
902.018489	2492.175062
902.325832	2487.920328
902.633135	2491.570124
902.940397	2496.323932
903.247619	2500.359376
903.554800	2524.065402
903.861941	2546.430481
904.169041	2571.124573
904.476101	2583.210739
904.783121	2582.557910
905.090100	2575.301169
905.397039	2561.604354
905.703938	2556.608570
906.010796	2544.242620
906.317614	2538.178112
906.624391	2528.710825
906.931129	2522.537932
907.237826	2517.887468
907.544483	2511.467558
907.851099	2507.359018
908.157675	2500.855929
908.464211	2497.947183
908.770707	2494.703201
909.077163	2487.096100
909.383578	2489.294043
909.689954	2485.540904
909.996289	2486.158445
910.302584	2485.616521
910.608839	2484.499906
910.915054	2481.656695
911.221229	2483.738691
911.527363	2482.382621
911.833458	2480.734164
912.139513	2485.636686
912.445527	2480.875316
912.751502	2484.189875
913.057436	2483.090903
913.363331	2487.275061
913.669186	2489.964516
913.975000	2492.921153
914.280775	2500.626557
914.586510	2505.448420
914.892205	2517.005266
915.197859	2529.721576
915.503475	2545.901159
915.809050	2564.124931
916.114585	2575.568350
916.420081	2585.287694
916.725536	2582.719227
917.030952	2575.442321
917.336328	2572.896538
917.641665	2565.952349
917.946961	2555.333158
918.252218	2551.953065
918.557435	2541.906045
918.862612	2540.612989
919.167750	2534.303985
919.472848	2527.385001
919.777906	2523.470545
920.082925	2516.067611
920.387904	2509.962774
920.692843	2508.624347
920.997743	2502.950529
921.302603	2497.753099
921.607423	2499.436844
921.912204	2495.681185
922.216946	2492.137254
922.521647	2490.960144
922.826310	2488.018631
923.130932	2487.385966
923.435516	2484.530152
923.740059	2486.085348
924.044564	2484.048722
924.349028	2483.065697
924.653454	2480.459421
924.957840	2481.979329
925.262186	2481.069400
925.566493	2479.083186
925.870761	2477.585963
926.174989	2476.988586
926.479178	2477.316261
926.783328	2475.773668
927.087438	2476.270222
927.391509	2477.656539
927.695541	2476.255098
927.999533	2477.046560
928.303486	2472.547330
928.607400	2475.660242
928.911275	2472.126393
929.215110	2472.678400
929.518906	2471.798718
929.822663	2474.120170
930.126381	2476.938175
930.430060	2475.083030
930.733699	2477.994297
931.037299	2473.545478
931.340861	2472.872484
931.644383	2474.725108
931.947866	2476.275263
932.251309	2475.710654
932.554714	2474.120170
932.858080	2470.339304
933.161407	2468.514407
933.464694	2469.290744
933.767943	2470.248564
934.071153	2472.804429
934.374323	2473.439614
934.677455	2474.042032
934.980548	2471.478605
935.283602	2474.289048
935.586617	2473.820221
935.889593	2472.857361
936.192530	2472.363328
936.495428	2472.784264
936.798287	2473.038842
937.101108	2472.007926
937.403890	2475.123359
937.706632	2476.078658
938.009336	2477.694348
938.312002	2476.907928
938.614628	2482.075111
938.917216	2477.747280
939.219765	2480.756849
939.522275	2482.493526
939.824747	2481.565954
940.127179	2479.844400
940.429573	2482.712817
940.731929	2480.499750
941.034246	2480.973618
941.336524	2481.127374
941.638763	2480.741725
941.940964	2479.463793
942.243126	2479.380614
942.545250	2478.304327
942.847335	2480.010758
943.149381	2478.687455
943.451389	2479.657877
943.753359	2475.934985
944.055290	2478.246354
944.357182	2477.671663
944.659036	2476.345839
944.960851	2476.093782
945.262628	2474.982207
945.564367	2476.262660
945.866067	2474.190746
946.167729	2473.724439
946.469352	2474.886425
946.770937	2471.022381
947.072484	2472.774182
947.373992	2474.841055
947.675462	2476.250057
947.976893	2473.908441
948.278286	2471.496249
948.579641	2470.319140
948.880958	2469.694037
949.182236	2475.617393
949.483476	2474.336939
949.784678	2476.282825
950.085841	2472.844758
950.386967	2475.047742
950.688054	2472.204531
950.989103	2475.458596
951.290114	2472.965746
951.591087	2472.701085
951.892021	2474.367186
952.192917	2476.524800
952.493776	2476.781899
952.794596	2475.914821
953.095378	2477.853144
953.396122	2475.713174
953.696828	2476.429018
953.997496	2474.863740
954.298126	2476.366004
954.598718	2479.496560
954.899272	2476.313072
955.199788	2476.812146
955.500266	2474.334419
955.800706	2474.024388
956.101108	2473.074130
956.401472	2474.652012
956.701798	2472.857361
957.002087	2471.022381
957.302337	2473.265694
957.602550	2472.189408
957.902724	2469.444500
958.202861	2470.959366
958.502960	2469.678913
958.803022	2468.864767
959.103045	2467.591876
959.403031	2469.888121
959.702979	2468.035497
960.002889	2469.177318
960.302762	2466.167750
960.602596	2468.461475
960.902393	2466.699591
961.202153	2467.334777
961.501875	2469.578090
961.801559	2466.941567
962.101205	2469.252936
962.400814	2465.093984
962.700385	2465.156998
962.999918	2463.127934
963.299414	2462.505351
963.598873	2463.677420
963.898293	2461.373612
964.197677	2468.731176
964.497022	2466.107256
964.796331	2465.887966
965.095601	2465.013325
965.394835	2466.878552
965.694030	2466.671865
965.993189	2465.036011
966.292309	2466.694550
966.591393	2464.456278
966.890439	2463.385033
967.189447	2465.948459
967.488419	2465.494756
967.787353	2465.525002
968.086249	2464.259673
968.385108	2467.841413
968.683930	2465.177163
968.982714	2465.903089
969.281462	2466.530713
969.580172	2467.291927
969.878844	2466.069447
970.177480	2466.502986
970.476078	2465.401494
970.774639	2463.662296
971.073162	2469.353759
971.371649	2466.296299
971.670098	2468.388378
971.968510	2464.080712
972.266885	2465.731690
972.565223	2467.128089
972.863524	2469.104222
973.161788	2468.499283
973.460014	2465.076340
973.758204	2468.022894
974.056356	2465.971145
974.354471	2465.303192
974.652550	2466.722277
974.950591	2467.622123
975.248595	2467.579273
975.546563	2468.320322
975.844493	2468.471557
976.142386	2467.571711
976.440243	2469.484829
976.738062	2464.859570
977.035845	2463.616926
977.333590	2467.375106
977.631299	2464.294961
977.928971	2465.933336
978.226606	2460.685495
978.524204	2459.972172
978.821765	2463.984930
979.119290	2464.201700
979.416777	2465.540126
979.714228	2465.845116
980.011642	2467.004581
980.309020	2466.266052
980.606360	2465.056175
980.903664	2469.010960
981.200931	2468.451392
981.498162	2470.122535
981.795356	2470.309057
982.092513	2470.583800
982.389633	2472.638071
982.686717	2476.207207
982.983764	2477.212918
983.280775	2481.999493
983.577749	2478.183340
983.874686	2477.684266
984.171587	2476.885243
984.468451	2479.186529
984.765279	2477.354070
985.062070	2476.786940
985.358824	2473.999182
985.655543	2472.612865
985.952224	2473.989100
986.248869	2471.516414
986.545478	2471.723101
986.842050	2467.392750
987.138586	2465.908130
987.435086	2468.350569
987.731549	2467.622123
988.027975	2467.397791
988.324366	2464.209261
988.620719	2466.238326
988.917037	2464.357975
989.213318	2463.778243
989.509563	2462.538119
989.805772	2465.613223
990.101944	2460.451081
990.398080	2462.515434
990.694180	2464.264714
990.990244	2463.521144
991.286271	2462.701956
991.582262	2463.105249
991.878217	2462.850670
992.174136	2464.758747
992.470019	2465.829992
992.765865	2462.051648
993.061676	2461.703808
993.357450	2461.819754
993.653188	2459.374795
993.948890	2465.562811
994.244556	2463.372430
994.540186	2466.311422
994.835780	2466.921402
995.131337	2466.991978
995.426859	2469.555405
995.722345	2470.167905
996.017795	2470.190590
996.313208	2470.039356
996.608586	2473.169912
996.903928	2472.265025
997.199234	2473.999182
997.494504	2472.378451
997.789738	2472.277628
998.084936	2472.474233
998.380099	2467.730507
998.675225	2472.232258
998.970316	2469.971300
999.265371	2470.898873
999.560390	2467.261680
999.855373	2468.353090
1000.150320	2464.468881
1000.445232	2464.360496
1000.740108	2465.638428
1001.034948	2465.492235
1001.329752	2463.211113
1001.624521	2464.443675
1001.919254	2461.905454
1002.213951	2461.988633
1002.508613	2465.398974
1002.803239	2464.972996
1003.097829	2462.177676
1003.392384	2463.735393
1003.686903	2464.204220
1003.981386	2461.877728
1004.275834	2462.827985
1004.570246	2465.751854
1004.864623	2462.190279
1005.158964	2461.333283
1005.453270	2461.789508
1005.747540	2463.281689
1006.041775	2463.954683
1006.335974	2462.099538
1006.630138	2460.907306
1006.924266	2461.693726
1007.218359	2463.135496
1007.512416	2461.242542
1007.806438	2459.931842
1008.100425	2460.093159
1008.394376	2459.727676
1008.688292	2458.608539
1008.982172	2463.085084
1009.276017	2464.179014
1009.569827	2461.950824
1009.863602	2461.126596
1010.157341	2460.292285
1010.451045	2463.352265
1010.744714	2462.028962
1011.038347	2463.853860
1011.331945	2462.079374
1011.625508	2461.613067
1011.919036	2460.970320
1012.212528	2462.021401
1012.505986	2460.859415
1012.799408	2461.033334
1013.092795	2462.104580
1013.386147	2460.882100
1013.679464	2460.312449
1013.972745	2462.822944
1014.265992	2460.761112
1014.559204	2463.034672
1014.852380	2461.204734
1015.145521	2464.143726
1015.438628	2461.718931
1015.731699	2462.870835
1016.024736	2462.462502
1016.317737	2461.880248
1016.610703	2460.627522
1016.903635	2461.116513
1017.196531	2462.301185
1017.489393	2464.037862
1017.782219	2460.418314
1018.075011	2460.922429
1018.367768	2462.023921
1018.660490	2461.824796
1018.953177	2461.824796
1019.245829	2461.824796
