Dividing Wavelength (nm)	Counts (n)	Blue Motor Position (mm): 0.000000	Red Motor Position (mm): 27.000000	
326.493990	2049.972609
326.888308	2049.972609
327.282561	2049.972609
327.676750	2023.516633
328.070874	2029.008970
328.464933	2033.704805
328.858929	2039.880219
329.252859	2052.253731
329.646726	2064.730587
330.040528	2082.354460
330.434265	2098.750813
330.827938	2120.684874
331.221547	2138.747328
331.615091	2160.908240
332.008571	2180.314162
332.401986	2201.716381
332.795338	2221.893599
333.188625	2239.598131
333.581847	2259.125041
333.975006	2279.123298
334.368100	2294.019908
334.761129	2310.885088
335.154095	2325.068374
335.546996	2341.862978
335.939833	2363.953314
336.332606	2377.761035
336.725315	2387.659340
337.117960	2400.045455
337.510540	2409.303534
337.903056	2417.565985
338.295508	2426.904723
338.687896	2430.862029
339.080220	2436.266146
339.472480	2444.110181
339.864676	2447.391972
340.256807	2448.352312
340.648875	2451.737447
341.040879	2452.899433
341.432818	2453.582509
341.824694	2456.322376
342.216506	2453.171655
342.608253	2456.022428
342.999937	2453.552262
343.391557	2453.683332
343.783113	2455.369598
344.174605	2449.791561
344.566033	2452.002107
344.957397	2448.561520
345.348697	2446.686211
345.739934	2445.541869
346.131106	2440.714964
346.522215	2440.379727
346.913260	2437.554160
347.304241	2437.304623
347.695159	2433.226330
348.086012	2437.745724
348.476802	2431.081319
348.867528	2427.282809
349.258191	2424.694177
349.648789	2429.808427
350.039324	2424.832809
350.429796	2429.450506
350.820203	2425.772984
351.210548	2427.648293
351.600828	2425.372212
351.991045	2425.200813
352.381198	2423.159146
352.771288	2424.381625
353.161314	2424.167376
353.551276	2422.745771
353.941175	2423.716193
354.331010	2425.029414
354.720782	2424.958838
355.110490	2423.242325
355.500135	2425.578899
355.889717	2427.444126
356.279235	2424.432037
356.668689	2425.480597
357.058080	2425.281471
357.447408	2430.471339
357.836672	2429.543767
358.225873	2425.846081
358.615010	2429.281627
359.004084	2428.205341
359.393095	2429.460588
359.782043	2432.283634
360.170927	2430.446133
360.559748	2431.416556
360.948505	2433.846392
361.337199	2434.718511
361.725830	2432.795311
362.114398	2432.250867
362.502903	2433.838830
362.891344	2436.485436
363.279722	2433.455702
363.668037	2437.710436
364.056289	2434.559715
364.444478	2439.994079
364.832603	2436.046855
365.220665	2440.717484
365.608665	2436.969387
365.996601	2439.399223
366.384474	2438.058276
366.772284	2441.229162
367.160031	2440.437700
367.547715	2441.539192
367.935336	2438.290169
368.322893	2439.845365
368.710388	2438.161619
369.097820	2439.132042
369.485189	2439.273194
369.872495	2440.334357
370.259738	2444.644543
370.646918	2445.612445
371.034035	2446.121601
371.421090	2446.406427
371.808081	2448.029678
372.195010	2447.056735
372.581875	2447.969184
372.968678	2451.659309
373.355418	2452.833898
373.742096	2454.777262
374.128710	2455.293981
374.515262	2461.817234
374.901751	2462.732203
375.288177	2463.692543
375.674540	2468.990796
376.060841	2473.721919
376.447079	2475.095633
376.833254	2482.629637
377.219367	2484.714155
377.605417	2491.529795
377.991404	2495.983654
378.377329	2504.586383
378.763191	2513.279853
379.148991	2521.819568
379.534727	2531.168387
379.920402	2536.912782
380.306013	2548.295708
380.691563	2560.404559
381.077049	2569.274469
381.462474	2582.290728
381.847835	2595.559045
382.233134	2609.495315
382.618371	2622.529218
383.003545	2637.456075
383.388657	2651.268837
383.773706	2670.097546
384.158693	2683.854855
384.543618	2702.396219
384.928480	2713.184288
385.313280	2738.392578
385.698017	2756.757501
386.082692	2781.456635
386.467305	2794.614046
386.851856	2815.580205
387.236344	2848.990452
387.620770	2859.836495
388.005133	2886.746174
388.389435	2918.152562
388.773674	2930.780653
389.157851	2964.256435
389.541965	2988.806854
389.926018	3001.611385
390.310008	3037.196890
390.693936	3060.058522
391.077802	3088.205805
391.461606	3120.454066
391.845348	3136.356386
392.229027	3168.239163
392.612645	3207.938250
392.996200	3239.470667
393.379694	3277.329733
393.763125	3317.268274
394.146494	3341.909434
394.529801	3375.657438
394.913047	3426.147115
395.296230	3430.225408
395.679351	3453.213070
396.062410	3506.319105
396.445408	3485.912514
396.828343	3526.834081
397.211217	3558.847928
397.594028	3534.153836
397.976778	3583.405909
398.359466	3615.331536
398.742092	3625.043319
399.124656	3638.619147
399.507158	3701.434444
399.889598	3704.796894
400.271977	3772.250053
400.654294	3757.721447
401.036549	3818.406857
401.418742	3819.054646
401.800874	3888.110892
402.182944	3914.216507
402.564952	3999.044002
402.946898	3993.425637
403.328783	3989.402796
403.710606	4038.034807
404.092367	4109.283955
404.474067	4175.040766
404.855705	4159.120802
405.237282	4130.287922
405.618797	4227.017582
406.000250	4304.512720
406.381642	4386.418867
406.762972	4385.352663
407.144240	4352.585163
407.525447	4420.691151
407.906593	4437.253862
408.287677	4524.034805
408.668700	4547.947518
409.049661	4588.511163
409.430560	4621.878560
409.811399	4601.517340
410.192176	4653.569774
410.572891	4737.305860
410.953545	4844.639587
411.334138	4746.634515
411.714669	4851.306513
412.095139	4766.418523
412.475547	4878.120410
412.855894	4882.113004
413.236180	4986.379189
413.616405	4912.743055
413.996568	5017.941853
414.376670	5017.752810
414.756711	5016.890773
415.136691	5081.168005
415.516609	5170.898023
415.896466	5203.209298
416.276262	5279.678561
416.655997	5393.222990
417.035670	5492.803422
417.415283	5628.748218
417.794834	5703.102717
418.174324	5655.617568
418.553753	5667.459238
418.933121	5834.233210
419.312428	5844.307956
419.691674	5768.783910
420.070859	5995.030895
420.449983	5872.296443
420.829045	6067.600825
421.208047	5993.568960
421.586988	6153.867570
421.965867	6229.857923
422.344686	6310.128216
422.723444	6477.023176
423.102141	6092.867088
423.480777	6483.044834
423.859352	6298.861237
424.237866	6665.416136
424.616319	6664.254150
424.994712	6824.542678
425.373044	6739.664770
425.751314	7059.909110
426.129524	6774.156345
426.507673	7041.579474
426.885762	7084.066319
427.263789	7120.952442
427.641756	7214.496092
428.019662	7296.185470
428.397508	7332.897673
428.775292	7312.455794
429.153016	7481.941907
429.530679	7416.626197
429.908282	7469.207952
430.285824	7409.964312
430.663305	7696.511058
431.040726	7573.383396
431.418086	7577.945641
431.795385	7711.972277
432.172624	7902.187615
432.549802	7788.829709
432.926920	7922.304339
433.303977	7864.119342
433.680974	7899.117552
434.057910	8105.918286
434.434786	8163.095053
434.811601	8117.840615
435.188355	8457.332079
435.565050	8335.033687
435.941683	8349.214453
436.318257	8688.416051
436.694770	8635.602403
437.071222	8866.804842
437.447614	8644.555492
437.823946	8610.124411
438.200218	8761.598481
438.576429	8635.567115
438.952580	8799.187845
439.328670	8814.361718
439.704700	8882.422336
440.080670	8774.491232
440.456580	9045.377634
440.832429	9034.239205
441.208218	8757.976412
441.583947	8871.409936
441.959616	8995.613884
442.335224	9025.001290
442.710773	9112.848437
443.086261	9292.018607
443.461689	9002.709308
443.837057	9168.618722
444.212365	9388.453359
444.587612	9372.934167
444.962800	9262.540460
445.337927	9399.039782
445.712995	8934.434441
446.088002	9601.195093
446.462949	9655.702569
446.837837	9640.506010
447.212664	9660.368157
447.587431	10485.809208
447.962139	11488.098977
448.336786	12417.657500
448.711374	12208.126981
449.085901	10993.019861
449.460369	10913.019270
449.834776	10681.446306
450.209124	11583.205386
450.583412	11401.229814
450.957640	11716.556508
451.331808	11302.266923
451.705917	10724.540610
452.079965	10593.016906
452.453954	10786.130907
452.827883	10723.907945
453.201752	10677.844402
453.575562	10673.292240
453.949311	10998.320634
454.323001	11045.208406
454.696632	10946.268200
455.070202	11507.267965
455.443713	11547.609798
455.817164	11693.480626
456.190556	11981.537198
456.563888	11830.111019
456.937160	12061.099209
457.310373	11545.242977
457.683526	11531.594053
458.056619	11528.798733
458.429653	11558.980121
458.802628	11658.928558
459.175542	11670.261072
459.548398	12141.493010
459.921194	12635.339564
460.293930	12869.836397
460.666607	13637.815856
461.039224	14332.375951
461.411782	14613.090082
461.784280	14269.482515
462.156719	14185.617880
462.529099	14052.886820
462.901419	13403.901276
463.273680	12980.136843
463.645882	13118.256897
464.018024	12943.885906
464.390106	13207.588663
464.762130	14076.136621
465.134094	15326.385625
465.505999	17202.012448
465.877845	19132.872674
466.249631	20160.511885
466.621358	19686.552683
466.993026	18919.420138
467.364634	18159.256987
467.736184	17356.745624
468.107674	16726.871095
468.479105	16504.725089
468.850477	16176.868608
469.221790	15733.423510
469.593043	15104.751296
469.964238	14697.297516
470.335373	14641.698630
470.706449	15092.715541
471.077467	15633.510361
471.448425	17441.298377
471.819324	18813.313932
472.190164	18653.307708
472.560945	17173.880289
472.931667	15861.083169
473.302330	15476.483460
473.672934	14947.076607
474.043479	15139.910823
474.413965	14862.080232
474.784393	14623.658861
475.154761	14975.463344
475.525070	14951.596001
475.895321	14709.751686
476.265513	14947.000989
476.635645	15234.225771
477.005719	15150.628317
477.375734	15248.590539
477.745691	15543.253543
478.115588	15814.581046
478.485427	16438.005418
478.855207	17451.836909
479.224928	18467.314337
479.594591	19208.681545
479.964194	18844.861472
480.333739	18948.603377
480.703226	18887.534840
481.072653	18954.244428
481.442022	19067.791378
481.811333	19110.142111
482.180584	18659.876332
482.549777	18334.215273
482.918912	17986.879773
483.287988	17746.424296
483.657005	17460.505173
484.025964	17064.557827
484.394864	16970.948641
484.763706	16732.585243
485.132489	16255.087151
485.501213	16091.496667
485.869879	15989.355329
486.238487	15764.144301
486.607036	15704.575507
486.975527	15358.649009
487.343959	15326.728423
487.712333	15298.477797
488.080648	15082.010651
488.448905	15095.024390
488.817104	14834.134596
489.185244	14997.246170
489.553326	15186.329768
489.921350	15786.322858
490.289315	16626.794109
490.657222	16803.756253
491.025070	16810.077860
491.392861	16456.393027
491.760593	15903.829633
492.128267	15276.604231
492.495883	14676.044011
492.863440	14104.752731
493.230939	13523.623639
493.598380	13110.163324
493.965763	12822.631032
494.333088	12431.787854
494.700354	12155.610761
495.067563	11944.003287
495.434713	11721.680841
495.801805	11608.474169
496.168839	11352.985972
496.535815	11122.935437
496.902733	10962.152876
497.269593	10723.575229
497.636395	10574.243649
498.003139	10460.172420
498.369825	10211.356190
498.736453	10131.824426
499.103023	9907.024253
499.469535	9743.295137
499.835989	9588.884595
500.202385	9379.999344
500.568723	9213.787461
500.935003	9100.714380
501.301226	8897.283658
501.667390	8880.675576
502.033497	8753.938448
502.399546	8540.306951
502.765537	8294.956514
503.131470	8223.533446
503.497345	8122.725493
503.863163	7780.552134
504.228923	7748.871003
504.594625	7649.761918
504.960269	7411.469097
505.325856	7357.097732
505.691385	7154.584499
506.056856	7052.944756
506.422270	6969.654812
506.787625	6764.041270
507.152924	6676.178999
507.518164	6556.756585
507.883347	6368.703903
508.248472	6252.207879
508.613540	6204.657195
508.978550	6096.589980
509.343503	5944.876455
509.708398	5852.525037
510.073236	5791.438855
510.438016	5678.610271
510.802738	5530.385224
511.167403	5460.829904
511.532010	5370.686511
511.896561	5304.690246
512.261053	5254.361886
512.625488	5131.887054
512.989866	5018.972769
513.354186	4929.462042
513.718449	4827.025795
514.082655	4791.634375
514.446803	4682.848795
514.810894	4632.976660
515.174927	4546.883835
515.538904	4463.127584
515.902822	4412.804266
516.266684	4320.399916
516.630488	4263.197943
516.994235	4190.234803
517.357925	4148.045387
517.721558	4092.708641
518.085133	4040.131927
518.448651	3983.376096
518.812112	3919.093823
519.175516	3868.430227
519.538863	3831.176100
519.902152	3782.113070
520.265385	3744.077564
520.628560	3698.205585
520.991678	3650.692710
521.354739	3612.982359
521.717743	3579.579673
522.080690	3536.089639
522.443580	3517.228162
522.806413	3478.174343
523.169189	3443.655042
523.531908	3415.172523
523.894569	3379.181205
524.257174	3353.032740
524.619722	3330.229081
524.982213	3307.629588
525.344647	3279.283180
525.707025	3257.777617
526.069345	3241.560226
526.431608	3218.292780
526.793815	3201.357024
527.155964	3175.836182
527.518057	3158.194664
527.880093	3137.041983
528.242072	3131.274903
528.603995	3108.940071
528.965860	3091.545569
529.327669	3077.710123
529.689421	3064.030952
530.051117	3052.340516
530.412755	3040.705533
530.774337	3031.964172
531.135862	3014.746111
531.497331	3005.881242
531.858743	2999.249604
532.220098	2995.269613
532.581396	2979.105153
532.942638	2967.366827
533.303824	2960.662092
533.664953	2952.906277
534.026025	2942.007302
534.387040	2938.274328
534.747999	2931.410797
535.108902	2926.099941
535.469748	2914.671646
535.830537	2909.582601
536.191270	2902.804769
536.551947	2892.873696
536.912567	2888.137532
537.273131	2884.560834
537.633638	2873.732435
537.994089	2874.299565
538.354483	2864.839840
538.714821	2866.344624
539.075103	2864.517206
539.435328	2857.003366
539.795497	2849.338292
540.155609	2847.462982
540.515665	2848.985411
540.875665	2837.965449
541.235609	2834.928153
541.595496	2832.614264
541.955328	2831.764829
542.315102	2823.212512
542.674821	2818.408292
543.034483	2812.200111
543.394090	2809.238433
543.753640	2807.322795
544.113134	2811.854792
544.472571	2802.412711
544.831953	2806.279276
545.191278	2799.009932
545.550548	2792.179169
545.909761	2790.828140
546.268918	2789.194806
546.628019	2788.673046
546.987064	2786.293622
547.346053	2775.122425
547.704986	2776.140738
548.063863	2773.047990
548.422684	2772.697630
548.781449	2765.345107
549.140158	2767.933739
549.498811	2763.240425
549.857408	2756.376894
550.215949	2761.367637
550.574434	2756.286153
550.932864	2752.979157
551.291237	2757.001997
551.649555	2752.268354
552.007817	2751.187026
552.366022	2745.477920
552.724173	2745.004051
553.082267	2747.237282
553.440305	2744.958681
553.798288	2742.347363
554.156215	2740.366190
554.514086	2736.547516
554.871902	2728.577451
555.229661	2730.750189
555.587365	2725.091493
555.945014	2727.090311
556.302606	2728.096021
556.660143	2724.428582
557.017625	2724.715927
557.375050	2722.349106
557.732421	2723.473283
558.089735	2722.880947
558.446994	2719.967161
558.804197	2721.275340
559.161345	2718.643858
559.518437	2715.689742
559.875474	2715.903991
560.232455	2715.357025
560.589381	2714.167313
560.946251	2707.974256
561.303065	2714.918445
561.659825	2713.280070
562.016528	2711.112374
562.373177	2704.682382
562.729770	2709.189174
563.086307	2705.514172
563.442789	2707.938967
563.799216	2706.711447
564.155587	2702.181970
564.511904	2704.445448
564.868164	2703.711960
565.224370	2702.461754
565.580520	2700.417566
565.936615	2703.278421
566.292654	2697.922195
566.648638	2699.200127
567.004567	2697.332380
567.360441	2700.110056
567.716260	2697.861701
568.072023	2699.250539
568.427732	2697.274407
568.783385	2694.965558
569.138982	2697.259283
569.494525	2695.792307
569.850013	2693.969930
570.205445	2693.561597
570.560823	2693.198634
570.916145	2691.862728
571.271412	2694.683253
571.626625	2690.037830
571.981782	2688.089424
572.336884	2686.642613
572.691931	2683.380987
573.046923	2689.987419
573.401860	2680.941068
573.756743	2686.415761
574.111570	2685.707479
574.466342	2685.576409
574.821059	2685.989784
575.175722	2683.038188
575.530330	2683.040709
575.884882	2683.640606
576.239380	2679.668177
576.593823	2681.210770
576.948211	2679.050635
577.302544	2678.581808
577.656823	2672.978566
578.011047	2679.668177
578.365216	2678.019719
578.719330	2673.691889
579.073389	2675.453772
579.427394	2675.244564
579.781344	2672.882784
580.135239	2671.987979
580.489080	2673.129800
580.842866	2670.089984
581.196597	2671.816580
581.550273	2671.987979
581.903895	2671.993020
582.257463	2674.798422
582.610975	2668.628050
582.964434	2672.645849
583.317837	2670.480674
583.671186	2669.603513
584.024481	2670.881446
584.377721	2665.459685
584.730906	2668.728873
585.084037	2670.014367
585.437113	2669.749707
585.790135	2668.789367
586.143103	2670.084943
586.496016	2666.097391
586.848874	2667.405570
587.201679	2668.718791
587.554428	2663.203768
587.907124	2666.384736
588.259765	2666.263749
588.612352	2665.232833
588.964884	2664.401042
589.317362	2666.485559
589.669786	2664.554797
590.022155	2661.888027
590.374470	2661.172183
590.726731	2661.535146
591.078937	2655.495844
591.431090	2660.647903
591.783188	2659.349806
592.135232	2656.798982
592.487222	2661.393994
592.839157	2659.803510
593.191038	2658.346617
593.542866	2660.161432
593.894639	2653.733961
594.246358	2657.295536
594.598022	2654.800165
594.949633	2652.806388
595.301190	2651.833446
595.652692	2654.134732
596.004141	2654.832932
596.355535	2649.517036
596.706876	2651.372180
597.058162	2647.946716
597.409395	2649.154072
597.760573	2652.698004
598.111698	2649.932931
598.462768	2650.084165
598.813785	2647.442601
599.164748	2646.751963
599.515657	2648.080307
599.866511	2644.465799
600.217312	2649.605256
600.568060	2643.490336
600.918753	2649.554844
601.269392	2646.320944
601.619978	2642.754328
601.970510	2648.347488
602.320988	2646.467137
602.671412	2646.293218
603.021783	2648.251706
603.372100	2647.392189
603.722363	2644.982518
604.072572	2644.329688
604.422728	2645.451345
604.772830	2645.612662
605.122878	2643.596200
605.472872	2644.669966
605.822813	2646.368835
606.172701	2642.807260
606.522534	2646.562919
606.872314	2645.940337
607.222041	2645.322796
607.571714	2645.378248
607.921333	2638.116466
608.270899	2642.116622
608.620411	2641.536889
608.969870	2646.058804
609.319276	2645.209370
609.668627	2645.106026
610.017926	2646.928403
610.367171	2647.387148
610.716362	2647.987045
611.065500	2645.872281
611.414585	2645.965543
611.763616	2647.336737
612.112594	2647.205667
612.461518	2647.069555
612.810389	2649.632982
613.159207	2647.936634
613.507971	2644.664925
613.856682	2649.073414
614.205340	2646.542755
614.553945	2649.902684
614.902496	2648.995276
615.250994	2648.264309
615.599439	2647.614000
615.947830	2650.109371
616.296169	2648.087868
616.644454	2649.612817
616.992686	2651.296563
617.340864	2651.243631
617.688990	2648.226500
618.037063	2654.046512
618.385082	2648.836480
618.733048	2651.140287
619.080961	2652.352685
619.428821	2650.920997
619.776628	2651.089876
620.124382	2650.079124
620.472083	2651.039464
620.819731	2652.634989
621.167326	2649.776655
621.514868	2648.788589
621.862357	2648.765904
622.209793	2648.496202
622.557176	2647.399751
622.904506	2645.947899
623.251783	2640.939512
623.599007	2640.284162
623.946179	2641.524286
624.293297	2640.538741
624.640363	2638.784419
624.987376	2636.609161
625.334336	2631.452061
625.681243	2631.918367
626.028097	2629.090280
626.374899	2633.796197
626.721647	2636.094963
627.068343	2634.317957
627.414987	2631.048768
627.761577	2630.106073
628.108115	2632.911475
628.454600	2628.737399
628.801032	2629.375105
629.147412	2629.851494
629.493739	2631.908285
629.840014	2628.790332
630.186236	2632.563635
630.532405	2624.802779
630.878521	2627.545167
631.224585	2626.236987
631.570597	2625.143057
631.916556	2625.793366
632.262462	2628.046761
632.608316	2625.674898
632.954117	2622.561986
633.299866	2626.330248
633.645562	2623.933180
633.991206	2622.267078
634.336797	2621.563838
634.682336	2622.660288
635.027823	2617.956892
635.373257	2620.633745
635.718639	2618.773559
636.063968	2620.081738
636.409245	2615.290122
636.754470	2614.801130
637.099642	2613.934051
637.444762	2611.796602
637.789829	2609.901128
638.134845	2609.495315
638.479808	2609.452465
638.824719	2612.204935
639.169577	2607.322578
639.514383	2606.778133
639.859137	2607.728391
640.203839	2607.499018
640.548489	2608.267794
640.893086	2607.398195
641.237632	2607.746035
641.582125	2606.757969
641.926566	2606.712598
642.270955	2602.352000
642.615292	2601.643718
642.959576	2600.794284
643.303809	2597.893100
643.647990	2606.097577
643.992118	2605.449789
644.336195	2601.527772
644.680219	2601.928543
645.024192	2602.672113
645.368112	2607.521703
645.711981	2604.726384
646.055797	2607.909872
646.399562	2608.560181
646.743274	2610.107815
647.086935	2614.239041
647.430544	2613.571088
647.774101	2611.852055
648.117606	2611.970522
648.461059	2614.012189
648.804460	2612.779627
649.147810	2611.768876
649.491108	2610.289297
649.834354	2609.265943
650.177548	2608.179574
650.520690	2603.156064
650.863781	2607.025150
651.206820	2605.346446
651.549807	2603.945005
651.892742	2600.716146
652.235626	2601.643718
652.578458	2602.853595
652.921238	2599.561722
653.263967	2600.423759
653.606644	2598.906372
653.949269	2596.985692
654.291843	2594.331524
654.634365	2596.952924
654.976836	2598.351845
655.319255	2597.131885
655.661622	2595.952255
656.003938	2595.249014
656.346203	2594.102152
656.688416	2594.671802
657.030577	2593.600557
657.372687	2594.439909
657.714746	2593.930753
658.056753	2594.016452
658.398708	2590.958992
658.740612	2592.695670
659.082465	2592.592326
659.424266	2590.394383
659.766016	2590.399424
660.107715	2590.908581
660.449362	2589.040833
660.790958	2592.357913
661.132503	2589.953282
661.473996	2593.023345
661.815438	2592.511668
662.156829	2592.995619
662.498168	2591.107707
662.839456	2590.590988
663.180693	2592.002511
663.521879	2593.328335
663.863013	2592.252048
664.204097	2592.257090
664.545129	2597.545260
664.886110	2591.868921
665.227040	2594.182810
665.567918	2593.903026
665.908746	2592.819178
666.249522	2593.300608
666.590248	2593.167018
666.930922	2596.960486
667.271545	2596.247163
667.612118	2597.298243
667.952639	2596.423603
668.293109	2596.932760
668.633528	2594.361771
668.973896	2593.199785
669.314213	2593.983685
669.654480	2591.538725
669.994695	2593.724065
670.334859	2595.463263
670.674973	2591.505958
671.015035	2592.839343
671.355047	2593.424117
671.695008	2591.553849
672.034918	2592.057964
672.374777	2594.394539
672.714585	2591.697522
673.054342	2593.010742
673.394049	2591.836153
673.733705	2591.022007
674.073310	2592.569641
674.412864	2595.455702
674.752368	2591.629466
675.091820	2593.776997
675.431223	2589.618046
675.770574	2589.786924
676.109875	2588.655185
676.449125	2585.353229
676.788324	2585.401120
677.127473	2585.607808
677.466571	2582.154617
677.805619	2582.908270
678.144616	2585.292736
678.483562	2583.069587
678.822458	2581.537076
679.161303	2582.928434
679.500098	2581.035481
679.838842	2580.291911
680.177535	2581.491706
680.516179	2586.046388
680.854771	2582.686459
681.193314	2586.994125
681.531805	2587.939341
681.870247	2590.331369
682.208638	2596.640373
682.546978	2598.450147
682.885268	2597.565425
683.223508	2593.978644
683.561697	2591.475711
683.899836	2592.725917
684.237925	2593.154415
684.575963	2592.042841
684.913951	2592.925042
685.251889	2594.094590
685.589776	2590.964034
685.927614	2592.148705
686.265401	2590.275916
686.603137	2588.849270
686.940824	2593.182141
687.278460	2593.880341
687.616046	2594.349168
687.953582	2596.874787
688.291068	2599.828903
688.628504	2597.482246
688.965889	2598.460229
689.303224	2600.985847
689.640510	2595.112903
689.977745	2597.862853
690.314930	2593.048551
690.652065	2592.418407
690.989150	2586.800041
691.326185	2585.244845
691.663170	2582.459607
692.000105	2578.552713
692.336990	2579.641602
692.673825	2576.011971
693.010610	2572.626837
693.347345	2571.391754
693.684030	2566.711043
694.020665	2566.433779
694.357251	2562.181566
694.693786	2564.762637
695.030272	2565.559139
695.366707	2564.366906
695.703093	2561.490928
696.039429	2562.904971
696.375716	2561.614436
696.711952	2561.009497
697.048139	2560.588561
697.384276	2561.952193
697.720363	2563.988819
698.056400	2560.591082
698.392388	2558.418344
698.728326	2560.558314
699.064214	2559.955896
699.400053	2559.504713
699.735842	2560.490259
700.071581	2557.982285
700.407270	2554.032541
700.742910	2553.730071
701.078501	2553.132695
701.414042	2552.686552
701.749533	2553.117571
702.084974	2551.809392
702.420366	2550.261758
702.755709	2549.404761
703.091002	2547.905018
703.426246	2550.927190
703.761440	2548.746891
704.096584	2547.736139
704.431679	2548.119267
704.766725	2547.552137
705.101721	2546.039791
705.436668	2547.287477
705.771565	2546.609442
706.106413	2546.717826
706.441212	2550.450801
706.775961	2547.665563
707.110661	2547.292518
707.445311	2550.881819
707.779913	2547.025337
708.114465	2549.205636
708.448967	2549.926521
708.783421	2553.268806
709.117825	2553.044474
709.452180	2553.230997
709.786485	2556.303580
710.120742	2559.698797
710.454949	2553.946841
710.789107	2563.668706
711.123216	2560.293654
711.457275	2566.388409
711.791286	2567.036197
712.125247	2569.561815
712.459159	2566.499314
712.793023	2568.790518
713.126837	2567.328584
713.460602	2564.860939
713.794318	2568.566187
714.127985	2567.366392
714.461602	2560.765002
714.795171	2560.701987
715.128691	2555.940617
715.462162	2559.053530
715.795584	2555.701162
716.128957	2555.660833
716.462281	2551.658157
716.795556	2555.091183
717.128782	2548.671273
717.461960	2548.474668
717.795088	2547.567261
718.128167	2546.674977
718.461198	2542.773123
718.794180	2544.451828
719.127113	2543.735984
719.459997	2543.864533
719.792833	2539.950077
720.125619	2541.391847
720.458357	2539.738349
720.791046	2539.561908
721.123686	2538.762886
721.456278	2536.070909
721.788821	2538.233564
722.121315	2535.660055
722.453761	2535.566794
722.786158	2532.940353
723.118506	2533.199972
723.450805	2537.830272
723.783056	2535.518903
724.115259	2536.522093
724.447412	2535.218954
724.779518	2539.725746
725.111574	2537.432021
725.443582	2537.923533
725.775542	2537.137113
726.107453	2538.997299
726.439315	2538.074768
726.771129	2542.851261
727.102895	2538.558719
727.434612	2542.616848
727.766281	2540.108874
728.097901	2543.226827
728.429473	2546.642209
728.760996	2547.761345
729.092471	2548.673794
729.423897	2548.749411
729.755276	2546.322096
730.086606	2547.219421
730.417887	2547.899977
730.749120	2552.452139
731.080305	2552.767211
731.411442	2551.453990
731.742530	2552.371480
732.073570	2554.697973
732.404562	2556.033879
732.735506	2555.857438
733.066401	2555.388611
733.397249	2554.531615
733.728048	2553.364588
734.058798	2548.739329
734.389501	2542.737835
734.720156	2543.524255
735.050762	2539.360262
735.381320	2539.889583
735.711831	2534.699716
736.042293	2535.488656
736.372707	2535.581918
736.703073	2532.872297
737.033391	2534.513193
737.363661	2535.556712
737.693883	2535.526465
738.024056	2536.869932
738.354182	2536.640560
738.684260	2539.617361
739.014290	2541.200283
739.344272	2538.236085
739.674207	2542.810932
740.004093	2544.419060
740.333931	2541.351518
740.663722	2543.342774
740.993464	2544.464431
741.323159	2544.154400
741.652806	2544.227496
741.982405	2541.583411
742.311956	2541.827907
742.641460	2541.507794
742.970915	2540.234903
743.300323	2535.655014
743.629683	2532.244674
743.958996	2532.804242
744.288260	2528.337779
744.617477	2533.628470
744.946647	2532.214427
745.275768	2531.770805
745.604842	2528.526823
745.933869	2530.026566
746.262847	2528.930115
746.591778	2527.445495
746.920662	2529.159488
747.249498	2527.894158
747.578286	2527.997502
747.907027	2528.327697
748.235720	2532.151412
748.564365	2532.509334
748.892963	2530.480270
749.221514	2529.814838
749.550017	2529.315763
749.878473	2530.747451
750.206881	2532.940353
750.535242	2530.097142
750.863555	2528.055475
751.191821	2527.684950
751.520039	2526.996833
751.848210	2528.690660
752.176334	2529.504807
752.504411	2528.461288
752.832440	2527.155629
753.160421	2526.157480
753.488356	2525.459281
753.816243	2526.240659
754.144082	2525.829805
754.471875	2525.182017
754.799620	2527.279137
755.127318	2524.428365
755.454969	2525.721421
755.782572	2527.715197
756.110129	2525.698735
756.437638	2526.780063
756.765100	2527.102697
757.092515	2524.529188
757.419882	2525.905423
757.747203	2525.981040
758.074477	2525.068591
758.401703	2525.363499
758.728882	2523.601615
759.056014	2527.090094
759.383099	2524.176307
759.710138	2525.741585
760.037129	2524.471214
760.364073	2524.030113
760.690970	2526.114631
761.017820	2530.686957
761.344623	2532.216947
761.671379	2532.121165
761.998088	2534.641742
762.324751	2540.307999
762.651366	2555.996070
762.977935	2573.632547
763.304456	2589.560072
763.630931	2596.804210
763.957359	2593.474528
764.283740	2582.759556
764.610074	2575.714543
764.936362	2564.497976
765.262602	2556.021276
765.588796	2548.028526
765.914943	2540.731456
766.241044	2532.922709
766.567097	2532.955476
766.893104	2525.182017
767.219064	2526.039013
767.544978	2520.914680
767.870845	2518.953672
768.196665	2519.916532
768.522438	2517.038033
768.848165	2518.734381
769.173846	2514.953516
769.499479	2514.159534
769.825066	2511.114677
770.150607	2513.340347
770.476101	2511.437311
770.801548	2509.582167
771.126949	2511.729698
771.452303	2511.820439
771.777611	2507.522855
772.102872	2509.133504
772.428087	2506.421363
772.753256	2507.394306
773.078378	2508.999913
773.403453	2504.606548
773.728482	2505.478667
774.053465	2504.331805
774.378401	2505.289624
774.703291	2506.050838
775.028135	2504.367093
775.352932	2503.721825
775.677683	2502.035559
776.002388	2502.360714
776.327046	2497.828716
776.651658	2502.030518
776.976224	2496.628922
777.300743	2501.843995
777.625216	2500.371978
777.949643	2502.020436
778.274024	2501.907010
778.598359	2500.553460
778.922647	2499.194869
779.246889	2501.143275
779.571086	2499.681340
779.895236	2497.969869
780.219339	2499.396515
780.543397	2499.600682
780.867409	2498.804180
781.191374	2500.961793
781.515294	2502.678306
781.839167	2504.306599
782.162995	2496.671772
782.486776	2500.457678
782.810511	2501.387771
783.134201	2499.888028
783.457844	2499.681340
783.781441	2502.842144
784.104993	2497.831237
784.428498	2500.722339
784.751958	2497.523727
785.075372	2499.673779
785.398739	2497.506083
785.722061	2499.414159
786.045337	2501.811228
786.368568	2500.061948
786.691752	2502.756444
787.014891	2502.978255
787.337983	2504.367093
787.661030	2508.589059
787.984031	2510.950840
788.306987	2512.695079
788.629897	2514.746829
788.952760	2511.379338
789.275579	2513.554596
789.598351	2513.970491
789.921078	2507.439676
790.243759	2504.707371
790.566395	2506.572598
790.888984	2503.646208
791.211529	2504.319202
791.534027	2501.468429
791.856480	2502.554798
792.178888	2499.220075
792.501249	2498.063130
792.823566	2495.628253
793.145836	2494.887203
793.468062	2497.851402
793.790241	2496.258397
794.112375	2497.248984
794.434464	2500.669407
794.756507	2498.335352
795.078505	2500.666886
795.400457	2501.511279
795.722364	2501.735611
796.044226	2506.895232
796.366042	2507.437156
796.687812	2507.207783
797.009538	2507.905983
797.331218	2508.432783
797.652852	2506.912876
797.974442	2505.279542
798.295986	2504.601507
798.617484	2508.188287
798.938938	2504.109994
799.260346	2503.358862
799.581709	2502.426249
799.903026	2505.982783
800.224299	2500.969355
800.545526	2502.766527
800.866708	2496.213027
801.187845	2500.671927
801.508936	2498.894920
801.829983	2499.247801
802.150984	2497.024652
802.471940	2501.002123
802.792851	2498.473984
803.113717	2498.942811
803.434538	2497.133037
803.755314	2499.068840
804.076045	2494.995588
804.396731	2498.761330
804.717372	2496.790239
805.037967	2497.105311
805.358518	2496.606237
805.679024	2496.278562
805.999485	2499.212513
806.319901	2497.385095
806.640272	2497.029693
806.960598	2500.107318
807.280879	2498.410970
807.601115	2498.317708
807.921306	2496.671772
808.241453	2496.525578
808.561554	2494.468787
808.881611	2496.666730
809.201623	2492.313694
809.521590	2499.131855
809.841513	2497.737976
810.161390	2499.961124
810.481223	2493.694970
810.801011	2496.041627
811.120755	2499.086484
811.440453	2497.231340
811.760107	2497.569097
812.079716	2499.436844
812.399281	2495.741679
812.718801	2494.536843
813.038276	2496.868377
813.357707	2496.200424
813.677093	2498.844509
813.996434	2495.812255
814.315731	2494.950218
814.634983	2495.237563
814.954191	2494.677995
815.273354	2498.048007
815.592473	2497.198572
815.911547	2496.006339
816.230577	2496.573469
816.549562	2499.585558
816.868502	2498.771412
817.187399	2503.467247
817.506250	2504.755262
817.825058	2502.884994
818.143821	2502.053203
818.462539	2506.459172
818.781213	2509.768689
819.099843	2509.231806
819.418429	2516.894360
819.736970	2523.730165
820.055466	2533.031094
820.373919	2540.181970
820.692327	2551.441388
821.010691	2578.174626
821.329011	2624.989302
821.647286	2704.495859
821.965517	2807.221972
822.283704	2881.304248
822.601847	2925.038778
822.919945	2895.716907
823.237999	2856.779035
823.556010	2808.812456
823.873976	2760.694642
824.191897	2715.117571
824.509775	2677.833197
824.827609	2650.376552
825.145398	2625.420320
825.463144	2615.960595
825.780845	2614.027312
826.098502	2621.147942
826.416116	2639.487660
826.733685	2662.624036
827.051210	2673.908658
827.368692	2669.096877
827.686129	2649.620379
828.003522	2625.629528
828.320872	2601.794953
828.638177	2581.897518
828.955439	2565.869170
829.272656	2552.212684
829.589830	2541.459903
829.906960	2531.438089
830.224046	2524.589682
830.541088	2516.042405
830.858086	2515.813033
831.175041	2512.107785
831.491952	2510.252640
831.808819	2509.388082
832.125642	2512.904287
832.442421	2519.485513
832.759157	2528.872142
833.075849	2544.066179
833.392497	2566.234653
833.709101	2582.431881
834.025662	2585.345668
834.342179	2580.181006
834.658653	2564.366906
834.975083	2551.554813
835.291469	2542.689944
835.607811	2529.116638
835.924110	2523.997346
836.240366	2517.539628
836.556578	2512.942096
836.872746	2509.123422
837.188871	2503.016064
837.504952	2498.884838
837.820990	2497.687564
838.136984	2499.197390
838.452935	2498.342914
838.768842	2493.977275
839.084706	2496.696977
839.400526	2504.609068
839.716303	2513.247085
840.032037	2519.707324
840.347727	2520.367715
840.663373	2521.149094
840.978977	2508.561333
841.294537	2507.905983
841.610054	2500.147647
841.925527	2498.602533
842.240957	2493.470639
842.556344	2492.616163
842.871687	2488.784886
843.186987	2488.303456
843.502244	2486.864207
843.817458	2485.054433
844.132629	2487.028044
844.447756	2485.457725
844.762840	2485.079638
845.077881	2481.823053
845.392879	2484.000831
845.707833	2483.227014
846.022745	2480.817343
846.337613	2479.667960
846.652438	2479.398258
846.967221	2482.095275
847.281960	2481.139977
847.596656	2480.683752
847.911309	2478.841210
848.225919	2481.114771
848.540485	2479.552013
848.855009	2480.855151
849.169490	2480.270377
849.483928	2477.767445
849.798323	2477.159986
850.112675	2478.911787
850.426984	2477.167547
850.741251	2478.861375
851.055474	2478.437918
851.369654	2479.436067
851.683792	2479.365490
851.997887	2477.996817
852.311938	2476.965901
852.625947	2477.790130
852.939914	2479.715851
853.253837	2479.786427
853.567718	2478.334574
853.881555	2476.802064
854.195350	2480.086375
854.509103	2477.676704
854.822812	2477.795171
855.136479	2479.284832
855.450103	2477.764924
855.763685	2476.565129
856.077224	2475.531693
856.390720	2475.856847
856.704173	2475.216621
857.017584	2481.611324
857.330953	2480.726602
857.644278	2478.984883
857.957561	2482.843887
858.270802	2477.757362
858.584000	2478.982363
858.897155	2476.071096
859.210268	2481.654174
859.523339	2480.310707
859.836367	2479.249544
860.149352	2476.797023
860.462295	2478.034626
860.775195	2476.900366
861.088054	2476.580253
861.400869	2477.442290
861.713642	2480.383803
862.026373	2479.738536
862.339062	2479.115953
862.651708	2481.155100
862.964312	2478.732826
863.276873	2479.403299
863.589392	2481.868423
863.901869	2481.472693
864.214303	2479.219297
864.526696	2481.570995
864.839045	2480.598052
865.151353	2481.376911
865.463619	2482.584267
865.775842	2481.243320
866.088023	2484.235245
866.400162	2479.226859
866.712258	2483.819350
867.024313	2480.643423
867.336325	2482.120481
867.648296	2484.084010
867.960224	2480.877837
868.272110	2481.293732
868.583954	2481.336582
868.895755	2481.424802
869.207515	2486.488641
869.519233	2480.529997
869.830909	2480.522435
870.142542	2484.139463
870.454134	2484.711634
870.765684	2485.815647
871.077191	2483.809268
871.388657	2479.506643
871.700081	2483.426140
872.011463	2482.440594
872.322803	2484.920842
872.634101	2485.677015
872.945357	2485.601398
873.256571	2485.893785
873.567744	2488.651296
873.878874	2486.476038
874.189963	2487.053250
874.501010	2488.260606
874.812015	2487.348157
875.122979	2488.555514
875.433900	2490.047695
875.744780	2487.756491
876.055618	2485.891264
876.366415	2490.677840
876.677169	2490.698004
876.987882	2489.563745
877.298554	2491.945690
877.609183	2495.078767
877.919771	2491.078611
878.230317	2495.015753
878.540822	2496.969200
878.851285	2500.460199
879.161707	2503.815087
879.472087	2512.488392
879.782425	2521.010462
880.092722	2537.762217
880.402977	2569.970148
880.713191	2609.046652
881.023363	2650.603404
881.333494	2682.466017
881.643583	2699.628625
881.953631	2699.058975
882.263637	2693.662420
882.573602	2677.659277
882.883526	2663.274344
883.193408	2644.493526
883.503248	2630.239663
883.813048	2614.254164
884.122806	2600.370827
884.432522	2584.281984
884.742197	2571.580797
885.051831	2559.726524
885.361424	2548.514998
885.670975	2535.977648
885.980485	2529.436751
886.289954	2522.721934
886.599382	2515.871006
886.908768	2511.870850
887.218113	2503.968842
887.527417	2501.831393
887.836680	2495.477018
888.145901	2501.483553
888.455082	2497.435506
888.764221	2497.725373
889.073319	2492.734630
889.382376	2491.428972
889.691392	2492.802686
890.000366	2491.799496
890.309300	2491.340751
890.618193	2491.494507
890.927044	2491.441574
891.235855	2491.522233
891.544625	2494.211688
891.853353	2494.461226
892.162041	2492.215392
892.470687	2495.716473
892.779293	2498.630260
893.087858	2503.978924
893.396381	2507.326250
893.704864	2515.588701
894.013306	2522.608508
894.321707	2540.817156
894.630068	2547.864689
894.938387	2550.455842
895.246665	2551.922818
895.554903	2549.064483
895.863100	2539.604758
896.171256	2534.926567
896.479371	2530.268541
896.787446	2523.266379
897.095480	2519.026768
897.403473	2515.447549
897.711425	2510.585356
898.019336	2506.078565
898.327207	2506.461692
898.635038	2503.623523
898.942827	2502.446413
899.250576	2497.727893
899.558284	2494.574652
899.865952	2494.708242
900.173579	2492.981647
900.481165	2490.118272
900.788711	2489.399907
901.096216	2490.125833
901.403681	2488.129536
901.711105	2487.819505
902.018489	2489.205823
902.325832	2485.742550
902.633135	2486.839001
902.940397	2490.332521
903.247619	2495.741679
903.554800	2517.446367
903.861941	2532.469005
904.169041	2554.781152
904.476101	2564.387071
904.783121	2561.669889
905.090100	2559.295505
905.397039	2548.333516
905.703938	2542.972249
906.010796	2532.587472
906.317614	2524.761081
906.624391	2520.249248
906.931129	2514.429236
907.237826	2511.472599
907.544483	2505.922289
907.851099	2501.165960
908.157675	2496.477687
908.464211	2492.747233
908.770707	2489.636841
909.077163	2485.130050
909.383578	2486.329844
909.689954	2484.278095
909.996289	2479.131077
910.302584	2478.551344
910.608839	2480.114102
910.915054	2480.159472
911.221229	2478.425315
911.527363	2477.467496
911.833458	2476.963381
912.139513	2481.762559
912.445527	2481.941520
912.751502	2482.364977
913.057436	2482.586788
913.363331	2485.699700
913.669186	2486.730616
913.975000	2487.753970
914.280775	2494.660351
914.586510	2499.363748
914.892205	2510.355984
915.197859	2520.680267
915.503475	2533.820034
915.809050	2548.353681
916.114585	2556.394321
916.420081	2564.490414
916.725536	2564.455126
917.030952	2562.136195
917.336328	2558.078067
917.641665	2550.173537
917.946961	2544.073741
918.252218	2540.176929
918.557435	2530.311391
918.862612	2532.393388
919.167750	2523.911646
919.472848	2517.978208
919.777906	2513.017713
920.082925	2511.102074
920.387904	2505.508914
920.692843	2497.130517
920.997743	2496.639004
921.302603	2495.245125
921.607423	2493.281596
921.912204	2490.836636
922.216946	2486.392859
922.521647	2487.736326
922.826310	2486.849083
923.130932	2484.295739
923.435516	2486.317242
923.740059	2483.065697
924.044564	2483.030409
924.349028	2479.920017
924.653454	2478.256437
924.957840	2482.279277
925.262186	2477.706951
925.566493	2478.614358
925.870761	2476.292907
926.174989	2472.592700
926.479178	2474.241157
926.783328	2473.996662
927.087438	2475.889615
927.391509	2474.024388
927.695541	2473.754686
927.999533	2472.020529
928.303486	2473.600931
928.607400	2473.759727
928.911275	2473.069089
929.215110	2471.334932
929.518906	2470.810652
929.822663	2472.166723
930.126381	2471.544140
930.430060	2472.547330
930.733699	2472.348204
931.037299	2471.728142
931.340861	2472.146558
931.644383	2471.506332
931.947866	2471.526496
932.251309	2471.274438
932.554714	2471.685292
932.858080	2470.213276
933.161407	2467.294447
933.464694	2469.084057
933.767943	2467.004581
934.071153	2470.533389
934.374323	2472.741414
934.677455	2470.364510
934.980548	2470.871146
935.283602	2472.217134
935.586617	2472.696044
935.889593	2472.138996
936.192530	2469.918368
936.495428	2472.877525
936.798287	2471.382823
937.101108	2471.826445
937.403890	2473.119501
937.706632	2477.149903
938.009336	2472.043214
938.312002	2473.547999
938.614628	2475.665283
938.917216	2476.592856
939.219765	2476.434059
939.522275	2477.911118
939.824747	2478.616879
940.127179	2477.838021
940.429573	2478.919348
940.731929	2477.497743
941.034246	2476.282825
941.336524	2477.946406
941.638763	2478.669811
941.940964	2477.747280
942.243126	2476.902887
942.545250	2477.437249
942.847335	2476.325675
943.149381	2474.289048
943.451389	2475.554378
943.753359	2476.857516
944.055290	2472.186887
944.357182	2477.192753
944.659036	2474.798205
944.960851	2477.162506
945.262628	2472.254943
945.564367	2475.299800
945.866067	2475.566981
946.167729	2474.205869
946.469352	2470.485498
946.770937	2471.740745
947.072484	2471.828965
947.373992	2473.769810
947.675462	2473.046404
947.976893	2471.561784
948.278286	2465.998871
948.579641	2470.556074
948.880958	2467.382668
949.182236	2472.043214
949.483476	2470.014150
949.784678	2475.042701
950.085841	2471.750828
950.386967	2471.408029
950.688054	2474.268884
950.989103	2474.047073
951.290114	2471.897021
951.591087	2474.384830
951.892021	2474.301651
952.192917	2476.101343
952.493776	2472.375931
952.794596	2474.374748
953.095378	2473.900880
953.396122	2476.764255
953.696828	2474.165540
953.997496	2473.469861
954.298126	2472.791826
954.598718	2475.246868
954.899272	2472.819552
955.199788	2471.224027
955.500266	2474.299131
955.800706	2470.825776
956.101108	2471.322329
956.401472	2471.357618
956.701798	2471.707978
957.002087	2468.277472
957.302337	2468.544654
957.602550	2470.626650
957.902724	2467.417956
958.202861	2468.552215
958.502960	2467.551546
958.803022	2470.704788
959.103045	2466.069447
959.403031	2467.455764
959.702979	2465.666155
960.002889	2466.255970
960.302762	2467.077678
960.602596	2468.751341
960.902393	2465.406535
961.202153	2463.160701
961.501875	2466.434931
961.801559	2465.512400
962.101205	2467.065075
962.400814	2467.087760
962.700385	2464.224385
962.999918	2462.868314
963.299414	2460.355299
963.598873	2463.359827
963.898293	2459.084928
964.197677	2466.341669
964.497022	2464.683130
964.796331	2463.064919
965.095601	2463.949642
965.394835	2464.408387
965.694030	2466.467698
965.993189	2464.695733
966.292309	2467.405353
966.591393	2466.838223
966.890439	2466.954170
967.189447	2463.203551
967.488419	2463.775722
967.787353	2467.145733
968.086249	2463.054837
968.385108	2463.964765
968.683930	2465.958542
968.982714	2464.990640
969.281462	2466.366875
969.580172	2465.383850
969.878844	2464.204220
970.177480	2466.568521
970.476078	2464.173973
970.774639	2464.547019
971.073162	2467.128089
971.371649	2465.242698
971.670098	2468.605147
971.968510	2463.367389
972.266885	2465.784622
972.565223	2466.077009
972.863524	2466.528192
973.161788	2463.412759
973.460014	2466.102215
973.758204	2464.400825
974.056356	2466.815538
974.354471	2467.049952
974.652550	2463.866463
974.950591	2467.359982
975.248595	2465.832513
975.546563	2464.867132
975.844493	2464.587348
976.142386	2465.169601
976.440243	2463.526185
976.738062	2462.780094
977.035845	2464.332770
977.333590	2465.900568
977.631299	2465.431741
977.928971	2461.091308
978.226606	2460.128447
978.524204	2463.939560
978.821765	2457.822119
979.119290	2464.315126
979.416777	2466.545836
979.714228	2466.220682
980.011642	2464.892338
980.309020	2465.764457
980.606360	2465.487194
980.903664	2465.683799
981.200931	2468.058182
981.498162	2467.443162
981.795356	2468.670683
982.092513	2470.430045
982.389633	2472.721250
982.686717	2476.479430
982.983764	2476.053452
983.280775	2476.923051
983.577749	2477.142342
983.874686	2474.117649
984.171587	2477.621251
984.468451	2473.573205
984.765279	2475.428349
985.062070	2474.546147
985.358824	2476.595376
985.655543	2472.275107
985.952224	2471.178657
986.248869	2468.038018
986.545478	2466.376957
986.842050	2467.160857
987.138586	2463.957204
987.435086	2466.621453
987.731549	2465.179683
988.027975	2464.816720
988.324366	2463.271607
988.620719	2464.325208
988.917037	2463.324539
989.213318	2465.114148
989.509563	2463.039714
989.805772	2462.575928
990.101944	2464.274796
990.398080	2463.616926
990.694180	2464.138685
990.990244	2464.761268
991.286271	2462.402008
991.582262	2463.480815
991.878217	2463.871504
992.174136	2463.952162
992.470019	2462.402008
992.765865	2459.405042
993.061676	2461.212295
993.357450	2463.601802
993.653188	2459.899075
993.948890	2462.016359
994.244556	2463.949642
994.540186	2466.850826
994.835780	2466.044241
995.131337	2468.605148
995.426859	2468.038018
995.722345	2467.722946
996.017795	2468.849643
996.313208	2469.845271
996.608586	2470.500621
996.903928	2470.646815
997.199234	2469.404170
997.494504	2471.282000
997.789738	2470.316619
998.084936	2467.969962
998.380099	2469.936012
998.675225	2469.134469
998.970316	2471.057669
999.265371	2468.164047
999.560390	2468.796711
999.855373	2466.596248
1000.150320	2465.341000
1000.445232	2469.739407
1000.740108	2464.610033
1001.034948	2466.102215
1001.329752	2460.738427
1001.624521	2466.271093
1001.919254	2464.168932
1002.213951	2463.087605
1002.508613	2465.202369
1002.803239	2461.900413
1003.097829	2463.314457
1003.392384	2461.905454
1003.686903	2462.197841
1003.981386	2464.040383
1004.275834	2457.630556
1004.570246	2463.372430
1004.864623	2464.559622
1005.158964	2461.950824
1005.453270	2462.580969
1005.747540	2461.330762
1006.041775	2462.089456
1006.335974	2461.978551
1006.630138	2460.713221
1006.924266	2461.066102
1007.218359	2459.372274
1007.512416	2462.583489
1007.806438	2458.870679
1008.100425	2463.478294
1008.394376	2459.939404
1008.688292	2464.267235
1008.982172	2461.348407
1009.276017	2462.412090
1009.569827	2461.776905
1009.863602	2462.608695
1010.157341	2461.550053
1010.451045	2462.099538
1010.744714	2461.605505
1011.038347	2461.071143
1011.331945	2463.127934
1011.625508	2459.836060
1011.919036	2461.751699
1012.212528	2460.695577
1012.505986	2464.063068
1012.799408	2462.268417
1013.092795	2460.998046
1013.386147	2461.247583
1013.679464	2460.597275
1013.972745	2460.093159
1014.265992	2462.742286
1014.559204	2461.653396
1014.852380	2459.974692
1015.145521	2459.047120
1015.438628	2460.458643
1015.731699	2461.683643
1016.024736	2459.518468
1016.317737	2460.753550
1016.610703	2458.747171
1016.903635	2462.563325
1017.196531	2459.704990
1017.489393	2462.165073
1017.782219	2461.000567
1018.075011	2463.742955
1018.367768	2459.926801
1018.660490	2459.258848
1018.953177	2459.258848
1019.245829	2459.258848
