Dividing Wavelength (nm)	Counts (n)	Blue Motor Position (mm): 0.000000	Red Motor Position (mm): 5.000000	
326.493990	2052.921684
326.888308	2052.921684
327.282561	2052.921684
327.676750	2031.441327
328.070874	2032.472243
328.464933	2038.216638
328.858929	2046.620241
329.252859	2057.430996
329.646726	2068.103118
330.040528	2085.142218
330.434265	2103.008068
330.827938	2123.984309
331.221547	2143.957360
331.615091	2162.967552
332.008571	2184.369770
332.401986	2201.139168
332.795338	2223.358054
333.188625	2242.070817
333.581847	2263.586462
333.975006	2279.246806
334.368100	2299.406380
334.761129	2313.690490
335.154095	2330.253201
335.546996	2346.919255
335.939833	2356.441995
336.332606	2372.755169
336.725315	2385.879813
337.117960	2395.432799
337.510540	2402.568553
337.903056	2412.640778
338.295508	2417.986922
338.687896	2426.526636
339.080220	2433.007040
339.472480	2437.045004
339.864676	2437.624737
340.256807	2442.045828
340.648875	2444.463062
341.040879	2445.725871
341.432818	2446.524894
341.824694	2449.395831
342.216506	2449.015224
342.608253	2446.116560
342.999937	2447.820470
343.391557	2447.434822
343.783113	2448.115378
344.174605	2444.768052
344.566033	2441.710592
344.957397	2441.254367
345.348697	2439.220262
345.739934	2436.719849
346.131106	2435.799839
346.522215	2434.552153
346.913260	2434.988213
347.304241	2430.473860
347.695159	2428.233067
348.086012	2429.546288
348.476802	2423.340627
348.867528	2422.420617
349.258191	2419.584967
349.648789	2421.261151
350.039324	2416.832498
350.429796	2420.300811
350.820203	2420.184865
351.210548	2421.578744
351.600828	2415.733526
351.991045	2416.812333
352.381198	2414.412744
352.771288	2413.560789
353.161314	2416.353588
353.551276	2416.648495
353.941175	2417.145049
354.331010	2414.042219
354.720782	2414.102713
355.110490	2417.707138
355.500135	2416.887950
355.889717	2416.656057
356.279235	2415.874678
356.668689	2418.022210
357.058080	2418.075142
357.447408	2419.295101
357.836672	2417.379463
358.225873	2421.349371
358.615010	2421.641758
359.004084	2421.069587
359.393095	2419.020358
359.782043	2419.852149
360.170927	2421.709814
360.559748	2421.306522
360.948505	2424.318611
361.337199	2426.766091
361.725830	2423.328024
362.114398	2424.792479
362.502903	2426.151070
362.891344	2428.064188
363.279722	2426.035124
363.668037	2426.244332
364.056289	2428.044024
364.444478	2425.543611
364.832603	2427.252563
365.220665	2429.145516
365.608665	2429.057296
365.996601	2428.361616
366.384474	2426.718200
366.772284	2428.568304
367.160031	2427.761719
367.547715	2429.150557
367.935336	2429.311874
368.322893	2427.708787
368.710388	2428.318767
369.097820	2429.460588
369.485189	2425.304157
369.872495	2432.235743
370.259738	2432.089550
370.646918	2433.778336
371.034035	2432.855805
371.421090	2431.698860
371.808081	2433.100301
372.195010	2435.262956
372.581875	2435.557863
372.968678	2439.673966
373.355418	2440.004161
373.742096	2441.503904
374.128710	2442.802002
374.515262	2443.371652
374.901751	2446.766869
375.288177	2449.869699
375.674540	2450.908177
376.060841	2456.314814
376.447079	2456.259362
376.833254	2461.345886
377.219367	2464.352934
377.605417	2468.216979
377.991404	2470.241002
378.377329	2474.369707
378.763191	2478.879019
379.148991	2482.173413
379.534727	2488.812613
379.920402	2492.354023
380.306013	2497.027173
380.691563	2502.723677
381.077049	2508.374810
381.462474	2513.292456
381.847835	2516.647344
382.233134	2522.479959
382.618371	2529.466998
383.003545	2533.895652
383.388657	2540.570139
383.773706	2550.571788
384.158693	2553.505740
384.543618	2557.699980
384.928480	2561.916905
385.313280	2573.350242
385.698017	2573.733370
386.082692	2583.803075
386.467305	2586.618559
386.851856	2595.044848
387.236344	2601.220261
387.620770	2603.846702
388.005133	2602.672113
388.389435	2615.945472
388.773674	2613.392127
389.157851	2624.139867
389.541965	2627.318315
389.926018	2626.544497
390.310008	2631.633542
390.693936	2634.476753
391.077802	2633.707977
391.461606	2638.088740
391.845348	2638.184522
392.229027	2636.359624
392.612645	2639.442290
392.996200	2640.536220
393.379694	2642.161992
393.763125	2643.124852
394.146494	2638.134110
394.529801	2638.245016
394.913047	2634.325518
395.296230	2630.088429
395.679351	2621.697428
396.062410	2622.652727
396.445408	2606.498349
396.828343	2606.251333
397.211217	2598.964345
397.594028	2586.421954
397.976778	2583.803075
398.359466	2577.219328
398.742092	2569.821434
399.124656	2559.847512
399.507158	2557.281564
399.889598	2551.406099
400.271977	2544.570295
400.654294	2536.567463
401.036549	2531.664941
401.418742	2525.338293
401.800874	2520.002232
402.182944	2514.071314
402.564952	2517.650533
402.946898	2509.274656
403.328783	2501.171001
403.710606	2500.750065
404.092367	2495.585403
404.474067	2494.274703
404.855705	2487.292705
405.237282	2480.469503
405.618797	2480.489668
406.000250	2478.813484
406.381642	2476.058493
406.762972	2473.409367
407.144240	2467.826289
407.525447	2468.965590
407.906593	2460.143571
408.287677	2468.068265
408.668700	2464.466360
409.049661	2467.458285
409.430560	2463.253963
409.811399	2461.020732
410.192176	2462.270938
410.572891	2460.345217
410.953545	2462.880917
411.334138	2461.449230
411.714669	2459.331945
412.095139	2462.177676
412.475547	2459.425206
412.855894	2456.423199
413.236180	2459.556276
413.616405	2459.919239
413.996568	2458.553087
414.376670	2456.589557
414.756711	2459.977213
415.136691	2457.842284
415.516609	2457.438992
415.896466	2459.286575
416.276262	2458.870679
416.655997	2459.412603
417.035670	2460.287244
417.415283	2458.479990
417.794834	2460.899744
418.174324	2456.077880
418.553753	2458.016204
418.933121	2457.073508
419.312428	2459.029476
419.691674	2458.792542
420.070859	2459.952007
420.449983	2461.915536
420.829045	2459.359671
421.208047	2460.506534
421.586988	2458.268262
421.965867	2459.125258
422.344686	2458.220371
422.723444	2461.613067
423.102141	2460.640124
423.480777	2460.809003
423.859352	2458.961420
424.237866	2460.980402
424.616319	2459.079887
424.994712	2460.146091
425.373044	2458.900926
425.751314	2457.590226
426.129524	2456.418158
426.507673	2457.940587
426.885762	2455.707355
427.263789	2459.715073
427.641756	2459.198354
428.019662	2461.580300
428.397508	2459.750361
428.775292	2461.547532
429.153016	2463.059878
429.530679	2462.185238
429.908282	2462.696915
430.285824	2463.543829
430.663305	2461.461832
431.040726	2464.194138
431.418086	2461.769343
431.795385	2464.723459
432.172624	2463.858901
432.549802	2463.911833
432.926920	2462.260855
433.303977	2460.950155
433.680974	2462.253294
434.057910	2464.773871
434.434786	2464.824282
434.811601	2467.138172
435.188355	2465.610702
435.565050	2463.687502
435.941683	2466.881073
436.318257	2463.899230
436.694770	2461.509723
437.071222	2465.698922
437.447614	2466.603809
437.823946	2464.090794
438.200218	2466.258490
438.576429	2463.531226
438.952580	2464.204220
439.328670	2464.715897
439.704700	2464.610033
440.080670	2464.378140
440.456580	2465.913171
440.832429	2464.146247
441.208218	2465.066257
441.583947	2468.229582
441.959616	2467.478450
442.335224	2468.897534
442.710773	2464.214303
443.086261	2466.802935
443.461689	2467.226392
443.837057	2468.171608
444.212365	2471.990282
444.587612	2465.106587
444.962800	2463.531226
445.337927	2467.470888
445.712995	2462.223047
446.088002	2469.187401
446.462949	2468.627833
446.837837	2467.783439
447.212664	2468.917699
447.587431	2467.271762
447.962139	2469.308388
448.336786	2473.893318
448.711374	2470.273769
449.085901	2470.235961
449.460369	2472.214614
449.834776	2470.319140
450.209124	2468.683285
450.583412	2470.634212
450.957640	2469.865436
451.331808	2470.689665
451.705917	2472.517083
452.079965	2467.629684
452.453954	2471.193780
452.827883	2469.356279
453.201752	2468.922740
453.575562	2474.412557
453.949311	2471.667648
454.323001	2472.398616
454.696632	2473.641260
455.070202	2469.837710
455.443713	2473.051445
455.817164	2472.993472
456.190556	2471.367700
456.563888	2471.894500
456.937160	2473.636219
457.310373	2470.593883
457.683526	2471.576908
458.056619	2472.312916
458.429653	2470.503142
458.802628	2472.834676
459.175542	2471.854171
459.548398	2474.142855
459.921194	2472.880046
460.293930	2474.246199
460.666607	2478.236272
461.039224	2475.756024
461.411782	2472.834676
461.784280	2474.518421
462.156719	2473.333750
462.529099	2474.825931
462.901419	2473.124542
463.273680	2471.284521
463.645882	2469.683954
464.018024	2472.774182
464.390106	2469.200004
464.762130	2476.408854
465.134094	2476.716364
465.505999	2477.638895
465.877845	2478.337095
466.249631	2478.455562
466.621358	2480.580408
466.993026	2479.347846
467.364634	2480.081334
467.736184	2477.701910
468.107674	2478.039667
468.479105	2477.023874
468.850477	2475.720736
469.221790	2478.964719
469.593043	2477.253247
469.964238	2477.084368
470.335373	2477.890953
470.706449	2475.745942
471.077467	2478.082517
471.448425	2478.727784
471.819324	2480.373721
472.190164	2481.263485
472.560945	2476.318113
472.931667	2477.338947
473.302330	2475.619913
473.672934	2476.764255
474.043479	2476.212249
474.413965	2475.135962
474.784393	2475.057824
475.154761	2479.892291
475.525070	2477.966570
475.895321	2477.217959
476.265513	2475.294759
476.635645	2477.815336
477.005719	2475.161168
477.375734	2477.724595
477.745691	2479.352888
478.115588	2479.252064
478.485427	2481.134935
478.855207	2478.140490
479.224928	2481.432363
479.594591	2482.450677
479.964194	2479.557054
480.333739	2480.741725
480.703226	2481.366828
481.072653	2482.501088
481.442022	2482.291880
481.811333	2479.332723
482.180584	2476.176961
482.549777	2479.713330
482.918912	2476.192084
483.287988	2479.738536
483.657005	2478.364821
484.025964	2481.626448
484.394864	2479.914976
484.763706	2481.034112
485.132489	2476.880202
485.501213	2482.198619
485.869879	2482.107878
486.238487	2480.371201
486.607036	2480.986221
486.975527	2480.472024
487.343959	2478.717702
487.712333	2481.185347
488.080648	2483.317755
488.448905	2480.414050
488.817104	2483.398413
489.185244	2481.719709
489.553326	2482.811119
489.921350	2483.153918
490.289315	2484.308342
490.657222	2482.574185
491.025070	2484.487303
491.392861	2484.086531
491.760593	2481.253402
492.128267	2483.272385
492.495883	2482.924545
492.863440	2482.851448
493.230939	2482.876654
493.598380	2484.673825
493.965763	2479.022692
494.333088	2482.453197
494.700354	2480.683752
495.067563	2481.550831
495.434713	2480.928248
495.801805	2481.828094
496.168839	2486.128198
496.535815	2482.256592
496.902733	2481.084524
497.269593	2482.062508
497.636395	2481.742394
498.003139	2484.081490
498.369825	2480.880357
498.736453	2479.839359
499.103023	2481.238279
499.469535	2484.305821
499.835989	2482.007055
500.202385	2480.383803
500.568723	2475.652681
500.935003	2478.276601
501.301226	2476.776858
501.667390	2483.645430
502.033497	2481.439925
502.399546	2483.877323
502.765537	2480.945892
503.131470	2479.851962
503.497345	2483.194247
503.863163	2480.933289
504.228923	2483.302632
504.594625	2482.619555
504.960269	2482.977477
505.325856	2479.816674
505.691385	2483.741212
506.056856	2479.136118
506.422270	2483.940337
506.787625	2484.358753
507.152924	2481.891108
507.518164	2482.312045
507.883347	2482.319607
508.248472	2481.833135
508.613540	2483.627786
508.978550	2483.826912
509.343503	2481.581077
509.708398	2483.592498
510.073236	2480.915645
510.438016	2485.533342
510.802738	2481.651654
511.167403	2482.748105
511.532010	2481.772641
511.896561	2486.264309
512.261053	2485.447643
512.625488	2483.070738
512.989866	2483.617704
513.354186	2485.145173
513.718449	2485.004021
514.082655	2483.584936
514.446803	2482.017137
514.810894	2482.997642
515.174927	2484.202477
515.538904	2485.051912
515.902822	2483.572333
516.266684	2484.141984
516.630488	2483.100985
516.994235	2483.509319
517.357925	2483.600060
517.721558	2482.143166
518.085133	2481.339102
518.448651	2481.850779
518.812112	2480.676190
519.175516	2480.603094
519.538863	2480.696355
519.902152	2481.477734
520.265385	2483.436222
520.628560	2483.839514
520.991678	2485.263640
521.354739	2484.149545
521.717743	2487.605256
522.080690	2480.487147
522.443580	2484.439412
522.806413	2484.033599
523.169189	2483.108547
523.531908	2484.315903
523.894569	2485.833291
524.257174	2488.106851
524.619722	2484.013434
524.982213	2483.743733
525.344647	2482.947230
525.707025	2485.606439
526.069345	2483.617704
526.431608	2485.379587
526.793815	2484.386480
527.155964	2484.215080
527.518057	2484.678867
527.880093	2484.910760
528.242072	2483.232055
528.603995	2485.734988
528.965860	2482.979998
529.327669	2483.915132
529.689421	2482.153248
530.051117	2485.951758
530.412755	2485.366984
530.774337	2483.587457
531.135862	2481.472693
531.497331	2483.698362
531.858743	2483.020327
532.220098	2482.488485
532.581396	2483.403455
532.942638	2482.705255
533.303824	2485.588795
533.664953	2486.634834
534.026025	2485.929073
534.387040	2483.763897
534.747999	2484.799854
535.108902	2481.666777
535.469748	2483.000162
535.830537	2483.070738
536.191270	2483.186685
536.551947	2482.175934
536.912567	2478.785758
537.273131	2482.019658
537.633638	2476.791981
537.994089	2482.216263
538.354483	2482.138125
538.714821	2484.898157
539.075103	2483.537045
539.435328	2482.682570
539.795497	2487.201964
540.155609	2485.624083
540.515665	2484.323465
540.875665	2482.755666
541.235609	2486.266830
541.595496	2485.248517
541.955328	2485.992087
542.315102	2484.240286
542.674821	2481.402117
543.034483	2485.714824
543.394090	2483.204329
543.753640	2485.702221
544.113134	2485.397231
544.472571	2482.004534
544.831953	2485.379587
545.191278	2483.945379
545.550548	2484.517550
545.909761	2484.988897
546.268918	2481.828094
546.628019	2484.356233
546.987064	2485.883702
547.346053	2485.964361
547.704986	2482.072590
548.063863	2486.513847
548.422684	2483.400934
548.781449	2481.800368
549.140158	2484.278095
549.498811	2481.737353
549.857408	2484.860348
550.215949	2484.220122
550.574434	2483.857158
550.932864	2485.929073
551.291237	2486.360091
551.649555	2484.628455
552.007817	2485.354381
552.366022	2484.613332
552.724173	2483.836994
553.082267	2483.131232
553.440305	2486.163486
553.798288	2488.421923
554.156215	2485.979484
554.514086	2480.227528
554.871902	2480.300624
555.229661	2481.888588
555.587365	2477.646457
555.945014	2485.944196
556.302606	2484.278095
556.660143	2479.854482
557.017625	2485.432519
557.375050	2484.522591
557.732421	2483.201808
558.089735	2485.165338
558.446994	2485.009062
558.804197	2485.878661
559.161345	2484.772128
559.518437	2485.107365
559.875474	2483.010245
560.232455	2486.213898
560.589381	2483.579895
560.946251	2484.865389
561.303065	2486.566779
561.659825	2485.281284
562.016528	2486.463435
562.373177	2486.672643
562.729770	2486.392859
563.086307	2482.543938
563.442789	2487.103662
563.799216	2489.546101
564.155587	2485.122488
564.511904	2486.705410
564.868164	2486.027375
565.224370	2485.442601
565.580520	2488.288333
565.936615	2485.213229
566.292654	2483.990749
566.648638	2488.268168
567.004567	2487.189361
567.360441	2485.916470
567.716260	2486.286995
568.072023	2485.445122
568.427732	2485.757673
568.783385	2484.250368
569.138982	2486.256748
569.494525	2483.698362
569.850013	2486.881851
570.205445	2486.740698
570.560823	2486.793631
570.916145	2483.955461
571.271412	2486.370174
571.626625	2484.126860
571.981782	2487.131388
572.336884	2480.469503
572.691931	2480.877837
573.046923	2480.542600
573.401860	2479.093268
573.756743	2485.245996
574.111570	2484.078969
574.466342	2482.228866
574.821059	2483.060656
575.175722	2483.312714
575.530330	2486.176089
575.884882	2487.935452
576.239380	2481.369349
576.593823	2486.750781
576.948211	2484.532673
577.302544	2485.140132
577.656823	2483.640389
578.011047	2485.561068
578.365216	2484.693990
578.719330	2483.794144
579.073389	2483.199288
579.427394	2485.117447
579.781344	2482.964874
580.135239	2484.711634
580.489080	2484.207519
580.842866	2483.756335
581.196597	2486.775987
581.550273	2483.441263
581.903895	2483.476551
582.257463	2485.903867
582.610975	2484.731799
582.964434	2485.767756
583.317837	2483.191726
583.671186	2486.972592
584.024481	2483.738691
584.377721	2484.825060
584.730906	2483.423619
585.084037	2483.151397
585.437113	2484.406644
585.790135	2485.979484
586.143103	2484.298259
586.496016	2486.430667
586.848874	2482.821201
587.201679	2486.372694
587.554428	2486.163486
587.907124	2486.453353
588.259765	2485.130050
588.612352	2486.080307
588.964884	2482.967395
589.317362	2484.210039
589.669786	2485.654330
590.022155	2481.573516
590.374470	2483.161479
590.726731	2482.554020
591.078937	2481.134935
591.431090	2482.301962
591.783188	2483.048053
592.135232	2485.913949
592.487222	2486.599546
592.839157	2484.736840
593.191038	2483.791623
593.542866	2484.446973
593.894639	2484.898157
594.246358	2485.472848
594.598022	2480.734164
594.949633	2481.787765
595.301190	2484.008393
595.652692	2484.288177
596.004141	2483.743733
596.355535	2484.106696
596.706876	2483.814309
597.058162	2480.779534
597.409395	2482.569144
597.760573	2485.498054
598.111698	2481.780203
598.462768	2482.208701
598.813785	2481.946561
599.164748	2485.593836
599.515657	2485.661892
599.866511	2483.826912
600.217312	2480.139308
600.568060	2483.479072
600.918753	2487.844711
601.269392	2481.381952
601.619978	2484.492344
601.970510	2483.879844
602.320988	2482.281798
602.671412	2484.240286
603.021783	2483.032930
603.372100	2482.455718
603.722363	2483.917652
604.072572	2483.405975
604.422728	2483.640389
604.772830	2484.159628
605.122878	2480.126705
605.472872	2482.632158
605.822813	2480.945892
606.172701	2482.276757
606.522534	2484.499906
606.872314	2486.113075
607.222041	2482.974957
607.571714	2480.988742
607.921333	2480.635861
608.270899	2480.161993
608.620411	2478.432877
608.969870	2482.937148
609.319276	2482.032261
609.668627	2482.911942
610.017926	2482.705255
610.367171	2487.511995
610.716362	2482.077631
611.065500	2483.733650
611.414585	2480.807260
611.763616	2483.484113
612.112594	2483.529483
612.461518	2484.426809
612.810389	2482.352374
613.159207	2484.391521
613.507971	2484.086531
613.856682	2485.200626
614.205340	2481.122333
614.553945	2484.386480
614.902496	2484.988897
615.250994	2484.968733
615.599439	2482.700214
615.947830	2483.443784
616.296169	2482.899339
616.644454	2483.965543
616.992686	2481.124853
617.340864	2484.141984
617.688990	2483.741212
618.037063	2482.117960
618.385082	2482.463279
618.733048	2485.419916
619.080961	2483.897488
619.428821	2481.578557
619.776628	2485.815647
620.124382	2482.707775
620.472083	2483.829432
620.819731	2482.007055
621.167326	2484.615852
621.514868	2482.415388
621.862357	2484.187354
622.209793	2482.896819
622.557176	2484.628455
622.904506	2480.898001
623.251783	2481.757518
623.599007	2483.012765
623.946179	2481.883547
624.293297	2482.707775
624.640363	2482.763228
624.987376	2478.863896
625.334336	2479.025212
625.681243	2479.254585
626.028097	2480.943372
626.374899	2482.813640
626.721647	2480.847590
627.068343	2482.417909
627.414987	2478.047229
627.761577	2482.143166
628.108115	2480.991263
628.454600	2480.048567
628.801032	2479.438587
629.147412	2483.582416
629.493739	2480.865234
629.840014	2483.463948
630.186236	2481.896150
630.532405	2480.829946
630.878521	2479.340285
631.224585	2482.896819
631.570597	2481.288691
631.916556	2481.258444
632.262462	2482.488485
632.608316	2482.107878
632.954117	2481.172744
633.299866	2481.986890
633.645562	2478.460603
633.991206	2481.742394
634.336797	2482.430512
634.682336	2481.228197
635.027823	2481.883547
635.373257	2479.617548
635.718639	2480.499750
636.063968	2478.160655
636.409245	2481.928917
636.754470	2481.790285
637.099642	2481.432363
637.444762	2480.421612
637.789829	2480.295583
638.134845	2480.923207
638.479808	2480.509832
638.824719	2482.548979
639.169577	2482.864051
639.514383	2482.201139
639.859137	2483.206850
640.203839	2479.494040
640.548489	2480.051087
640.893086	2479.972949
641.237632	2481.208032
641.582125	2483.544607
641.926566	2480.721561
642.270955	2478.563947
642.615292	2477.903556
642.959576	2482.586788
643.303809	2473.737042
643.647990	2481.399596
643.992118	2480.376242
644.336195	2480.086375
644.680219	2478.972280
645.024192	2481.744915
645.368112	2479.393217
645.711981	2483.705924
646.055797	2480.270377
646.399562	2482.717858
646.743274	2482.485965
647.086935	2481.318938
647.430544	2480.436736
647.774101	2480.139307
648.117606	2480.572847
648.461059	2479.846921
648.804460	2482.112919
649.147810	2481.094606
649.491108	2481.631489
649.834354	2480.976139
650.177548	2481.346664
650.520690	2480.761890
650.863781	2480.497229
651.206820	2481.636530
651.549807	2481.434884
651.892742	2478.979842
652.235626	2482.039823
652.578458	2481.127374
652.921238	2483.108547
653.263967	2479.042857
653.606644	2477.835500
653.949269	2478.838690
654.291843	2478.442959
654.634365	2480.051087
654.976836	2478.243834
655.319255	2480.653505
655.661622	2479.814153
656.003938	2477.248206
656.346203	2482.054946
656.688416	2479.821715
657.030577	2481.583598
657.372687	2480.895481
657.714746	2477.752321
658.056753	2478.163175
658.398708	2478.261478
658.740612	2481.228197
659.082465	2479.529328
659.424266	2478.775675
659.766016	2476.068576
660.107715	2474.662094
660.449362	2473.830303
660.790958	2479.720892
661.132503	2476.537403
661.473996	2480.862713
661.815438	2479.980511
662.156829	2480.587970
662.498168	2477.853144
662.839456	2478.339616
663.180693	2480.550162
663.521879	2480.456900
663.863013	2480.081334
664.204097	2481.868423
664.545129	2477.399440
664.886110	2478.931951
665.227040	2479.569657
665.567918	2479.428505
665.908746	2480.366159
666.249522	2477.149903
666.590248	2477.258288
666.930922	2478.498412
667.271545	2479.443628
667.612118	2480.038484
667.952639	2478.342136
668.293109	2478.087558
668.633528	2481.719709
668.973896	2479.703248
669.314213	2479.000007
669.654480	2479.115953
669.994695	2478.755511
670.334859	2479.373052
670.674973	2477.759883
671.015035	2480.971098
671.355047	2478.516056
671.695008	2481.414719
672.034918	2479.448669
672.374777	2479.824235
672.714585	2478.160655
673.054342	2479.151241
673.394049	2478.117805
673.733705	2478.594194
674.073310	2481.434884
674.412864	2480.275419
674.752368	2477.601087
675.091820	2479.554534
675.431223	2478.412712
675.770574	2479.284832
676.109875	2477.245685
676.449125	2478.014461
676.788324	2474.082361
677.127473	2478.319451
677.466571	2471.939871
677.805619	2478.448000
678.144616	2477.964050
678.483562	2479.221818
678.822458	2477.631333
679.161303	2481.770121
679.500098	2479.088227
679.838842	2478.899184
680.177535	2479.564616
680.516179	2477.565798
680.854771	2478.405151
681.193314	2479.027733
681.531805	2476.638226
681.870247	2479.667960
682.208638	2478.029585
682.546978	2478.735346
682.885268	2478.400109
683.223508	2478.004379
683.561697	2479.103350
683.899836	2479.723412
684.237925	2479.042857
684.575963	2478.034626
684.913951	2478.402630
685.251889	2477.409523
685.589776	2479.418423
685.927614	2481.349184
686.265401	2479.718371
686.603137	2478.049749
686.940824	2480.381283
687.278460	2481.475213
687.616046	2477.825418
687.953582	2480.227528
688.291068	2478.800881
688.628504	2479.221817
688.965889	2480.892960
689.303224	2478.531179
689.640510	2479.420943
689.977745	2477.918679
690.314930	2477.407002
690.652065	2478.548823
690.989150	2478.130408
691.326185	2480.613176
691.663170	2478.054790
692.000105	2475.624954
692.336990	2478.851293
692.673825	2478.775675
693.010610	2477.159986
693.347345	2475.884574
693.684030	2471.259315
694.020665	2477.165027
694.357251	2472.564974
694.693786	2476.912969
695.030272	2478.964719
695.366707	2476.660911
695.703093	2478.450521
696.039429	2477.500263
696.375716	2477.419605
696.711952	2476.847434
697.048139	2477.507825
697.384276	2476.940695
697.720363	2475.004892
698.056400	2477.626292
698.392388	2477.848103
698.728326	2475.624954
699.064214	2478.135449
699.400053	2479.254585
699.735842	2478.047229
700.071581	2476.935654
700.407270	2477.280973
700.742910	2478.016982
701.078501	2476.149234
701.414042	2476.920531
701.749533	2477.749801
702.084974	2475.914821
702.420366	2475.312403
702.755709	2474.578915
703.091002	2477.470017
703.426246	2476.061014
703.761440	2478.178299
704.096584	2475.206538
704.431679	2476.217290
704.766725	2475.287197
705.101721	2474.079841
705.436668	2479.131077
705.771565	2475.761065
706.106413	2476.371045
706.441212	2476.955819
706.775961	2477.948926
707.110661	2475.934985
707.445311	2477.056642
707.779913	2476.378607
708.114465	2477.832980
708.448967	2477.616210
708.783421	2478.369863
709.117825	2476.260140
709.452180	2477.558237
709.786485	2476.124028
710.120742	2475.816518
710.454949	2473.444655
710.789107	2475.360294
711.123216	2471.571867
711.457275	2477.666622
711.791286	2479.304997
712.125247	2476.247537
712.459159	2476.227372
712.793023	2476.093782
713.126837	2478.266519
713.460602	2476.055973
713.794318	2475.319964
714.127985	2474.944398
714.461602	2474.735191
714.795171	2477.560757
715.128691	2476.000520
715.462162	2477.033957
715.795584	2474.359625
716.128957	2475.750983
716.462281	2475.695530
716.795556	2475.350211
717.128782	2472.995993
717.461960	2475.695530
717.795088	2474.793164
718.128167	2476.000520
718.461198	2476.613020
718.794180	2477.654019
719.127113	2475.214100
719.459997	2474.130252
719.792833	2474.563791
720.125619	2475.090592
720.458357	2475.037660
720.791046	2474.339460
721.123686	2475.375417
721.456278	2475.685448
721.788821	2474.934316
722.121315	2475.451034
722.453761	2472.501959
722.786158	2474.843575
723.118506	2473.230406
723.450805	2475.587146
723.783056	2476.474389
724.115259	2476.166878
724.447412	2474.825931
724.779518	2474.183184
725.111574	2475.587146
725.443582	2476.461786
725.775542	2473.542958
726.107453	2474.649491
726.439315	2476.255098
726.771129	2474.442804
727.102895	2471.879377
727.434612	2471.730663
727.766281	2472.993472
728.097901	2475.183853
728.429473	2475.395582
728.760996	2476.726446
729.092471	2475.251909
729.423897	2476.058493
729.755276	2472.915334
730.086606	2474.500777
730.417887	2472.315437
730.749120	2475.539255
731.080305	2474.563791
731.411442	2473.575725
731.742530	2474.888946
732.073570	2476.781899
732.404562	2475.035139
732.735506	2474.654532
733.066401	2476.063535
733.397249	2474.974645
733.728048	2473.719398
734.058798	2475.995479
734.389501	2474.271404
734.720156	2475.597228
735.050762	2475.229224
735.381320	2477.457414
735.711831	2472.459110
736.042293	2476.081179
736.372707	2477.200315
736.703073	2475.642598
737.033391	2475.272073
737.363661	2475.156127
737.693883	2474.694861
738.024056	2477.044039
738.354182	2475.839203
738.684260	2474.369707
739.014290	2472.882567
739.344272	2474.793164
739.674207	2473.943729
740.004093	2475.219141
740.333931	2475.990438
740.663722	2475.236785
740.993464	2474.039511
741.323159	2476.524800
741.652806	2477.059163
741.982405	2474.064717
742.311956	2479.068062
742.641460	2475.458596
742.970915	2473.046404
743.300323	2474.117649
743.629683	2471.153451
743.958996	2472.386013
744.288260	2471.937350
744.617477	2472.895169
744.946647	2473.795015
745.275768	2473.666466
745.604842	2474.871302
745.933869	2476.297948
746.262847	2473.777371
746.591778	2474.347022
746.920662	2475.808956
747.249498	2471.917186
747.578286	2474.780561
747.907027	2473.757207
748.235720	2475.967753
748.564365	2474.132773
748.892963	2476.116467
749.221514	2475.740901
749.550017	2474.992289
749.878473	2475.319964
750.206881	2473.406847
750.535242	2475.992958
750.863555	2475.176292
751.191821	2475.493884
751.520039	2473.500108
751.848210	2475.012454
752.176334	2475.118318
752.504411	2474.102526
752.832440	2472.736373
753.160421	2476.282825
753.488356	2473.739563
753.816243	2474.798205
754.144082	2472.035653
754.471875	2472.882567
754.799620	2472.035653
755.127318	2474.243678
755.454969	2472.945581
755.782572	2476.973463
756.110129	2472.343163
756.437638	2476.613020
756.765100	2474.639409
757.092515	2473.411888
757.419882	2470.488018
757.747203	2476.171919
758.074477	2475.244347
758.401703	2473.159830
758.728882	2473.157309
759.056014	2475.768627
759.383099	2472.708647
759.710138	2474.583956
760.037129	2471.261836
760.364073	2472.136476
760.690970	2470.235961
761.017820	2475.544296
761.344623	2473.641260
761.671379	2472.655715
761.998088	2473.482464
762.324751	2477.379276
762.651366	2475.173771
762.977935	2475.395582
763.304456	2475.403143
763.630931	2474.452886
763.957359	2476.093782
764.283740	2477.217959
764.610074	2477.696868
764.936362	2472.524645
765.262602	2474.059676
765.588796	2476.512197
765.914943	2474.248719
766.241044	2474.122690
766.567097	2472.411219
766.893104	2472.060858
767.219064	2474.757876
767.544978	2472.869964
767.870845	2473.661425
768.196665	2472.446507
768.522438	2472.920375
768.848165	2474.309213
769.173846	2473.442135
769.499479	2471.957515
769.825066	2476.761734
770.150607	2472.668317
770.476101	2472.721250
770.801548	2473.512711
771.126949	2471.307206
771.452303	2474.435242
771.777611	2473.757207
772.102872	2473.754686
772.428087	2471.468523
772.753256	2472.882567
773.078378	2471.597072
773.403453	2470.908955
773.728482	2472.517083
774.053465	2473.275777
774.378401	2469.217648
774.703291	2473.719398
775.028135	2471.529017
775.352932	2472.794346
775.677683	2471.879377
776.002388	2471.216465
776.327046	2466.276134
776.651658	2472.166723
776.976224	2466.150106
777.300743	2471.644963
777.625216	2471.690334
777.949643	2472.441466
778.274024	2473.679069
778.598359	2471.748307
778.922647	2473.777371
779.246889	2474.412557
779.571086	2472.804429
779.895236	2470.787967
780.219339	2472.398616
780.543397	2472.252422
780.867409	2472.809470
781.191374	2474.757876
781.515294	2471.720581
781.839167	2474.029429
782.162995	2473.071610
782.486776	2472.960704
782.810511	2471.743266
783.134201	2470.160343
783.457844	2471.954994
783.781441	2472.086064
784.104993	2472.262505
784.428498	2472.005406
784.751958	2469.915848
785.075372	2473.220324
785.398739	2473.122021
785.722061	2473.963894
786.045337	2472.171764
786.368568	2471.468523
786.691752	2474.810808
787.014891	2474.112608
787.337983	2469.482308
787.661030	2474.775520
787.984031	2472.988431
788.306987	2473.255612
788.629897	2472.501959
788.952760	2472.917855
789.275579	2472.209573
789.598351	2472.282669
789.921078	2472.527165
790.243759	2472.421301
790.566395	2475.158648
790.888984	2469.842751
791.211529	2470.140179
791.534027	2474.178143
791.856480	2471.730663
792.178888	2469.570528
792.501249	2468.055662
792.823566	2467.881742
793.145836	2465.925774
793.468062	2470.392237
793.790241	2467.826289
794.112375	2471.854171
794.434464	2470.442648
794.756507	2476.118987
795.078505	2472.161682
795.400457	2472.043214
795.722364	2470.558595
796.044226	2472.091105
796.366042	2471.085395
796.687812	2473.706795
797.009538	2470.646815
797.331218	2471.692854
797.652852	2470.460292
797.974442	2470.969449
798.295986	2473.328709
798.617484	2473.011116
798.938938	2470.782926
799.260346	2471.002216
799.581709	2473.555561
799.903026	2472.627988
800.224299	2473.401805
800.545526	2471.261836
800.866708	2473.638740
801.187845	2472.207052
801.508936	2474.566312
801.829983	2471.173615
802.150984	2470.417442
802.471940	2470.026753
802.792851	2471.844089
803.113717	2470.861064
803.434538	2468.950467
803.755314	2471.912144
804.076045	2470.288893
804.396731	2471.886939
804.717372	2470.372072
805.037967	2471.168574
805.358518	2469.406691
805.679024	2470.971969
805.999485	2473.739563
806.319901	2472.068420
806.640272	2471.511373
806.960598	2472.660756
807.280879	2470.729994
807.601115	2472.338122
807.921306	2471.503811
808.241453	2470.528348
808.561554	2469.860395
808.881611	2469.131948
809.201623	2467.604478
809.521590	2471.312247
809.841513	2469.338635
810.161390	2470.402319
810.481223	2470.213276
810.801011	2469.421814
811.120755	2471.176136
811.440453	2472.834676
811.760107	2471.786116
812.079716	2472.688482
812.399281	2472.544809
812.718801	2472.202011
813.038276	2468.980713
813.357707	2472.222175
813.677093	2467.846454
813.996434	2473.487505
814.315731	2472.849799
814.634983	2470.528348
814.954191	2470.919037
815.273354	2470.180508
815.592473	2471.448358
815.911547	2471.670169
816.230577	2472.171764
816.549562	2471.486167
816.868502	2470.815693
817.187399	2472.141517
817.506250	2469.802422
817.825058	2471.438276
818.143821	2469.915848
818.462539	2472.217134
818.781213	2471.687813
819.099843	2473.991620
819.418429	2471.029942
819.736970	2473.847947
820.055466	2472.204531
820.373919	2473.154789
820.692327	2470.190590
821.010691	2473.159830
821.329011	2478.203504
821.647286	2477.152424
821.965517	2481.762559
822.283704	2482.493526
822.601847	2487.086018
822.919945	2483.156438
823.237999	2483.317755
823.556010	2479.942702
823.873976	2478.652167
824.191897	2476.285345
824.509775	2471.450879
824.827609	2472.859881
825.145398	2469.820066
825.463144	2475.130921
825.780845	2474.321816
826.098502	2475.168730
826.416116	2473.555561
826.733685	2474.457927
827.051210	2478.374904
827.368692	2477.396920
827.686129	2474.997331
828.003522	2474.750314
828.320872	2474.473051
828.638177	2472.474233
828.955439	2472.370889
829.272656	2470.482977
829.589830	2473.363997
829.906960	2471.559264
830.224046	2471.453399
830.541088	2469.389047
830.858086	2472.441466
831.175041	2473.946250
831.491952	2472.456589
831.808819	2472.630509
832.125642	2469.356279
832.442421	2472.368369
832.759157	2471.178657
833.075849	2472.383492
833.392497	2472.496918
833.709101	2472.161682
834.025662	2469.928450
834.342179	2472.675879
834.658653	2469.772175
834.975083	2471.753348
835.291469	2473.336270
835.607811	2470.787967
835.924110	2472.156640
836.240366	2469.618419
836.556578	2469.648666
836.872746	2471.163533
837.188871	2472.305354
837.504952	2470.051959
837.820990	2469.686475
838.136984	2469.502473
838.452935	2473.863071
838.768842	2470.293934
839.084706	2470.364510
839.400526	2472.350725
839.716303	2472.196970
840.032037	2470.712350
840.347727	2468.000209
840.663373	2467.503655
840.978977	2465.976186
841.294537	2471.009778
841.610054	2470.235961
841.925527	2473.043883
842.240957	2470.704788
842.556344	2467.420476
842.871687	2470.220837
843.186987	2469.210086
843.502244	2468.153964
843.817458	2470.024232
844.132629	2470.664459
844.447756	2470.180508
844.762840	2468.416104
845.077881	2472.731332
845.392879	2471.823924
845.707833	2471.992803
846.022745	2467.251598
846.337613	2470.296455
846.652438	2471.705457
846.967221	2470.044397
847.281960	2470.160343
847.596656	2467.528861
847.911309	2466.296299
848.225919	2471.879377
848.540485	2469.288224
848.855009	2470.089767
849.169490	2468.403501
849.483928	2469.764613
849.798323	2469.051290
850.112675	2471.720581
850.426984	2470.782926
850.741251	2470.649335
851.055474	2466.906279
851.369654	2469.126907
851.683792	2467.619602
851.997887	2469.424335
852.311938	2468.794191
852.625947	2469.956177
852.939914	2467.634725
853.253837	2472.968266
853.567718	2469.126907
853.881555	2468.214458
854.195350	2469.343677
854.509103	2465.933336
854.822812	2469.941053
855.136479	2469.066413
855.450103	2468.824438
855.763685	2467.002061
856.077224	2465.787142
856.390720	2465.590538
856.704173	2466.923923
857.017584	2468.511886
857.330953	2469.822586
857.644278	2469.711681
857.957561	2470.609006
858.270802	2468.201855
858.584000	2468.138841
858.897155	2468.766464
859.210268	2470.533389
859.523339	2468.826958
859.836367	2469.268059
860.149352	2469.605817
860.462295	2469.053810
860.775195	2468.642956
861.088054	2468.829479
861.400869	2469.809983
861.713642	2468.196814
862.026373	2470.593883
862.339062	2467.985086
862.651708	2470.639253
862.964312	2468.327884
863.276873	2471.095477
863.589392	2467.843933
863.901869	2468.549695
864.214303	2467.647328
864.526696	2469.086578
864.839045	2470.770323
865.151353	2469.663790
865.463619	2467.155816
865.775842	2466.815538
866.088023	2471.110601
866.400162	2469.956177
866.712258	2471.090436
867.024313	2468.844602
867.336325	2466.631536
867.648296	2468.980713
867.960224	2469.681434
868.272110	2469.565487
868.583954	2469.593214
868.895755	2468.940384
869.207515	2472.645632
869.519233	2467.859057
869.830909	2469.603296
870.142542	2469.449541
870.454134	2467.294447
870.765684	2470.609006
871.077191	2468.285034
871.388657	2468.015332
871.700081	2464.607512
872.011463	2466.661783
872.322803	2465.648511
872.634101	2468.413584
872.945357	2471.234109
873.256571	2466.346711
873.567744	2468.274952
873.878874	2469.976341
874.189963	2468.761423
874.501010	2468.534571
874.812015	2467.150775
875.122979	2472.146558
875.433900	2469.860395
875.744780	2466.243367
876.055618	2469.570528
876.366415	2466.954170
876.677169	2469.865436
876.987882	2468.259828
877.298554	2468.426187
877.609183	2470.253605
877.919771	2466.893676
878.230317	2467.659931
878.540822	2468.806794
878.851285	2469.631022
879.161707	2470.666979
879.472087	2467.861577
879.782425	2470.689665
880.092722	2468.343007
880.402977	2472.023050
880.713191	2471.302165
881.023363	2473.452217
881.333494	2475.355253
881.643583	2474.352063
881.953631	2477.916159
882.263637	2471.657566
882.573602	2476.018164
882.883526	2472.383492
883.193408	2473.313585
883.503248	2474.926754
883.813048	2473.386682
884.122806	2471.834007
884.432522	2472.383492
884.742197	2470.377113
885.051831	2470.377113
885.361424	2468.431228
885.670975	2468.970631
885.980485	2467.717904
886.289954	2472.945581
886.599382	2469.368882
886.908768	2467.392750
887.218113	2466.094653
887.527417	2467.168419
887.836680	2462.797738
888.145901	2470.074644
888.455082	2466.954170
888.764221	2471.060189
889.073319	2466.502986
889.382376	2468.907617
889.691392	2468.458954
890.000366	2467.899386
890.309300	2468.116156
890.618193	2472.000365
890.927044	2470.036835
891.235855	2467.480970
891.544625	2470.281331
891.853353	2467.609520
892.162041	2467.281845
892.470687	2470.669500
892.779293	2467.178501
893.087858	2469.578090
893.396381	2469.232771
893.704864	2468.232102
894.013306	2469.872998
894.321707	2471.145889
894.630068	2471.670169
894.938387	2471.559264
895.246665	2469.668831
895.554903	2472.922896
895.863100	2470.631691
896.171256	2466.689509
896.479371	2466.979375
896.787446	2469.610858
897.095480	2470.790488
897.403473	2472.658235
897.711425	2469.404170
898.019336	2468.663121
898.327207	2467.342338
898.635038	2469.235292
898.942827	2469.205045
899.250576	2466.203038
899.558284	2468.433748
899.865952	2466.255970
900.173579	2466.475260
900.481165	2467.286886
900.788711	2464.113479
901.096216	2469.134469
901.403681	2470.114973
901.711105	2468.151444
902.018489	2467.871660
902.325832	2465.419138
902.633135	2461.882769
902.940397	2465.789663
903.247619	2464.020218
903.554800	2470.450210
903.861941	2468.408543
904.169041	2469.351238
904.476101	2470.906434
904.783121	2469.242853
905.090100	2471.907103
905.397039	2469.361321
905.703938	2470.757720
906.010796	2469.222689
906.317614	2467.549026
906.624391	2469.726804
906.931129	2468.043059
907.237826	2467.833851
907.544483	2464.907461
907.851099	2468.368213
908.157675	2466.500466
908.464211	2468.718573
908.770707	2466.578604
909.077163	2468.831999
909.383578	2468.766464
909.689954	2469.389047
909.996289	2465.706484
910.302584	2468.161526
910.608839	2465.504838
910.915054	2467.632205
911.221229	2469.310909
911.527363	2469.038687
911.833458	2466.465178
912.139513	2470.057000
912.445527	2467.027266
912.751502	2466.508027
913.057436	2466.669344
913.363331	2469.562967
913.669186	2467.478450
913.975000	2469.104222
914.280775	2466.959211
914.586510	2468.504324
914.892205	2467.662452
915.197859	2466.001392
915.503475	2468.844602
915.809050	2469.114304
916.114585	2468.574901
916.420081	2467.798563
916.725536	2469.706640
917.030952	2469.696557
917.336328	2465.615743
917.641665	2469.071454
917.946961	2464.322687
918.252218	2466.989458
918.557435	2462.611216
918.862612	2468.164047
919.167750	2467.468367
919.472848	2472.018009
919.777906	2467.024746
920.082925	2465.895527
920.387904	2467.712863
920.692843	2467.503655
920.997743	2468.837041
921.302603	2468.867287
921.607423	2467.296968
921.912204	2464.917543
922.216946	2466.533233
922.521647	2467.236474
922.826310	2467.617081
923.130932	2467.168419
923.435516	2467.238995
923.740059	2467.344859
924.044564	2466.586165
924.349028	2466.102215
924.653454	2468.315281
924.957840	2466.654221
925.262186	2468.912658
925.566493	2466.364355
925.870761	2467.075157
926.174989	2468.290075
926.479178	2468.073306
926.783328	2466.384519
927.087438	2466.167750
927.391509	2469.711681
927.695541	2466.190435
927.999533	2468.723615
928.303486	2467.367544
928.607400	2467.354941
928.911275	2466.394602
929.215110	2466.046762
929.518906	2467.249077
929.822663	2467.342338
930.126381	2468.075826
930.430060	2464.080712
930.733699	2465.449385
931.037299	2465.358644
931.340861	2466.644139
931.644383	2469.925930
931.947866	2466.397122
932.251309	2468.461475
932.554714	2465.323356
932.858080	2465.993830
933.161407	2461.721452
933.464694	2465.436782
933.767943	2461.691205
934.071153	2465.572893
934.374323	2465.741772
934.677455	2466.308902
934.980548	2466.434931
935.283602	2466.026597
935.586617	2465.285548
935.889593	2466.767647
936.192530	2465.537605
936.495428	2467.952318
936.798287	2465.797225
937.101108	2466.296299
937.403890	2468.030456
937.706632	2465.461988
938.009336	2467.123048
938.312002	2465.840075
938.614628	2468.436269
938.917216	2466.679427
939.219765	2466.601289
939.522275	2468.431228
939.824747	2466.102215
940.127179	2462.762450
940.429573	2466.608851
940.731929	2467.775878
941.034246	2466.654221
941.336524	2465.784622
941.638763	2465.663634
941.940964	2467.788481
942.243126	2468.184211
942.545250	2465.769498
942.847335	2466.611371
943.149381	2467.100363
943.451389	2466.538274
943.753359	2465.308233
944.055290	2465.434262
944.357182	2468.469036
944.659036	2466.228243
944.960851	2466.739921
945.262628	2468.900055
945.564367	2469.550364
945.866067	2468.340487
946.167729	2466.747482
946.469352	2464.592389
946.770937	2465.847636
947.072484	2466.412246
947.373992	2467.054993
947.675462	2465.880404
947.976893	2462.278499
948.278286	2461.378653
948.579641	2464.912502
948.880958	2462.240691
949.182236	2465.668675
949.483476	2467.869139
949.784678	2463.621967
950.085841	2466.442493
950.386967	2466.497945
950.688054	2463.211113
950.989103	2467.987606
951.290114	2465.187245
951.591087	2466.455095
951.892021	2467.012143
952.192917	2467.796042
952.493776	2464.481484
952.794596	2467.186063
953.095378	2466.870991
953.396122	2464.884776
953.696828	2469.033646
953.997496	2464.279837
954.298126	2466.190435
954.598718	2467.473408
954.899272	2465.129272
955.199788	2466.989458
955.500266	2467.158336
955.800706	2466.036680
956.101108	2463.937039
956.401472	2464.584827
956.701798	2467.324694
957.002087	2464.554580
957.302337	2465.898048
957.602550	2465.066258
957.902724	2466.203038
958.202861	2463.528706
958.502960	2466.306381
958.803022	2467.813686
959.103045	2463.120372
959.403031	2465.429221
959.702979	2464.748665
960.002889	2468.274952
960.302762	2464.904941
960.602596	2467.957359
960.902393	2464.862091
961.202153	2467.107925
961.501875	2466.210599
961.801559	2466.119859
962.101205	2463.987451
962.400814	2464.499128
962.700385	2467.980044
962.999918	2465.318315
963.299414	2465.247739
963.598873	2464.068109
963.898293	2458.916050
964.197677	2464.161370
964.497022	2465.880404
964.796331	2469.847792
965.095601	2465.764457
965.394835	2465.056175
965.694030	2466.132462
965.993189	2466.429890
966.292309	2465.905610
966.591393	2464.310084
966.890439	2465.366206
967.189447	2467.606999
967.488419	2468.718573
967.787353	2463.294292
968.086249	2467.672534
968.385108	2463.306895
968.683930	2464.277317
968.982714	2464.562142
969.281462	2462.628860
969.580172	2464.211782
969.878844	2466.084571
970.177480	2466.611371
970.476078	2466.329067
970.774639	2464.022739
971.073162	2467.879221
971.371649	2465.308233
971.670098	2464.887297
971.968510	2462.031483
972.266885	2465.855198
972.565223	2464.181535
972.863524	2466.603809
973.161788	2462.394446
973.460014	2464.116000
973.758204	2464.153809
974.056356	2465.000723
974.354471	2465.638428
974.652550	2465.114148
974.950591	2464.899899
975.248595	2465.547688
975.546563	2464.967955
975.844493	2463.437965
976.142386	2465.618264
976.440243	2465.996350
976.738062	2465.220013
977.035845	2466.707153
977.333590	2466.455095
977.631299	2463.735393
977.928971	2459.672223
978.226606	2461.774384
978.524204	2462.870835
978.821765	2460.055351
979.119290	2465.855198
979.416777	2464.700774
979.714228	2464.541977
980.011642	2464.347893
980.309020	2465.421659
980.606360	2465.174642
980.903664	2467.528861
981.200931	2465.182204
981.498162	2467.014663
981.795356	2465.552729
982.092513	2464.055506
982.389633	2465.734210
982.686717	2464.035342
982.983764	2465.174642
983.280775	2465.313274
983.577749	2466.228243
983.874686	2464.937708
984.171587	2462.858232
984.468451	2464.572224
984.765279	2465.323356
985.062070	2466.054324
985.358824	2464.438634
985.655543	2466.195476
985.952224	2466.490383
986.248869	2464.458798
986.545478	2465.562811
986.842050	2461.050978
987.138586	2465.232616
987.435086	2465.275465
987.731549	2465.761937
988.027975	2464.947790
988.324366	2461.978551
988.620719	2464.042903
988.917037	2468.456433
989.213318	2464.398305
989.509563	2465.971145
989.805772	2464.778912
990.101944	2466.177832
990.398080	2465.729169
990.694180	2464.967955
990.990244	2464.436113
991.286271	2467.975003
991.582262	2465.522482
991.878217	2465.580455
992.174136	2465.890486
992.470019	2465.404015
992.765865	2464.594910
993.061676	2458.951338
993.357450	2461.439147
993.653188	2461.330763
993.948890	2464.993161
994.244556	2465.726649
994.540186	2462.727162
994.835780	2465.779581
995.131337	2465.250260
995.426859	2464.201700
995.722345	2464.438634
996.017795	2466.220682
996.313208	2467.354941
996.608586	2466.243367
996.903928	2462.250773
997.199234	2466.220682
997.494504	2465.751854
997.789738	2465.777060
998.084936	2467.448203
998.380099	2465.582976
998.675225	2466.104735
998.970316	2465.096504
999.265371	2464.572224
999.560390	2462.969137
999.855373	2468.075826
1000.150320	2462.611216
1000.445232	2465.706484
1000.740108	2464.153809
1001.034948	2463.037193
1001.329752	2462.896041
1001.624521	2464.194138
1001.919254	2465.388891
1002.213951	2467.170939
1002.508613	2465.726649
1002.803239	2464.859570
1003.097829	2463.586679
1003.392384	2463.468212
1003.686903	2461.580300
1003.981386	2464.531895
1004.275834	2462.691874
1004.570246	2466.114817
1004.864623	2465.948459
1005.158964	2464.287399
1005.453270	2464.294961
1005.747540	2464.975517
1006.041775	2463.269086
1006.335974	2462.286061
1006.630138	2465.174642
1006.924266	2463.077522
1007.218359	2464.146247
1007.512416	2462.898561
1007.806438	2462.530557
1008.100425	2463.495938
1008.394376	2459.672223
1008.688292	2464.090794
1008.982172	2466.414766
1009.276017	2462.316308
1009.569827	2464.206741
1009.863602	2465.431741
1010.157341	2463.553911
1010.451045	2465.277986
1010.744714	2464.741103
1011.038347	2462.848150
1011.331945	2462.860753
1011.625508	2464.330249
1011.919036	2464.514251
1012.212528	2466.293778
1012.505986	2464.388222
1012.799408	2464.516772
1013.092795	2463.800928
1013.386147	2465.633387
1013.679464	2465.507358
1013.972745	2462.036524
1014.265992	2465.802266
1014.559204	2462.956535
1014.852380	2463.596761
1015.145521	2465.943418
1015.438628	2465.371247
1015.731699	2463.367389
1016.024736	2463.420321
1016.317737	2463.546350
1016.610703	2464.915023
1016.903635	2468.005250
1017.196531	2461.277830
1017.489393	2463.884107
1017.782219	2462.757409
1018.075011	2462.223047
1018.367768	2466.034159
1018.660490	2463.032152
1018.953177	2463.032152
1019.245829	2463.032152
