Dividing Wavelength (nm)	Counts (n)	Blue Motor Position (mm): 0.000000	Red Motor Position (mm): 33.000000	
326.493990	2052.420089
326.888308	2052.420089
327.282561	2052.420089
327.676750	2026.377488
328.070874	2029.623991
328.464933	2035.645649
328.858929	2043.565302
329.252859	2055.064174
329.646726	2067.319219
330.040528	2086.944431
330.434265	2098.211410
330.827938	2122.318208
331.221547	2139.768162
331.615091	2161.906389
332.008571	2180.435150
332.401986	2203.238809
332.795338	2221.071891
333.188625	2241.589387
333.581847	2260.652510
333.975006	2278.304110
334.368100	2295.194496
334.761129	2311.558082
335.154095	2327.203303
335.546996	2347.327589
335.939833	2379.598535
336.332606	2394.432130
336.725315	2404.625343
337.117960	2417.689494
337.510540	2424.908426
337.903056	2432.928902
338.295508	2440.321754
338.687896	2448.150666
339.080220	2456.866821
339.472480	2456.387911
339.864676	2460.947635
340.256807	2464.907461
340.648875	2466.069447
341.040879	2468.443831
341.432818	2468.549695
341.824694	2471.012298
342.216506	2470.891311
342.608253	2469.459623
342.999937	2470.545992
343.391557	2468.738738
343.783113	2467.962400
344.174605	2467.193624
344.566033	2465.678758
344.957397	2465.724128
345.348697	2459.841102
345.739934	2461.111472
346.131106	2458.653910
346.522215	2460.498972
346.913260	2452.730554
347.304241	2454.762139
347.695159	2454.948662
348.086012	2450.746860
348.476802	2449.852055
348.867528	2445.685542
349.258191	2443.106991
349.648789	2444.062290
350.039324	2438.761517
350.429796	2444.826025
350.820203	2442.260077
351.210548	2444.205963
351.600828	2441.201435
351.991045	2440.891404
352.381198	2441.521548
352.771288	2443.215376
353.161314	2439.873091
353.551276	2441.924841
353.941175	2441.387958
354.331010	2439.898297
354.720782	2442.008020
355.110490	2442.239913
355.500135	2440.294027
355.889717	2440.674635
356.279235	2440.825869
356.668689	2442.623041
357.058080	2442.897783
357.447408	2446.172013
357.836672	2445.627568
358.225873	2445.950202
358.615010	2444.785696
359.004084	2446.658484
359.393095	2447.815429
359.782043	2447.046653
360.170927	2447.333999
360.559748	2446.408947
360.948505	2449.075718
361.337199	2450.739298
361.725830	2451.477827
362.114398	2453.060750
362.502903	2452.549073
362.891344	2455.999742
363.279722	2450.240224
363.668037	2453.549742
364.056289	2455.125102
364.444478	2456.864300
364.832603	2456.526543
365.220665	2455.823302
365.608665	2452.707869
365.996601	2454.499999
366.384474	2455.727520
366.772284	2453.295163
367.160031	2458.016204
367.547715	2458.543004
367.935336	2455.445215
368.322893	2455.588888
368.710388	2455.188117
369.097820	2458.046451
369.485189	2452.569237
369.872495	2459.203396
370.259738	2461.189610
370.646918	2462.122224
371.034035	2463.894189
371.421090	2461.166925
371.808081	2465.640949
372.195010	2466.029118
372.581875	2466.971814
372.968678	2468.385857
373.355418	2471.014819
373.742096	2473.016157
374.128710	2475.597228
374.515262	2479.516725
374.901751	2479.642754
375.288177	2483.658033
375.674540	2486.909577
376.060841	2492.122130
376.447079	2493.815958
376.833254	2501.065137
377.219367	2501.997751
377.605417	2512.415295
377.991404	2513.635254
378.377329	2524.425844
378.763191	2526.986750
379.148991	2536.542257
379.534727	2547.020296
379.920402	2555.081101
380.306013	2566.118707
380.691563	2579.218145
381.077049	2587.450349
381.462474	2599.191197
381.847835	2610.385079
382.233134	2625.553911
382.618371	2636.853657
383.003545	2652.188847
383.388657	2667.725683
383.773706	2684.364012
384.158693	2700.503266
384.543618	2715.006665
384.928480	2733.298492
385.313280	2754.728437
385.698017	2773.088319
386.082692	2797.363996
386.467305	2812.648774
386.851856	2834.131651
387.236344	2863.130889
387.620770	2878.841645
388.005133	2898.108935
388.389435	2931.204110
388.773674	2948.938889
389.157851	2979.392499
389.541965	3006.992817
389.926018	3016.986904
390.310008	3051.513767
390.693936	3076.538054
391.077802	3104.544185
391.461606	3136.668937
391.845348	3152.740136
392.229027	3183.259281
392.612645	3224.473235
392.996200	3252.083634
393.379694	3287.734674
393.763125	3333.727641
394.146494	3357.496682
394.529801	3393.288874
394.913047	3438.568518
395.296230	3444.585135
395.679351	3467.950883
396.062410	3519.504243
396.445408	3496.781242
396.828343	3538.600134
397.211217	3571.672623
397.594028	3548.997513
397.976778	3600.437447
398.359466	3629.411479
398.742092	3635.062612
399.124656	3656.356446
399.507158	3712.494736
399.889598	3715.859706
400.271977	3779.907565
400.654294	3769.207716
401.036549	3833.537881
401.418742	3830.487982
401.800874	3898.992222
402.182944	3924.253444
402.564952	4009.181763
402.946898	4006.827544
403.328783	4001.022655
403.710606	4049.833628
404.092367	4121.942292
404.474067	4183.880429
404.855705	4170.899458
405.237282	4140.070281
405.618797	4238.115683
406.000250	4316.437569
406.381642	4398.106782
406.762972	4397.466556
407.144240	4365.792986
407.525447	4429.815640
407.906593	4446.937919
408.287677	4531.344478
408.668700	4559.826998
409.049661	4599.468111
409.430560	4629.031957
409.811399	4614.190801
410.192176	4665.587885
410.572891	4746.453033
410.953545	4851.571173
411.334138	4750.349845
411.714669	4857.764231
412.095139	4772.278865
412.475547	4883.053179
412.855894	4886.758427
413.236180	4987.563860
413.616405	4918.643725
413.996568	5022.887225
414.376670	5023.212380
414.756711	5018.876987
415.136691	5088.535651
415.516609	5177.902706
415.896466	5208.212643
416.276262	5289.276918
416.655997	5404.061470
417.035670	5492.649667
417.415283	5636.176358
417.794834	5711.082863
418.174324	5666.831615
418.553753	5671.953427
418.933121	5836.085834
419.312428	5848.839954
419.691674	5775.710455
420.070859	6000.326627
420.449983	5875.137133
420.829045	6070.880095
421.208047	5998.748746
421.586988	6155.332025
421.965867	6227.705350
422.344686	6312.489996
422.723444	6475.667105
423.102141	6097.875474
423.480777	6491.052707
423.859352	6301.419622
424.237866	6672.188926
424.616319	6663.127452
424.994712	6825.366906
425.373044	6741.802220
425.751314	7059.100004
426.129524	6776.918897
426.507673	7043.414454
426.885762	7088.154695
427.263789	7125.497042
427.641756	7208.807150
428.019662	7290.148688
428.397508	7336.794485
428.775292	7311.329096
429.153016	7491.099163
429.530679	7414.287102
429.908282	7473.392110
430.285824	7409.608911
430.663305	7697.705812
431.040726	7575.402378
431.418086	7580.065446
431.795385	7717.754481
432.172624	7903.178202
432.549802	7783.561703
432.926920	7921.452384
433.303977	7865.319136
433.680974	7901.983448
434.057910	8113.137218
434.434786	8155.424937
434.811601	8114.463042
435.188355	8454.738406
435.565050	8340.994851
435.941683	8354.016152
436.318257	8683.226183
436.694770	8641.553485
437.071222	8869.723670
437.447614	8642.599524
437.823946	8611.793033
438.200218	8763.103266
438.576429	8641.702199
438.952580	8810.288466
439.328670	8817.772059
439.704700	8889.792503
440.080670	8780.787633
440.456580	9049.551710
440.832429	9028.429275
441.208218	8767.524358
441.583947	8879.932006
441.959616	8997.708483
442.335224	9036.177528
442.710773	9117.907235
443.086261	9296.250655
443.461689	9013.278087
443.837057	9179.875619
444.212365	9400.383250
444.587612	9380.309375
444.962800	9274.372048
445.337927	9404.375844
445.712995	8951.077810
446.088002	9622.728381
446.462949	9683.723822
446.837837	9662.157766
447.212664	9686.143576
447.587431	10512.900369
447.962139	11512.493121
448.336786	12465.165333
448.711374	12253.036100
449.085901	11040.469722
449.460369	10960.517022
449.834776	10736.977137
450.209124	11645.045220
450.583412	11464.012344
450.957640	11792.758589
451.331808	11378.453881
451.705917	10808.392643
452.079965	10687.621720
452.453954	10888.713347
452.827883	10834.089924
453.201752	10804.347117
453.575562	10809.156377
453.949311	11151.876701
454.323001	11217.946063
454.696632	11136.415482
455.070202	11719.170346
455.443713	11779.454984
455.817164	11947.910181
456.190556	12260.479364
456.563888	12136.472020
456.937160	12391.161195
457.310373	11885.503217
457.683526	11898.312789
458.056619	11919.725090
458.429653	11982.389153
458.802628	12118.853188
459.175542	12170.109119
459.548398	12707.700286
459.921194	13296.131489
460.293930	13577.611876
460.666607	14435.896045
461.039224	15230.381891
461.411782	15590.829432
461.784280	15262.927580
462.156719	15211.255753
462.529099	15116.598007
462.901419	14480.384227
463.273680	14074.752824
463.645882	14299.878152
464.018024	14179.631510
464.390106	14534.690057
464.762130	15593.738178
465.134094	17113.792256
465.505999	19395.708353
465.877845	21673.609171
466.249631	22947.838944
466.621358	22501.906036
466.993026	21687.447138
467.364634	20948.943306
467.736184	20146.799947
468.107674	19527.884886
468.479105	19380.002638
468.850477	19117.686198
469.221790	18679.829219
469.593043	18007.694697
469.964238	17620.884442
470.335373	17678.792176
470.706449	18393.360610
471.077467	19233.473940
471.448425	21708.317515
471.819324	23589.804680
472.190164	23528.690772
472.560945	21769.454109
472.931667	20193.039931
473.302330	19850.649802
473.672934	19297.849475
474.043479	19715.501509
474.413965	19502.036370
474.784393	19312.710796
475.154761	19987.897737
475.525070	20107.960377
475.895321	19942.608010
476.265513	20474.235492
476.635645	21065.764484
477.005719	21131.289402
477.375734	21478.423256
477.745691	22122.700362
478.115588	22761.774996
478.485427	23953.082829
478.855207	25752.444557
479.224928	27553.999186
479.594591	29000.734723
479.964194	28640.365319
480.333739	29121.140162
480.703226	29340.843729
481.072653	29774.249369
481.442022	30292.429573
481.811333	30709.814426
482.180584	30275.551790
482.549777	30050.688602
482.918912	29822.609158
483.287988	29751.264228
483.657005	29600.190929
484.025964	29232.582429
484.394864	29427.768344
484.763706	29366.157883
485.132489	28799.726275
485.501213	28877.861639
485.869879	29052.610716
486.238487	28990.415481
486.607036	29252.971376
486.975527	28938.736092
487.343959	29290.028898
487.712333	29629.658994
488.080648	29586.486553
488.448905	30017.507727
488.817104	29901.662012
489.185244	30717.839943
489.553326	31652.989105
489.921350	33528.305897
490.289315	36034.596190
490.657222	36955.819165
491.025070	37532.380971
491.392861	37263.753006
491.760593	36490.881107
492.128267	35481.939535
492.495883	34498.838918
492.863440	33583.282201
493.230939	32599.803497
493.598380	32021.547863
493.965763	31844.744515
494.333088	31322.939721
494.700354	31114.306528
495.067563	31063.781564
495.434713	30928.192169
495.801805	31205.546372
496.168839	31012.288698
496.535815	30834.923262
496.902733	30951.547835
497.269593	30735.927603
497.636395	30864.933250
498.003139	31119.211571
498.369825	30845.129078
498.736453	31218.968444
499.103023	31027.729752
499.469535	31087.049009
499.835989	31159.233291
500.202385	31003.002893
500.568723	31011.557731
500.935003	31279.953803
501.301226	31100.065269
501.667390	31776.275563
502.033497	31940.720522
502.399546	31681.539680
502.765537	31256.167118
503.131470	31679.384586
503.497345	32042.385472
503.863163	30965.186677
504.228923	31663.227688
504.594625	31972.522641
504.960269	31415.185275
505.325856	32005.040604
505.691385	31608.251385
506.056856	31857.581813
506.422270	32256.447988
506.787625	31713.263661
507.152924	32080.073138
507.518164	32174.151151
507.883347	31699.070292
508.248472	31762.419952
508.613540	32333.023115
508.978550	32444.503191
509.343503	32204.907231
509.708398	32461.824595
510.073236	32914.058945
510.438016	32917.013061
510.802738	32520.566641
511.167403	32927.488579
511.532010	33060.789290
511.896561	33431.248562
512.261053	34035.783732
512.625488	33709.205182
512.989866	33518.833569
513.354186	33456.088848
513.718449	33307.158040
514.082655	33997.430633
514.446803	33581.056531
514.810894	34037.517888
515.174927	33897.338523
515.538904	33774.692292
515.902822	34213.970876
516.266684	33788.550423
516.630488	33977.286182
516.994235	33838.046992
517.357925	34216.211669
517.721558	34293.104388
518.085133	34477.925691
518.448651	34493.270964
518.812112	34245.281482
519.175516	34222.830704
519.538863	34455.023729
519.902152	34360.910428
520.265385	34649.430786
520.628560	34503.050802
520.991678	34288.521980
521.354739	34315.877801
521.717743	34456.155468
522.080690	34191.943554
522.443580	34593.458855
522.806413	34421.575674
523.169189	34355.831466
523.531908	34363.090727
523.894569	34061.339861
524.257174	34014.994013
524.619722	34113.775423
524.982213	34040.739186
525.344647	33899.460849
525.707025	33799.106600
526.069345	33952.367759
526.431608	33682.587890
526.793815	33788.850372
527.155964	33235.664396
527.518057	33218.118660
527.880093	32911.435025
528.242072	33193.490103
528.603995	32774.799591
528.965860	32502.937726
529.327669	32459.278813
529.689421	32293.220684
530.051117	32070.298341
530.412755	32039.335574
530.774337	31873.428680
531.135862	31613.519391
531.497331	31515.330317
531.858743	31290.331018
532.220098	31366.875898
532.581396	30946.695725
532.942638	30578.683932
533.303824	30531.108043
533.664953	30345.512923
534.026025	29897.853420
534.387040	30077.855380
534.747999	29891.594828
535.108902	29884.532171
535.469748	29201.420537
535.830537	29174.077318
536.191270	29102.429919
536.551947	28699.374546
536.912567	28652.514500
537.273131	28494.625562
537.633638	28039.994143
537.994089	27921.441328
538.354483	27543.377475
538.714821	27717.297283
539.075103	27669.517227
539.435328	27352.602569
539.795497	26955.435264
540.155609	26812.289180
540.515665	26922.471159
540.875665	26288.082276
541.235609	26214.478910
541.595496	26047.863734
541.955328	26155.474724
542.315102	25601.729180
542.674821	25316.858618
543.034483	25027.758527
543.394090	24807.613859
543.753640	24573.784979
544.113134	24910.889457
544.472571	24199.073493
544.831953	24558.767382
545.191278	23935.567340
545.550548	23548.653741
545.909761	23645.169152
546.268918	23480.099090
546.628019	23461.598056
546.987064	22938.946348
547.346053	22395.182289
547.704986	22595.129574
548.063863	22201.962423
548.422684	22059.121329
548.781449	21636.400415
549.140158	21657.956388
549.498811	21328.408600
549.857408	20826.755819
550.215949	20974.317954
550.574434	20690.637103
550.932864	20464.140582
551.291237	20533.252280
551.649555	20206.015861
552.007817	20048.497447
552.366022	19719.650379
552.724173	19514.790489
553.082267	19465.987079
553.440305	19400.542820
553.798288	18887.066012
554.156215	18827.177105
554.514086	18690.032514
554.871902	18323.134817
555.229661	18165.349222
555.587365	17831.261874
555.945014	17676.687494
556.302606	17470.186709
556.660143	17297.088610
557.017625	17183.387905
557.375050	16866.992487
557.732421	16809.112479
558.089735	16623.620703
558.446994	16378.129113
558.804197	16332.194120
559.161345	16087.486430
559.518437	15693.011100
559.875474	15572.961062
560.232455	15441.800322
560.589381	15267.474701
560.946251	15029.509554
561.303065	15025.721127
561.659825	14753.274488
562.016528	14509.776675
562.373177	14212.046129
562.729770	14206.906673
563.086307	13906.078337
563.442789	13856.286861
563.799216	13653.385460
564.155587	13451.444398
564.511904	13263.530348
564.868164	13108.081328
565.224370	13012.614477
565.580520	12772.335440
565.936615	12647.813899
566.292654	12396.396433
566.648638	12311.924339
567.004567	12142.418061
567.360441	11996.438849
567.716260	11775.994232
568.072023	11710.570138
568.427732	11537.832481
568.783385	11288.101281
569.138982	11228.083824
569.494525	11110.453540
569.850013	10889.048583
570.205445	10765.119378
570.560823	10582.049876
570.916145	10420.765720
571.271412	10320.955915
571.626625	10128.008272
571.981782	9993.046502
572.336884	9803.075660
572.691931	9723.606911
573.046923	9535.455926
573.401860	9380.856340
573.756743	9255.689532
574.111570	9159.385849
574.466342	9023.557000
574.821059	8922.302904
575.175722	8730.439109
575.530330	8614.172458
575.884882	8457.516081
576.239380	8320.235380
576.593823	8222.888178
576.948211	8103.813604
577.302544	7929.482942
577.656823	7822.494534
578.011047	7748.278667
578.365216	7621.292002
578.719330	7484.238152
579.073389	7384.299798
579.427394	7287.683564
579.781344	7184.685229
580.135239	7058.086732
580.489080	6971.900646
580.842866	6831.575087
581.196597	6792.493542
581.550273	6712.172838
581.903895	6613.313290
582.257463	6568.187402
582.610975	6430.878974
582.964434	6378.612291
583.317837	6256.341625
583.671186	6174.160735
584.024481	6114.188648
584.377721	5998.287480
584.730906	5934.496719
585.084037	5871.686463
585.437113	5776.396052
585.790135	5708.771494
586.143103	5599.441470
586.496016	5539.088776
586.848874	5478.683150
587.201679	5416.230816
587.554428	5311.195855
587.907124	5267.345378
588.259765	5191.541548
588.612352	5139.292509
588.964884	5050.167429
589.317362	5007.587323
589.669786	4949.329229
590.022155	4880.260380
590.374470	4851.291389
590.726731	4776.987302
591.078937	4679.057848
591.431090	4647.996778
591.783188	4572.200510
592.135232	4512.470398
592.487222	4474.424810
592.839157	4429.417389
593.191038	4368.306001
593.542866	4314.418587
593.894639	4245.511055
594.246358	4215.886715
594.598022	4170.995240
594.949633	4113.410139
595.301190	4071.676947
595.652692	4031.544321
596.004141	4008.619674
596.355535	3934.116462
596.706876	3897.487438
597.058162	3853.072352
597.409395	3836.739013
597.760573	3811.908810
598.111698	3765.142026
598.462768	3734.592633
598.813785	3703.609702
599.164748	3663.371212
599.515657	3648.630878
599.866511	3603.000874
600.217312	3597.574072
600.568060	3546.015671
600.918753	3545.360321
601.269392	3517.959129
601.619978	3486.033502
601.970510	3474.519507
602.320988	3451.060497
602.671412	3443.776030
603.021783	3418.877771
603.372100	3389.618914
603.722363	3372.345400
604.072572	3356.347299
604.422728	3339.928261
604.772830	3320.086279
605.122878	3306.707057
605.472872	3291.313893
605.822813	3277.493570
606.172701	3259.466404
606.522534	3250.838469
606.872314	3243.407808
607.222041	3226.267885
607.571714	3218.693552
607.921333	3196.192362
608.270899	3186.969571
608.620411	3182.777851
608.969870	3172.912313
609.319276	3160.311949
609.668627	3155.724499
610.017926	3149.670073
610.367171	3142.355359
610.716362	3134.092908
611.065500	3122.939355
611.414585	3120.915332
611.763616	3110.487705
612.112594	3099.669389
612.461518	3096.632094
612.810389	3092.979778
613.159207	3084.165320
613.507971	3077.810946
613.856682	3075.159299
614.205340	3068.232753
614.553945	3071.169226
614.902496	3052.486709
615.250994	3053.726833
615.599439	3046.429763
615.947830	3041.461706
616.296169	3037.887528
616.644454	3028.246321
616.992686	3026.441588
617.340864	3028.737834
617.688990	3017.793489
618.037063	3019.343643
618.385082	3013.425329
618.733048	3014.758714
619.080961	3006.725635
619.428821	3000.068792
619.776628	2996.255159
620.124382	2989.963799
620.472083	2984.927686
620.819731	2983.674959
621.167326	2971.435038
621.514868	2969.103504
621.862357	2957.849128
622.209793	2954.915177
622.557176	2946.703137
622.904506	2937.003957
623.251783	2928.353337
623.599007	2926.273861
623.946179	2918.056780
624.293297	2915.616862
624.640363	2904.004564
624.987376	2898.466857
625.334336	2891.174828
625.681243	2885.390103
626.028097	2877.604041
626.374899	2876.759648
626.721647	2873.936602
627.068343	2868.262783
627.414987	2862.339427
627.761577	2856.438757
628.108115	2858.750126
628.454600	2849.822242
628.801032	2849.343333
629.147412	2844.869309
629.493739	2842.691530
629.840014	2833.128462
630.186236	2833.312464
630.532405	2826.378357
630.878521	2825.138233
631.224585	2824.001452
631.570597	2817.649599
631.916556	2818.955257
632.262462	2814.211532
632.608316	2816.306131
632.954117	2809.422436
633.299866	2807.143834
633.645562	2802.838689
633.991206	2800.197124
634.336797	2791.922070
634.682336	2790.873510
635.027823	2785.426543
635.373257	2781.769186
635.718639	2779.364556
636.063968	2774.630912
636.409245	2769.763678
636.754470	2766.008019
637.099642	2764.319232
637.444762	2756.293715
637.789829	2758.612646
638.134845	2754.284815
638.479808	2749.430184
638.824719	2753.095103
639.169577	2743.776530
639.514383	2743.126221
639.859137	2739.907445
640.203839	2740.862743
640.548489	2736.272773
640.893086	2734.856208
641.237632	2729.404201
641.582125	2732.244891
641.926566	2728.496793
642.270955	2726.646689
642.615292	2723.125443
642.959576	2720.569578
643.303809	2719.727706
643.647990	2723.047306
643.992118	2722.507902
644.336195	2716.110678
644.680219	2717.365925
645.024192	2720.383056
645.368112	2721.330793
645.711981	2718.737119
646.055797	2721.156873
646.399562	2722.054198
646.743274	2726.525702
647.086935	2726.661813
647.430544	2725.610732
647.774101	2727.712893
648.117606	2726.308932
648.461059	2725.590568
648.804460	2723.049826
649.147810	2720.604867
649.491108	2714.860472
649.834354	2718.028837
650.177548	2709.489122
650.520690	2707.444934
650.863781	2705.962835
651.206820	2704.395036
651.549807	2699.202648
651.892742	2696.823223
652.235626	2697.309695
652.578458	2691.857687
652.921238	2690.073118
653.263967	2690.095803
653.606644	2686.403158
653.949269	2684.658919
654.291843	2683.668332
654.634365	2687.464321
654.976836	2680.217662
655.319255	2681.871161
655.661622	2678.899401
656.003938	2679.766479
656.346203	2677.896211
656.688416	2676.981242
657.030577	2678.095337
657.372687	2675.426046
657.714746	2676.968639
658.056753	2679.171623
658.398708	2671.466219
658.740612	2673.412105
659.082465	2672.209790
659.424266	2668.590241
659.766016	2665.638646
660.107715	2668.640653
660.449362	2666.790549
660.790958	2670.263904
661.132503	2667.587052
661.473996	2670.405057
661.815438	2669.779953
662.156829	2669.968997
662.498168	2667.738286
662.839456	2667.750889
663.180693	2668.222237
663.521879	2668.204593
663.863013	2669.474964
664.204097	2667.231650
664.545129	2668.648214
664.886110	2669.416990
665.227040	2668.522186
665.567918	2668.915396
665.908746	2668.350786
666.249522	2670.699964
666.590248	2670.117711
666.930922	2669.117042
667.271545	2669.356497
667.612118	2671.040242
667.952639	2664.416166
668.293109	2664.771567
668.633528	2663.740651
668.973896	2668.731393
669.314213	2666.785508
669.654480	2664.176711
669.994695	2662.344252
670.334859	2666.621671
670.674973	2662.200579
671.015035	2661.212512
671.355047	2662.934067
671.695008	2664.343069
672.034918	2659.410300
672.374777	2662.835764
672.714585	2662.329128
673.054342	2660.594971
673.394049	2661.479694
673.733705	2660.494148
674.073310	2662.921464
674.412864	2661.159580
674.752368	2657.966009
675.091820	2660.186638
675.431223	2657.376194
675.770574	2655.349651
676.109875	2655.876451
676.449125	2653.174393
676.788324	2649.406130
677.127473	2647.172899
677.466571	2647.044350
677.805619	2651.120122
678.144616	2646.363794
678.483562	2648.453352
678.822458	2645.529483
679.161303	2646.545275
679.500098	2644.944709
679.838842	2643.170223
680.177535	2645.554689
680.516179	2646.363794
680.854771	2644.967394
681.193314	2647.225831
681.531805	2652.259423
681.870247	2657.698828
682.208638	2661.933398
682.546978	2662.407266
682.885268	2662.397184
683.223508	2663.917092
683.561697	2663.055054
683.899836	2660.345434
684.237925	2657.933242
684.575963	2656.695639
684.913951	2653.522232
685.251889	2653.612973
685.589776	2656.015083
685.927614	2654.265802
686.265401	2656.698159
686.603137	2655.871410
686.940824	2657.358550
687.278460	2659.566576
687.616046	2658.172697
687.953582	2661.514982
688.291068	2664.489262
688.628504	2666.425066
688.965889	2663.228974
689.303224	2662.190496
689.640510	2662.523212
689.977745	2658.598674
690.314930	2654.122130
690.652065	2653.035761
690.989150	2648.473517
691.326185	2643.268525
691.663170	2642.567805
692.000105	2636.586476
692.336990	2634.842237
692.673825	2631.996505
693.010610	2628.114817
693.347345	2625.430402
693.684030	2621.752881
694.020665	2619.905298
694.357251	2613.961777
694.693786	2616.752056
695.030272	2615.685852
695.366707	2614.607045
695.703093	2611.446242
696.039429	2613.308948
696.375716	2610.294338
696.711952	2611.247116
697.048139	2606.770572
697.384276	2608.194697
697.720363	2610.458176
698.056400	2610.455655
698.392388	2607.841817
698.728326	2607.909872
699.064214	2606.142948
699.400053	2607.622527
699.735842	2603.773606
700.071581	2605.364090
700.407270	2602.084819
700.742910	2600.665734
701.078501	2597.681371
701.414042	2598.561052
701.749533	2596.496700
702.084974	2593.386308
702.420366	2594.202975
702.755709	2592.741040
703.091002	2592.829261
703.426246	2589.663416
703.761440	2590.565782
704.096584	2590.444795
704.431679	2589.812130
704.766725	2590.424630
705.101721	2587.152921
705.436668	2590.084352
705.771565	2587.634352
706.106413	2587.248703
706.441212	2588.045206
706.775961	2589.451687
707.110661	2590.081832
707.445311	2591.901688
707.779913	2589.497058
708.114465	2593.323294
708.448967	2593.008222
708.783421	2597.207503
709.117825	2600.837133
709.452180	2599.723038
709.786485	2604.958277
710.120742	2603.705550
710.454949	2602.130189
710.789107	2607.685541
711.123216	2608.542537
711.457275	2613.576129
711.791286	2618.403034
712.125247	2619.232304
712.459159	2619.600308
712.793023	2623.673560
713.126837	2616.285749
713.460602	2620.048971
713.794318	2617.087293
714.127985	2616.068980
714.461602	2613.218207
714.795171	2613.727364
715.128691	2606.291662
715.462162	2603.846702
715.795584	2600.945518
716.128957	2599.090374
716.462281	2597.038624
716.795556	2597.883017
717.128782	2593.656010
717.461960	2587.286512
717.795088	2587.283991
718.128167	2586.852973
718.461198	2583.966912
718.794180	2582.106726
719.127113	2580.218814
719.459997	2579.903742
719.792833	2578.983732
720.125619	2581.678228
720.458357	2578.109091
720.791046	2576.498443
721.123686	2574.171950
721.456278	2574.618092
721.788821	2571.865622
722.121315	2572.725139
722.453761	2572.710016
722.786158	2572.001733
723.118506	2574.978535
723.450805	2572.195818
723.783056	2572.447876
724.115259	2572.694892
724.447412	2571.956363
724.779518	2574.015674
725.111574	2573.687999
725.443582	2578.033474
725.775542	2572.538616
726.107453	2576.931982
726.439315	2576.049780
726.771129	2581.216963
727.102895	2575.901066
727.434612	2581.244689
727.766281	2576.952147
728.097901	2585.683425
728.429473	2587.805751
728.760996	2589.915474
729.092471	2588.002356
729.423897	2589.257603
729.755276	2587.868765
730.086606	2588.435895
730.417887	2588.597212
730.749120	2594.001329
731.080305	2596.262286
731.411442	2598.513162
731.742530	2597.633480
732.073570	2599.032400
732.404562	2600.307812
732.735506	2601.908379
733.066401	2599.924685
733.397249	2601.459716
733.728048	2595.576689
734.058798	2587.616707
734.389501	2584.183682
734.720156	2582.545307
735.050762	2576.715212
735.381320	2576.838721
735.711831	2573.234296
736.042293	2573.410736
736.372707	2576.160685
736.703073	2570.136507
737.033391	2572.016857
737.363661	2571.462330
737.693883	2570.040725
738.024056	2572.815880
738.354182	2575.941395
738.684260	2579.659246
739.014290	2578.809812
739.344272	2582.963722
739.674207	2582.482292
740.004093	2585.512026
740.333931	2581.242168
740.663722	2585.867427
740.993464	2586.232911
741.323159	2585.196954
741.652806	2582.119329
741.982405	2578.313258
742.311956	2578.472054
742.641460	2577.017682
742.970915	2577.103381
743.300323	2571.807649
743.629683	2567.689026
743.958996	2569.166084
744.288260	2563.121741
744.617477	2569.481157
744.946647	2567.081567
745.275768	2566.247256
745.604842	2561.760629
745.933869	2565.886814
746.262847	2563.315825
746.591778	2560.820454
746.920662	2560.810372
747.249498	2560.933880
747.578286	2560.107131
747.907027	2561.685012
748.235720	2567.948646
748.564365	2563.106618
748.892963	2566.096022
749.221514	2566.552246
749.550017	2564.056875
749.878473	2567.187432
750.206881	2563.225085
750.535242	2562.171483
750.863555	2561.952193
751.191821	2562.547049
751.520039	2564.505538
751.848210	2559.552604
752.176334	2562.027811
752.504411	2562.121072
752.832440	2559.088818
753.160421	2556.893395
753.488356	2557.848694
753.816243	2560.187789
754.144082	2557.090000
754.471875	2561.196020
754.799620	2557.440361
755.127318	2557.425237
755.454969	2557.803324
755.782572	2559.454302
756.110129	2556.081770
756.437638	2559.151832
756.765100	2556.290977
757.092515	2555.111347
757.419882	2558.183931
757.747203	2556.888354
758.074477	2556.366595
758.401703	2559.955896
758.728882	2558.562017
759.056014	2562.428582
759.383099	2563.038562
759.710138	2558.683005
760.037129	2557.120247
760.364073	2562.415979
760.690970	2560.253324
761.017820	2562.489076
761.344623	2566.380847
761.671379	2566.743810
761.998088	2572.858730
762.324751	2581.879874
762.651366	2599.909561
762.977935	2624.850670
763.304456	2647.656850
763.630931	2659.145639
763.957359	2655.440391
764.283740	2645.327837
764.610074	2630.216978
764.936362	2613.084617
765.262602	2599.304623
765.588796	2589.250041
765.914943	2576.871488
766.241044	2571.878225
766.567097	2564.271124
766.893104	2560.855742
767.219064	2554.715617
767.544978	2551.511964
767.870845	2548.295708
768.196665	2548.091541
768.522438	2545.880995
768.848165	2541.812784
769.173846	2543.599873
769.499479	2539.322454
769.825066	2539.854295
770.150607	2539.070396
770.476101	2536.224665
770.801548	2539.514017
771.126949	2534.964376
771.452303	2534.001516
771.777611	2535.355066
772.102872	2532.312729
772.428087	2535.471012
772.753256	2532.647966
773.078378	2531.065044
773.403453	2531.307019
773.728482	2527.881555
774.053465	2528.289888
774.378401	2529.603109
774.703291	2526.207892
775.028135	2524.057840
775.352932	2526.328880
775.677683	2527.024559
776.002388	2523.344517
776.327046	2522.406862
776.651658	2522.900895
776.976224	2517.423681
777.300743	2522.953827
777.625216	2521.118847
777.949643	2525.096318
778.274024	2523.215967
778.598359	2523.248735
778.922647	2520.949968
779.246889	2523.233611
779.571086	2521.113806
779.895236	2519.805627
780.219339	2519.818229
780.543397	2520.360153
780.867409	2521.275123
781.191374	2524.778725
781.515294	2519.619104
781.839167	2526.253262
782.162995	2523.805782
782.486776	2525.897861
782.810511	2521.479290
783.134201	2521.461646
783.457844	2519.619104
783.781441	2520.854187
784.104993	2518.573064
784.428498	2523.130267
784.751958	2519.581295
785.075372	2521.050792
785.398739	2521.060874
785.722061	2521.552386
786.045337	2518.714217
786.368568	2521.476769
786.691752	2522.031296
787.014891	2521.761594
787.337983	2522.858045
787.661030	2529.744261
787.984031	2534.372041
788.306987	2539.425797
788.629897	2539.808925
788.952760	2539.907227
789.275579	2538.089892
789.598351	2536.650642
789.921078	2532.080836
790.243759	2530.886083
790.566395	2529.008253
790.888984	2528.289888
791.211529	2524.498941
791.534027	2524.153622
791.856480	2522.979033
792.178888	2517.484175
792.501249	2515.755059
792.823566	2514.910666
793.145836	2515.492919
793.468062	2519.808147
793.790241	2519.709845
794.112375	2519.767818
794.434464	2520.692870
794.756507	2520.183713
795.078505	2522.202695
795.400457	2524.940042
795.722364	2529.492204
796.044226	2530.916330
796.366042	2531.949766
796.687812	2531.312060
797.009538	2530.601257
797.331218	2528.819210
797.652852	2532.227030
797.974442	2528.189065
798.295986	2530.326515
798.617484	2527.085053
798.938938	2527.349713
799.260346	2525.575227
799.581709	2524.246883
799.903026	2523.387366
800.224299	2518.484844
800.545526	2519.886285
800.866708	2517.385873
801.187845	2521.438960
801.508936	2518.875534
801.829983	2519.926614
802.150984	2517.068280
802.471940	2515.503002
802.792851	2515.457631
803.113717	2517.877385
803.434538	2515.422343
803.755314	2516.110461
804.076045	2518.694052
804.396731	2515.777745
804.717372	2514.948475
805.037967	2517.237159
805.358518	2516.473424
805.679024	2517.481655
805.999485	2518.038702
806.319901	2516.561644
806.640272	2517.380832
806.960598	2516.226407
807.280879	2519.203209
807.601115	2518.666326
807.921306	2516.667508
808.241453	2517.048115
808.561554	2516.087776
808.881611	2514.744308
809.201623	2515.596263
809.521590	2517.093486
809.841513	2519.188085
810.161390	2519.218332
810.481223	2518.419309
810.801011	2517.201871
811.120755	2518.499968
811.440453	2514.933351
811.760107	2516.859072
812.079716	2514.698938
812.399281	2514.532580
812.718801	2516.460821
813.038276	2515.056860
813.357707	2513.113495
813.677093	2515.263547
813.996434	2515.482837
814.315731	2515.445028
814.634983	2514.018382
814.954191	2515.371932
815.273354	2516.808661
815.592473	2516.536438
815.911547	2516.218846
816.230577	2519.241017
816.549562	2518.351254
816.868502	2517.675739
817.187399	2521.002901
817.506250	2524.710669
817.825058	2523.909126
818.143821	2527.818541
818.462539	2532.673172
818.781213	2530.205527
819.099843	2536.360776
819.418429	2547.932744
819.736970	2554.851728
820.055466	2566.229612
820.373919	2580.891808
820.692327	2597.688933
821.010691	2627.986267
821.329011	2694.579910
821.647286	2806.294400
821.965517	2957.014817
822.283704	3061.938873
822.601847	3123.259468
822.919945	3083.557861
823.237999	3022.486803
823.556010	2954.761422
823.873976	2885.319527
824.191897	2823.492296
824.509775	2777.274997
824.827609	2731.793707
825.145398	2699.532843
825.463144	2683.867458
825.780845	2684.484999
826.098502	2687.814681
826.416116	2715.205791
826.733685	2747.801892
827.051210	2764.992226
827.368692	2760.177924
827.686129	2730.755230
828.003522	2698.017977
828.320872	2662.213182
828.638177	2636.420118
828.955439	2613.624020
829.272656	2592.494024
829.589830	2579.792837
829.906960	2568.180539
830.224046	2554.957592
830.541088	2550.367622
830.858086	2539.849254
831.175041	2539.582073
831.491952	2535.269366
831.808819	2535.924716
832.125642	2537.815149
832.442421	2544.754297
832.759157	2561.851370
833.075849	2584.062694
833.392497	2616.860441
833.709101	2637.642598
834.025662	2643.371869
834.342179	2633.120683
834.658653	2611.189143
834.975083	2596.836978
835.291469	2582.331058
835.607811	2565.992678
835.924110	2556.520350
836.240366	2544.310675
836.556578	2536.209541
836.872746	2533.232740
837.188871	2525.996163
837.504952	2521.625483
837.820990	2518.000893
838.136984	2513.806653
838.452935	2514.310769
838.768842	2511.465037
839.084706	2515.185409
839.400526	2528.231915
839.716303	2541.003678
840.032037	2553.314176
840.347727	2553.901471
840.663373	2549.001469
840.978977	2534.495549
841.294537	2532.481608
841.610054	2525.086235
841.925527	2518.565503
842.240957	2514.401510
842.556344	2512.629544
842.871687	2507.724501
843.186987	2505.327433
843.502244	2502.816938
843.817458	2496.034066
844.132629	2497.029693
844.447756	2497.533809
844.762840	2494.698160
845.077881	2498.058089
845.392879	2493.556338
845.707833	2492.117089
846.022745	2492.737151
846.337613	2493.775629
846.652438	2492.253200
846.967221	2493.508448
847.281960	2493.304281
847.596656	2491.834784
847.911309	2491.726400
848.225919	2491.711276
848.540485	2490.390494
848.855009	2491.625577
849.169490	2492.101966
849.483928	2489.276399
849.798323	2487.731285
850.112675	2490.244300
850.426984	2488.794969
850.741251	2492.275885
851.055474	2492.170021
851.369654	2489.871255
851.683792	2491.086173
851.997887	2489.659527
852.311938	2491.993581
852.625947	2490.466111
852.939914	2488.522746
853.253837	2492.374188
853.567718	2489.906543
853.881555	2491.585247
854.195350	2488.835298
854.509103	2489.800679
854.822812	2490.992912
855.136479	2489.256234
855.450103	2492.787563
855.763685	2487.839670
856.077224	2486.702890
856.390720	2486.604587
856.704173	2486.380256
857.017584	2489.546101
857.330953	2490.554331
857.644278	2492.318735
857.957561	2491.726400
858.270802	2489.742706
858.584000	2488.222798
858.897155	2491.096255
859.210268	2492.558190
859.523339	2490.037613
859.836367	2490.519043
860.149352	2490.715648
860.462295	2490.324959
860.775195	2490.231698
861.088054	2490.914774
861.400869	2489.125164
861.713642	2493.437871
862.026373	2490.201451
862.339062	2490.307315
862.651708	2489.989722
862.964312	2490.766060
863.276873	2492.142295
863.589392	2491.562562
863.901869	2491.635659
864.214303	2493.609271
864.526696	2495.426607
864.839045	2493.452995
865.151353	2493.112717
865.463619	2492.812768
865.775842	2495.083808
866.088023	2495.141781
866.400162	2495.769405
866.712258	2496.356699
867.024313	2495.565238
867.336325	2493.818478
867.648296	2496.696977
867.960224	2495.474497
868.272110	2495.839981
868.583954	2495.905516
868.895755	2496.941473
869.207515	2497.107831
869.519233	2494.801503
869.830909	2496.525578
870.142542	2499.701505
870.454134	2497.105311
870.765684	2497.823675
871.077191	2498.189159
871.388657	2498.075733
871.700081	2494.804024
872.011463	2498.917606
872.322803	2494.919971
872.634101	2502.491784
872.945357	2501.675117
873.256571	2502.401043
873.567744	2501.070178
873.878874	2501.788543
874.189963	2500.377020
874.501010	2504.180570
874.812015	2502.025477
875.122979	2503.815087
875.433900	2504.288955
875.744780	2503.245436
876.055618	2502.108656
876.366415	2504.969511
876.677169	2503.641167
876.987882	2504.997237
877.298554	2504.460354
877.609183	2509.922444
877.919771	2511.689369
878.230317	2511.339009
878.540822	2519.180523
878.851285	2521.229752
879.161707	2527.493386
879.472087	2535.523944
879.782425	2549.089689
880.092722	2576.987435
880.402977	2622.922428
880.713191	2677.505522
881.023363	2738.463154
881.333494	2779.772889
881.643583	2802.710139
881.953631	2807.010243
882.263637	2791.501134
882.573602	2772.952208
882.883526	2752.230545
883.193408	2728.121227
883.503248	2705.433514
883.813048	2686.783765
884.122806	2661.154539
884.432522	2642.910603
884.742197	2623.499641
885.051831	2603.844182
885.361424	2588.393045
885.670975	2573.793864
885.980485	2561.725341
886.289954	2553.460370
886.599382	2545.462579
886.908768	2540.489481
887.218113	2528.678057
887.527417	2525.676050
887.836680	2518.522653
888.145901	2519.548528
888.455082	2515.200533
888.764221	2515.739936
889.073319	2512.165758
889.382376	2511.326406
889.691392	2508.001765
890.000366	2513.239524
890.309300	2509.710716
890.618193	2511.026457
890.927044	2510.948319
891.235855	2511.580984
891.544625	2508.515963
891.853353	2513.194153
892.162041	2510.592918
892.470687	2517.839577
892.779293	2517.406037
893.087858	2523.533560
893.396381	2526.273427
893.704864	2540.592824
894.013306	2555.310473
894.321707	2577.289904
894.630068	2592.723396
894.938387	2597.257914
895.246665	2595.982502
895.554903	2589.076122
895.863100	2576.687486
896.171256	2568.767833
896.479371	2564.006463
896.787446	2559.691236
897.095480	2547.983156
897.403473	2543.614996
897.711425	2539.529141
898.019336	2534.414890
898.327207	2527.926925
898.635038	2524.370391
898.942827	2519.785462
899.250576	2517.060718
899.558284	2512.780779
899.865952	2513.877230
900.173579	2511.870850
900.481165	2507.144769
900.788711	2507.669049
901.096216	2506.502022
901.403681	2507.711898
901.711105	2506.507063
902.018489	2504.898935
902.325832	2503.142093
902.633135	2504.150323
902.940397	2509.806498
903.247619	2518.298322
903.554800	2542.936961
903.861941	2575.530541
904.169041	2604.189501
904.476101	2616.074021
904.783121	2617.520832
905.090100	2605.283431
905.397039	2592.317583
905.703938	2581.489185
906.010796	2571.827814
906.317614	2562.554611
906.624391	2551.816953
906.931129	2544.993752
907.237826	2537.520241
907.544483	2525.776873
907.851099	2524.463653
908.157675	2517.111130
908.464211	2510.754235
908.770707	2507.263236
909.077163	2502.406084
909.383578	2496.326453
909.689954	2497.254025
909.996289	2495.086329
910.302584	2495.577841
910.608839	2490.866883
910.915054	2490.103148
911.221229	2491.464260
911.527363	2489.359578
911.833458	2491.141626
912.139513	2492.071719
912.445527	2493.715135
912.751502	2493.478201
913.057436	2498.098418
913.363331	2497.937101
913.669186	2500.422390
913.975000	2507.570746
914.280775	2511.621313
914.586510	2523.009280
914.892205	2535.602082
915.197859	2553.167983
915.503475	2575.908628
915.809050	2593.880341
916.114585	2610.072527
916.420081	2616.633589
916.725536	2617.881275
917.030952	2610.861468
917.336328	2603.841661
917.641665	2598.273707
917.946961	2585.950606
918.252218	2578.434246
918.557435	2568.281362
918.862612	2565.233984
919.167750	2558.289795
919.472848	2552.515153
919.777906	2542.069883
920.082925	2536.433873
920.387904	2529.517409
920.692843	2526.772501
920.997743	2519.994670
921.302603	2515.417302
921.607423	2510.431601
921.912204	2509.710716
922.216946	2507.245592
922.521647	2503.086640
922.826310	2500.805518
923.130932	2501.604541
923.435516	2497.276710
923.740059	2498.206803
924.044564	2495.161946
924.349028	2496.492811
924.653454	2491.885196
924.957840	2491.418889
925.262186	2488.220277
925.566493	2487.388487
925.870761	2489.125164
926.174989	2487.736326
926.479178	2485.455204
926.783328	2485.407313
927.087438	2483.191726
927.391509	2485.729947
927.695541	2480.958495
927.999533	2482.611993
928.303486	2479.821715
928.607400	2479.688124
928.911275	2479.456231
929.215110	2481.644092
929.518906	2482.468321
929.822663	2480.913125
930.126381	2481.586119
930.430060	2482.291880
930.733699	2483.600060
931.037299	2480.396406
931.340861	2480.409009
931.644383	2483.098465
931.947866	2482.213742
932.251309	2480.479585
932.554714	2478.669811
932.858080	2478.352218
933.161407	2477.331385
933.464694	2477.250726
933.767943	2474.261322
934.071153	2481.006386
934.374323	2482.433032
934.677455	2481.351705
934.980548	2481.094606
935.283602	2482.077631
935.586617	2478.498412
935.889593	2483.617704
936.192530	2481.999493
936.495428	2480.877837
936.798287	2481.772641
937.101108	2481.870944
937.403890	2481.926397
937.706632	2483.337920
938.009336	2484.898157
938.312002	2487.176758
938.614628	2485.387149
938.917216	2488.066522
939.219765	2488.144660
939.522275	2493.692450
939.824747	2490.882006
940.127179	2492.449805
940.429573	2489.258755
940.731929	2493.566421
941.034246	2492.043992
941.336524	2491.265134
941.638763	2491.144146
941.940964	2489.384784
942.243126	2489.064670
942.545250	2487.065853
942.847335	2489.505771
943.149381	2485.157776
943.451389	2483.655512
943.753359	2485.538383
944.055290	2483.736171
944.357182	2485.976964
944.659036	2484.862869
944.960851	2485.160297
945.262628	2487.731285
945.564367	2484.862869
945.866067	2483.489154
946.167729	2483.310193
946.469352	2482.629638
946.770937	2480.151910
947.072484	2482.594349
947.373992	2484.681387
947.675462	2480.905563
947.976893	2481.402117
948.278286	2478.551344
948.579641	2477.447331
948.880958	2474.523462
949.182236	2482.375059
949.483476	2481.961685
949.784678	2482.203660
950.085841	2483.234576
950.386967	2482.138125
950.688054	2480.812302
950.989103	2483.975626
951.290114	2480.787096
951.591087	2480.809781
951.892021	2483.358084
952.192917	2485.067035
952.493776	2484.031078
952.794596	2486.836480
953.095378	2484.915801
953.396122	2485.162817
953.696828	2485.061994
953.997496	2485.677015
954.298126	2485.563589
954.598718	2484.615852
954.899272	2484.799854
955.199788	2482.889257
955.500266	2482.644761
955.800706	2480.915645
956.101108	2481.576036
956.401472	2478.299286
956.701798	2479.126036
957.002087	2475.927423
957.302337	2479.869606
957.602550	2477.041518
957.902724	2476.345839
958.202861	2475.572022
958.502960	2476.832311
958.803022	2475.660242
959.103045	2473.638740
959.403031	2475.660242
959.702979	2472.136476
960.002889	2474.331898
960.302762	2474.404995
960.602596	2472.237299
960.902393	2473.616054
961.202153	2474.341981
961.501875	2472.852320
961.801559	2473.076651
962.101205	2471.571867
962.400814	2472.507001
962.700385	2469.704119
962.999918	2468.436269
963.299414	2467.342338
963.598873	2467.486011
963.898293	2464.652883
964.197677	2470.087247
964.497022	2470.689665
964.796331	2471.004737
965.095601	2469.406691
965.394835	2469.968780
965.694030	2469.643625
965.993189	2472.325519
966.292309	2470.634212
966.591393	2472.098667
966.890439	2469.368882
967.189447	2471.123204
967.488419	2467.347380
967.787353	2471.644963
968.086249	2469.237812
968.385108	2470.609006
968.683930	2470.319140
968.982714	2469.734366
969.281462	2468.985755
969.580172	2470.039356
969.878844	2470.162864
970.177480	2469.202524
970.476078	2471.534058
970.774639	2472.103708
971.073162	2470.787967
971.371649	2471.435755
971.670098	2471.092957
971.968510	2470.190590
972.266885	2472.887608
972.565223	2474.067238
972.863524	2471.768472
973.161788	2475.287197
973.460014	2470.082206
973.758204	2474.314254
974.056356	2470.455251
974.354471	2474.316775
974.652550	2472.580097
974.950591	2470.437607
975.248595	2472.479274
975.546563	2473.031281
975.844493	2473.265694
976.142386	2471.050107
976.440243	2471.355097
976.738062	2469.434417
977.035845	2470.203193
977.333590	2473.240488
977.631299	2471.332412
977.928971	2469.043728
978.226606	2466.331587
978.524204	2469.699078
978.821765	2463.374950
979.119290	2472.433904
979.416777	2469.000878
979.714228	2470.372072
980.011642	2470.223358
980.309020	2473.396764
980.606360	2471.962556
980.903664	2472.771661
981.200931	2472.902731
981.498162	2473.066569
981.795356	2477.250726
982.092513	2478.616879
982.389633	2481.734833
982.686717	2482.503609
982.983764	2485.331696
983.280775	2486.866727
983.577749	2489.548621
983.874686	2485.082159
984.171587	2487.418734
984.468451	2488.041316
984.765279	2486.470997
985.062070	2486.589464
985.358824	2484.242807
985.655543	2482.554020
985.952224	2477.210397
986.248869	2479.118474
986.545478	2477.210397
986.842050	2471.889459
987.138586	2472.824593
987.435086	2469.784778
987.731549	2467.614561
988.027975	2469.741928
988.324366	2468.862246
988.620719	2468.731176
988.917037	2467.894345
989.213318	2467.377627
989.509563	2468.884932
989.805772	2471.854171
990.101944	2467.591876
990.398080	2466.669344
990.694180	2469.497432
990.990244	2469.348718
991.286271	2467.516258
991.582262	2468.620271
991.878217	2467.627164
992.174136	2468.622792
992.470019	2468.433748
992.765865	2466.729838
993.061676	2466.913840
993.357450	2467.365024
993.653188	2465.247739
993.948890	2469.419294
994.244556	2472.630509
994.540186	2467.349900
994.835780	2471.057669
995.131337	2471.236630
995.426859	2472.895169
995.722345	2476.489512
996.017795	2474.916672
996.313208	2477.739718
996.608586	2476.953298
996.903928	2477.754842
997.199234	2476.902887
997.494504	2479.388176
997.789738	2480.323310
998.084936	2477.480099
998.380099	2477.674183
998.675225	2477.396920
998.970316	2477.323823
999.265371	2475.282156
999.560390	2473.578246
999.855373	2470.523307
1000.150320	2468.814355
1000.445232	2471.430714
1000.740108	2472.401136
1001.034948	2466.349231
1001.329752	2466.707153
1001.624521	2468.101032
1001.919254	2465.194807
1002.213951	2469.976341
1002.508613	2467.140692
1002.803239	2468.209417
1003.097829	2468.199335
1003.392384	2468.995837
1003.686903	2465.658593
1003.981386	2467.367544
1004.275834	2465.368727
1004.570246	2464.708336
1004.864623	2463.803448
1005.158964	2467.909468
1005.453270	2467.917030
1005.747540	2467.138172
1006.041775	2464.451237
1006.335974	2465.905610
1006.630138	2466.566001
1006.924266	2466.571042
1007.218359	2464.824282
1007.512416	2462.694395
1007.806438	2462.306226
1008.100425	2463.153140
1008.394376	2462.160032
1008.688292	2465.373768
1008.982172	2465.272945
1009.276017	2466.238326
1009.569827	2463.170784
1009.863602	2465.416618
1010.157341	2465.416618
1010.451045	2465.406535
1010.744714	2463.145578
1011.038347	2465.761937
1011.331945	2465.356124
1011.625508	2466.152626
1011.919036	2464.904941
1012.212528	2465.036011
1012.505986	2462.306226
1012.799408	2462.054168
1013.092795	2465.404015
1013.386147	2464.552060
1013.679464	2464.300002
1013.972745	2465.063737
1014.265992	2466.056844
1014.559204	2464.133644
1014.852380	2464.720938
1015.145521	2464.577266
1015.438628	2462.737244
1015.731699	2465.189766
1016.024736	2463.359827
1016.317737	2464.360496
1016.610703	2465.769498
1016.903635	2463.705146
1017.196531	2465.484673
1017.489393	2464.022739
1017.782219	2464.857050
1018.075011	2464.708336
1018.367768	2466.117338
1018.660490	2466.240846
1018.953177	2466.240846
1019.245829	2466.240846
