Dividing Wavelength (nm)	Counts (n)	Blue Motor Position (mm): 0.000000	Red Motor Position (mm): 19.500000	
326.493990	2054.426468
326.888308	2054.426468
327.282561	2054.426468
327.676750	2028.308250
328.070874	2029.538292
328.464933	2035.701102
328.858929	2041.858872
329.252859	2053.151056
329.646726	2067.987172
330.040528	2083.944944
330.434265	2101.962028
330.827938	2120.228649
331.221547	2141.272946
331.615091	2160.943528
332.008571	2181.476148
332.401986	2201.489529
332.795338	2222.233877
333.188625	2241.796074
333.581847	2261.123858
333.975006	2276.184305
334.368100	2296.275824
334.761129	2312.362146
335.154095	2330.429641
335.546996	2345.694255
335.939833	2359.756554
336.332606	2371.545292
336.725315	2387.301418
337.117960	2395.281565
337.510540	2405.779768
337.903056	2415.307548
338.295508	2421.525812
338.687896	2427.484456
339.080220	2434.607606
339.472480	2436.868563
339.864676	2440.412495
340.256807	2444.268977
340.648875	2446.282918
341.040879	2446.663525
341.432818	2448.932045
341.824694	2449.650409
342.216506	2449.131170
342.608253	2447.187805
342.999937	2449.632765
343.391557	2450.343568
343.783113	2447.860799
344.174605	2445.211673
344.566033	2444.039605
344.957397	2446.391303
345.348697	2442.310489
345.739934	2438.910231
346.131106	2438.713626
346.522215	2437.420570
346.913260	2432.684406
347.304241	2431.340938
347.695159	2429.203489
348.086012	2430.378078
348.476802	2426.042686
348.867528	2425.256266
349.258191	2419.731161
349.648789	2422.299629
350.039324	2421.059505
350.429796	2425.072263
350.820203	2420.220153
351.210548	2419.577406
351.600828	2417.800399
351.991045	2416.414082
352.381198	2419.660585
352.771288	2416.981212
353.161314	2419.494227
353.551276	2417.150090
353.941175	2418.526325
354.331010	2418.496078
354.720782	2417.233269
355.110490	2417.903743
355.500135	2420.736871
355.889717	2419.353074
356.279235	2421.825760
356.668689	2420.119330
357.058080	2420.726789
357.447408	2418.528846
357.836672	2423.201995
358.225873	2423.885072
358.615010	2423.456574
359.004084	2423.597726
359.393095	2424.560586
359.782043	2427.844898
360.170927	2423.416244
360.559748	2424.235432
360.948505	2426.279620
361.337199	2428.275917
361.725830	2425.415062
362.114398	2427.759198
362.502903	2428.467481
362.891344	2429.200968
363.279722	2428.548139
363.668037	2429.546288
364.056289	2429.556370
364.444478	2432.984354
364.832603	2430.320105
365.220665	2430.796494
365.608665	2431.860177
365.996601	2430.289858
366.384474	2432.061823
366.772284	2430.292378
367.160031	2432.061823
367.547715	2435.706578
367.935336	2436.026691
368.322893	2430.211720
368.710388	2429.901689
369.097820	2432.858326
369.485189	2431.431679
369.872495	2436.944181
370.259738	2435.552822
370.646918	2438.529624
371.034035	2439.565581
371.421090	2441.123297
371.808081	2440.626744
372.195010	2442.439038
372.581875	2443.525407
372.968678	2443.139759
373.355418	2446.262754
373.742096	2448.014555
374.128710	2450.041098
374.515262	2450.424226
374.901751	2454.537808
375.288177	2458.953858
375.674540	2462.480146
376.060841	2465.421659
376.447079	2469.880559
376.833254	2475.937506
377.219367	2479.398258
377.605417	2485.251038
377.991404	2491.696153
378.377329	2496.898623
378.763191	2504.694768
379.148991	2511.633916
379.534727	2521.852335
379.920402	2534.631660
380.306013	2539.319933
380.691563	2553.893909
381.077049	2563.454457
381.462474	2573.995510
381.847835	2584.980184
382.233134	2600.910230
382.618371	2612.386417
383.003545	2628.389560
383.388657	2643.450007
383.773706	2664.743841
384.158693	2678.039884
384.543618	2694.889941
384.928480	2708.871581
385.313280	2731.914695
385.698017	2751.630648
386.082692	2773.854575
386.467305	2788.000052
386.851856	2812.290852
387.236344	2839.712208
387.620770	2858.273737
388.005133	2877.616644
388.389435	2913.124011
388.773674	2925.749581
389.157851	2958.617904
389.541965	2986.659323
389.926018	2995.274654
390.310008	3028.692463
390.693936	3057.726989
391.077802	3082.642892
391.461606	3116.481637
391.845348	3133.871097
392.229027	3161.776404
392.612645	3204.787529
392.996200	3234.429513
393.379694	3272.880914
393.763125	3316.428922
394.146494	3340.104701
394.529801	3376.708519
394.913047	3419.533121
395.296230	3426.492434
395.679351	3452.368677
396.062410	3500.869618
396.445408	3481.917400
396.828343	3522.418030
397.211217	3559.493196
397.594028	3526.211498
397.976778	3577.545568
398.359466	3613.098305
398.742092	3623.740181
399.124656	3635.239053
399.507158	3697.061243
399.889598	3703.889486
400.271977	3767.463477
400.654294	3752.839090
401.036549	3814.343687
401.418742	3814.447031
401.800874	3878.464644
402.182944	3910.322215
402.564952	3991.472189
402.946898	3988.863392
403.328783	3981.314264
403.710606	4031.962737
404.092367	4102.927060
404.474067	4170.428110
404.855705	4150.979338
405.237282	4128.707521
405.618797	4222.021799
406.000250	4299.053150
406.381642	4381.899473
406.762972	4383.623547
407.144240	4350.563660
407.525447	4415.544133
407.906593	4433.939304
408.287677	4513.894524
408.668700	4545.915933
409.049661	4584.473199
409.430560	4616.187097
409.811399	4596.413172
410.192176	4646.955780
410.572891	4732.489037
410.953545	4838.842260
411.334138	4735.279316
411.714669	4845.579762
412.095139	4754.952419
412.475547	4863.606928
412.855894	4872.859966
413.236180	4972.725224
413.616405	4897.576743
413.996568	5000.786807
414.376670	4999.503833
414.756711	4992.884798
415.136691	5064.275098
415.516609	5145.561183
415.896466	5178.121996
416.276262	5247.654631
416.655997	5355.280745
417.035670	5447.317091
417.415283	5575.022121
417.794834	5638.911184
418.174324	5594.561633
418.553753	5588.000571
418.933121	5737.995063
419.312428	5741.007152
419.691674	5655.602444
420.070859	5866.796544
420.449983	5731.509618
420.829045	5909.059057
421.208047	5820.654863
421.586988	5953.375840
421.965867	6002.212018
422.344686	6058.683024
422.723444	6193.642274
423.102141	5813.982895
423.480777	6157.199773
423.859352	5957.716274
424.237866	6272.158245
424.616319	6237.245734
424.994712	6356.020360
425.373044	6248.159832
425.751314	6494.488253
426.129524	6209.189192
426.507673	6410.989101
426.885762	6413.872641
427.263789	6409.141518
427.641756	6441.011693
428.019662	6472.216435
428.397508	6463.202852
428.775292	6400.037195
429.153016	6495.151165
429.530679	6392.661987
429.908282	6389.662500
430.285824	6296.403674
430.663305	6464.276618
431.040726	6327.021122
431.418086	6275.165293
431.795385	6324.306461
432.172624	6409.570017
432.549802	6271.926352
432.926920	6310.166024
433.303977	6209.489141
433.680974	6181.994688
434.057910	6256.971769
434.434786	6229.956226
434.811601	6143.114789
435.188355	6291.710360
435.565050	6166.258726
435.941683	6105.409479
436.318257	6242.181024
436.694770	6146.285675
437.071222	6217.260080
437.447614	6016.745665
437.823946	5929.420277
438.200218	5948.228822
438.576429	5810.086083
438.952580	5828.627447
439.328670	5763.263847
439.704700	5729.730091
440.080670	5610.015290
440.456580	5670.602398
440.832429	5584.774233
441.208218	5401.117437
441.583947	5377.290423
441.959616	5364.702662
442.335224	5308.319877
442.710773	5274.337458
443.086261	5281.649652
443.461689	5093.289459
443.837057	5092.374490
444.212365	5103.061736
444.587612	5025.586763
444.962800	4921.451648
445.337927	4894.947782
445.712995	4673.704142
446.088002	4829.838759
446.462949	4777.819093
446.837837	4709.539184
447.212664	4638.920181
447.587431	4812.325791
447.962139	5024.684397
448.336786	5214.380495
448.711374	5078.791101
449.085901	4688.280639
449.460369	4580.435234
449.834776	4448.009164
450.209124	4583.603600
450.583412	4474.916323
450.957640	4478.679544
451.331808	4320.571315
451.705917	4133.423520
452.079965	4044.626116
452.453954	4019.271632
452.827883	3940.483439
453.201752	3879.624109
453.575562	3818.220335
453.949311	3813.537103
454.323001	3764.032972
454.696632	3701.258004
455.070202	3721.387331
455.443713	3677.496525
455.817164	3640.610402
456.190556	3626.265799
456.563888	3561.582754
456.937160	3533.127961
457.310373	3429.050819
457.683526	3380.063407
458.056619	3333.858711
458.429653	3290.782052
458.802628	3259.047988
459.175542	3221.589695
459.548398	3220.964592
459.921194	3217.970146
460.293930	3204.379195
460.666607	3222.048440
461.039224	3231.142681
461.411782	3209.299362
461.784280	3149.793582
462.156719	3101.993361
462.529099	3060.673543
462.901419	2994.503358
463.273680	2944.464865
463.645882	2920.980650
464.018024	2888.336658
464.390106	2871.254708
464.762130	2885.175854
465.134094	2911.493198
465.505999	2953.990125
465.877845	2986.225783
466.249631	2988.030516
466.621358	2946.413271
466.993026	2899.482649
467.364634	2861.069057
467.736184	2821.430464
468.107674	2791.601957
468.479105	2773.925151
468.850477	2753.795823
469.221790	2732.643142
469.593043	2713.310317
469.964238	2693.957327
470.335373	2685.563806
470.706449	2687.058508
471.077467	2688.107068
471.448425	2706.572815
471.819324	2715.011706
472.190164	2709.600028
472.560945	2687.083714
472.931667	2666.435148
473.302330	2652.960144
473.672934	2642.451858
474.043479	2637.839203
474.413965	2637.438431
474.784393	2630.216978
475.154761	2633.957514
475.525070	2629.254118
475.895321	2623.489558
476.265513	2623.613067
476.635645	2625.611884
477.005719	2621.306739
477.375734	2622.229270
477.745691	2625.538787
478.115588	2626.123561
478.485427	2629.299488
478.855207	2639.843061
479.224928	2648.957467
479.594591	2655.929383
479.964194	2650.870585
480.333739	2649.784217
480.703226	2649.282622
481.072653	2649.292704
481.442022	2646.436891
481.811333	2645.156437
482.180584	2638.567649
482.549777	2637.990437
482.918912	2629.803603
483.287988	2632.581279
483.657005	2630.133799
484.025964	2626.393263
484.394864	2622.776235
484.763706	2622.546862
485.132489	2615.844648
485.501213	2615.297683
485.869879	2615.771552
486.238487	2612.988835
486.607036	2612.913217
486.975527	2607.357866
487.343959	2611.138731
487.712333	2610.150665
488.080648	2607.786364
488.448905	2608.887856
488.817104	2610.453134
489.185244	2614.443208
489.553326	2614.397837
489.921350	2623.368571
490.289315	2632.785446
490.657222	2635.059006
491.025070	2639.969090
491.392861	2633.516413
491.760593	2632.946763
492.128267	2628.450054
492.495883	2621.783128
492.863440	2618.128291
493.230939	2612.736777
493.598380	2610.216200
493.965763	2610.062445
494.333088	2606.158071
494.700354	2601.507607
495.067563	2604.703698
495.434713	2603.040118
495.801805	2606.901642
496.168839	2602.510797
496.535815	2602.467947
496.902733	2602.173039
497.269593	2601.747062
497.636395	2601.850405
498.003139	2602.818307
498.369825	2602.225971
498.736453	2603.642536
499.103023	2601.689088
499.469535	2603.791250
499.835989	2601.356372
500.202385	2597.691453
500.568723	2594.951586
500.935003	2598.601382
501.301226	2594.691967
501.667390	2606.465582
502.033497	2606.326950
502.399546	2604.592793
502.765537	2601.283276
503.131470	2605.963987
503.497345	2607.070520
503.863163	2600.459047
504.228923	2602.828389
504.594625	2606.470623
504.960269	2599.334870
505.325856	2604.953236
505.691385	2603.924840
506.056856	2604.370982
506.422270	2603.171188
506.787625	2604.988524
507.152924	2606.528596
507.518164	2606.657146
507.883347	2603.299737
508.248472	2605.162443
508.613540	2608.164451
508.978550	2609.349122
509.343503	2605.893411
509.708398	2605.822835
510.073236	2609.787702
510.438016	2610.405243
510.802738	2606.901642
511.167403	2608.151848
511.532010	2612.121756
511.896561	2612.106633
512.261053	2616.394134
512.625488	2613.465224
512.989866	2615.179216
513.354186	2612.797271
513.718449	2614.594442
514.082655	2618.138373
514.446803	2615.469082
514.810894	2616.852879
515.174927	2614.392796
515.538904	2616.154679
515.902822	2617.079731
516.266684	2614.014710
516.630488	2614.478496
516.994235	2618.597118
517.357925	2616.142077
517.721558	2616.830194
518.085133	2617.654423
518.448651	2615.491768
518.812112	2616.263064
519.175516	2613.457662
519.538863	2612.721654
519.902152	2620.727006
520.265385	2619.181892
520.628560	2621.180710
520.991678	2618.221552
521.354739	2621.266409
521.717743	2618.934876
522.080690	2617.039402
522.443580	2620.598457
522.806413	2620.084259
523.169189	2617.936727
523.531908	2621.067284
523.894569	2617.609052
524.257174	2618.637448
524.619722	2619.270112
524.982213	2619.590226
525.344647	2620.563168
525.707025	2616.810029
526.069345	2618.980246
526.431608	2618.007303
526.793815	2618.140894
527.155964	2616.608383
527.518057	2617.591408
527.880093	2613.392127
528.242072	2616.124432
528.603995	2611.947837
528.965860	2611.968001
529.327669	2613.180399
529.689421	2614.223917
530.051117	2611.526900
530.412755	2612.610748
530.774337	2609.548247
531.135862	2609.543206
531.497331	2608.822321
531.858743	2608.454317
532.220098	2610.783330
532.581396	2610.745521
532.942638	2610.385079
533.303824	2606.831065
533.664953	2608.056066
534.026025	2605.076744
534.387040	2604.859974
534.747999	2604.749069
535.108902	2605.321240
535.469748	2603.370313
535.830537	2605.752258
536.191270	2604.991044
536.551947	2601.374016
536.912567	2599.029880
537.273131	2601.653800
537.633638	2598.046855
537.994089	2604.570108
538.354483	2603.201435
538.714821	2602.624222
539.075103	2602.714963
539.435328	2603.849223
539.795497	2604.159254
540.155609	2601.573142
540.515665	2605.921137
540.875665	2598.815631
541.235609	2599.198758
541.595496	2604.287803
541.955328	2602.057093
542.315102	2599.874273
542.674821	2601.976434
543.034483	2600.562391
543.394090	2598.218254
543.753640	2600.312853
544.113134	2603.566918
544.472571	2600.736310
544.831953	2602.362083
545.191278	2600.660693
545.550548	2599.037442
545.909761	2602.173039
546.268918	2599.163470
546.628019	2602.873760
546.987064	2599.763368
547.346053	2596.468974
547.704986	2600.169181
548.063863	2600.012905
548.422684	2600.257401
548.781449	2599.279417
549.140158	2598.331680
549.498811	2598.457709
549.857408	2595.634663
550.215949	2597.515013
550.574434	2595.364961
550.932864	2598.818151
551.291237	2600.396032
551.649555	2598.810590
552.007817	2598.901330
552.366022	2599.907041
552.724173	2599.685230
553.082267	2598.964345
553.440305	2602.238574
553.798288	2598.863522
554.156215	2599.208841
554.514086	2596.053078
554.871902	2595.841350
555.229661	2597.028542
555.587365	2591.992429
555.945014	2599.806217
556.302606	2600.869901
556.660143	2599.730600
557.017625	2597.381423
557.375050	2600.625405
557.732421	2598.679520
558.089735	2598.225816
558.446994	2599.120621
558.804197	2601.893255
559.161345	2596.322780
559.518437	2597.492328
559.875474	2598.036772
560.232455	2598.467791
560.589381	2599.569283
560.946251	2600.431321
561.303065	2600.557349
561.659825	2598.225816
562.016528	2597.361258
562.373177	2597.509972
562.729770	2596.287492
563.086307	2595.188521
563.442789	2598.374530
563.799216	2598.787904
564.155587	2597.293202
564.511904	2598.755137
564.868164	2596.824375
565.224370	2598.636670
565.580520	2597.189859
565.936615	2600.612802
566.292654	2597.840167
566.648638	2596.690784
567.004567	2598.213213
567.360441	2597.978799
567.716260	2596.980651
568.072023	2597.673809
568.427732	2595.513675
568.783385	2599.349993
569.138982	2599.266814
569.494525	2597.588110
569.850013	2597.746906
570.205445	2597.804879
570.560823	2594.316401
570.916145	2599.082812
571.271412	2595.848912
571.626625	2596.990733
571.981782	2599.407966
572.336884	2593.721545
572.691931	2591.337079
573.046923	2596.398397
573.401860	2586.028744
573.756743	2591.543766
574.111570	2592.509147
574.466342	2595.574169
574.821059	2591.294229
575.175722	2593.504775
575.530330	2591.705083
575.884882	2591.657192
576.239380	2591.117789
576.593823	2590.154928
576.948211	2592.695670
577.302544	2589.108889
577.656823	2589.111410
578.011047	2590.175093
578.365216	2588.980340
578.719330	2589.681060
579.073389	2588.304825
579.427394	2590.162490
579.781344	2588.493868
580.135239	2587.029413
580.489080	2587.127716
580.842866	2584.644947
581.196597	2587.392376
581.550273	2586.343816
581.903895	2588.952613
582.257463	2588.267016
582.610975	2586.079156
582.964434	2587.339444
583.317837	2587.687284
583.671186	2585.955647
584.024481	2584.097982
584.377721	2588.216605
584.730906	2584.881882
585.084037	2584.647468
585.437113	2586.671491
585.790135	2582.956161
586.143103	2584.592015
586.496016	2583.450194
586.848874	2585.259968
587.201679	2583.987077
587.554428	2582.711665
587.907124	2582.754515
588.259765	2581.786613
588.612352	2585.408682
588.964884	2580.213773
589.317362	2583.719896
589.669786	2582.328537
590.022155	2579.424832
590.374470	2577.065572
590.726731	2579.326530
591.078937	2574.965932
591.431090	2582.424319
591.783188	2578.797209
592.135232	2581.705955
592.487222	2578.570357
592.839157	2579.674370
593.191038	2577.403330
593.542866	2578.136818
593.894639	2573.609862
594.246358	2578.227558
594.598022	2577.400809
594.949633	2577.436097
595.301190	2577.005079
595.652692	2576.392578
596.004141	2577.519276
596.355535	2575.369224
596.706876	2572.868812
597.058162	2571.752196
597.409395	2574.597928
597.760573	2574.267732
598.111698	2576.463155
598.462768	2571.207752
598.813785	2574.202197
599.164748	2572.662125
599.515657	2573.816549
599.866511	2573.115828
600.217312	2572.649522
600.568060	2570.580128
600.918753	2575.200346
601.269392	2574.386199
601.619978	2572.616754
601.970510	2572.049624
602.320988	2571.169943
602.671412	2573.831672
603.021783	2569.912175
603.372100	2570.363358
603.722363	2570.053327
604.072572	2570.738924
604.422728	2570.741445
604.772830	2571.250602
605.122878	2570.933009
605.472872	2569.307237
605.822813	2572.533575
606.172701	2569.755899
606.522534	2568.417473
606.872314	2573.806467
607.222041	2569.927299
607.571714	2571.374110
607.921333	2566.731207
608.270899	2568.558625
608.620411	2566.388409
608.969870	2571.232957
609.319276	2572.092474
609.668627	2569.410580
610.017926	2568.644325
610.367171	2571.457289
610.716362	2570.010478
611.065500	2568.321691
611.414585	2570.522155
611.763616	2571.941240
612.112594	2572.954512
612.461518	2571.994172
612.810389	2571.273287
613.159207	2571.459809
613.507971	2569.201372
613.856682	2573.309913
614.205340	2570.693554
614.553945	2572.004254
614.902496	2568.745148
615.250994	2571.419480
615.599439	2571.691702
615.947830	2570.149109
616.296169	2572.142886
616.644454	2571.880746
616.992686	2574.562640
617.340864	2572.321847
617.688990	2572.790674
618.037063	2570.973338
618.385082	2572.909141
618.733048	2572.778071
619.080961	2570.517114
619.428821	2573.609862
619.776628	2573.176322
620.124382	2569.380333
620.472083	2572.210941
620.819731	2574.797053
621.167326	2573.302351
621.514868	2570.877556
621.862357	2572.662125
622.209793	2571.870663
622.557176	2572.523493
622.904506	2570.212124
623.251783	2563.905640
623.599007	2566.141392
623.946179	2566.403532
624.293297	2568.581311
624.640363	2563.046124
624.987376	2564.140054
625.334336	2559.114024
625.681243	2561.440516
626.028097	2557.541184
626.374899	2563.116700
626.721647	2560.268448
627.068343	2564.440003
627.414987	2562.312636
627.761577	2563.368757
628.108115	2561.644683
628.454600	2558.609908
628.801032	2561.536298
629.147412	2560.006308
629.493739	2562.083263
629.840014	2558.506565
630.186236	2562.804148
630.532405	2555.698642
630.878521	2562.085784
631.224585	2558.128478
631.570597	2558.559497
631.916556	2558.650238
632.262462	2557.881462
632.608316	2556.943807
632.954117	2553.041954
633.299866	2556.316183
633.645562	2555.260062
633.991206	2556.510268
634.336797	2554.667726
634.682336	2552.883157
635.027823	2555.872562
635.373257	2554.004814
635.718639	2549.818136
636.063968	2554.692932
636.409245	2550.901984
636.754470	2550.682694
637.099642	2550.854093
637.444762	2549.452652
637.789829	2547.819318
638.134845	2549.838301
638.479808	2547.310162
638.824719	2546.606921
639.169577	2548.204967
639.514383	2547.277394
639.859137	2546.427960
640.203839	2544.363607
640.548489	2544.887887
640.893086	2545.830583
641.237632	2546.458207
641.582125	2545.757487
641.926566	2547.748742
642.270955	2541.792619
642.615292	2542.034594
642.959576	2543.496529
643.303809	2539.783719
643.647990	2543.574667
643.992118	2542.856303
644.336195	2546.838814
644.680219	2543.163813
645.024192	2544.192208
645.368112	2545.218083
645.711981	2541.525438
646.055797	2549.377035
646.399562	2545.220604
646.743274	2545.888557
647.086935	2548.935934
647.430544	2553.069680
647.774101	2552.003476
648.117606	2550.586912
648.461059	2551.910215
648.804460	2550.221428
649.147810	2544.963505
649.491108	2547.847045
649.834354	2548.537683
650.177548	2546.707744
650.520690	2545.916283
650.863781	2544.560213
651.206820	2542.150541
651.549807	2543.650284
651.892742	2544.010727
652.235626	2542.901673
652.578458	2542.954605
652.921238	2539.312371
653.263967	2541.139790
653.606644	2537.563091
653.949269	2541.656508
654.291843	2538.561239
654.634365	2541.071734
654.976836	2538.336908
655.319255	2538.301620
655.661622	2539.352701
656.003938	2539.158616
656.346203	2539.589635
656.688416	2540.310520
657.030577	2539.829090
657.372687	2537.737011
657.714746	2537.459747
658.056753	2541.517876
658.398708	2536.385982
658.740612	2539.582073
659.082465	2537.391692
659.424266	2533.537730
659.766016	2533.961187
660.107715	2533.724252
660.449362	2534.551002
660.790958	2539.130890
661.132503	2537.820190
661.473996	2538.286497
661.815438	2533.908254
662.156829	2537.258101
662.498168	2538.762886
662.839456	2535.213913
663.180693	2537.837834
663.521879	2538.321785
663.863013	2535.571835
664.204097	2537.172402
664.545129	2538.205838
664.886110	2539.181301
665.227040	2535.395395
665.567918	2538.720036
665.908746	2536.920344
666.249522	2537.792463
666.590248	2538.036959
666.930922	2538.896476
667.271545	2537.984027
667.612118	2538.621733
667.952639	2539.355221
668.293109	2536.761548
668.633528	2540.179450
668.973896	2538.079809
669.314213	2538.271373
669.654480	2535.324819
669.994695	2537.684079
670.334859	2538.442772
670.674973	2536.138965
671.015035	2538.500746
671.355047	2536.053265
671.695008	2538.044521
672.034918	2537.958822
672.374777	2538.372196
672.714585	2536.554860
673.054342	2537.943698
673.394049	2537.053934
673.733705	2539.176260
674.073310	2537.462268
674.412864	2537.873122
674.752368	2536.804397
675.091820	2534.142668
675.431223	2536.895138
675.770574	2535.072761
676.109875	2532.514375
676.449125	2532.630322
676.788324	2530.263500
677.127473	2531.894313
677.466571	2529.386339
677.805619	2534.651825
678.144616	2531.352389
678.483562	2533.694005
678.822458	2528.365506
679.161303	2532.201824
679.500098	2530.772657
679.838842	2532.438758
680.177535	2531.765764
680.516179	2532.988244
680.854771	2530.928932
681.193314	2533.648635
681.531805	2535.188707
681.870247	2534.775333
682.208638	2536.650642
682.546978	2540.033256
682.885268	2539.960160
683.223508	2539.549306
683.561697	2537.288348
683.899836	2537.863040
684.237925	2536.774150
684.575963	2535.226516
684.913951	2536.272556
685.251889	2535.859181
685.589776	2534.946732
685.927614	2535.571835
686.265401	2536.880015
686.603137	2534.719880
686.940824	2535.980169
687.278460	2541.885880
687.616046	2541.550644
687.953582	2537.769778
688.291068	2538.415046
688.628504	2540.643236
688.965889	2540.134079
689.303224	2540.358411
689.640510	2538.853626
689.977745	2537.535365
690.314930	2537.618544
690.652065	2536.179294
690.989150	2534.256094
691.326185	2533.336083
691.663170	2531.271731
692.000105	2527.604292
692.336990	2528.902389
692.673825	2529.340969
693.010610	2525.555063
693.347345	2522.124557
693.684030	2521.794362
694.020665	2521.202026
694.357251	2518.767149
694.693786	2522.416944
695.030272	2523.455422
695.366707	2520.455935
695.703093	2517.267406
696.039429	2521.333096
696.375716	2519.276305
696.711952	2522.237983
697.048139	2518.449556
697.384276	2519.767818
697.720363	2518.013496
698.056400	2516.259175
698.392388	2520.912160
698.728326	2518.109278
699.064214	2517.877385
699.400053	2520.745802
699.735842	2516.319669
700.071581	2516.085255
700.407270	2515.623989
700.742910	2515.664319
701.078501	2518.358815
701.414042	2517.292611
701.749533	2514.673732
702.084974	2514.963598
702.420366	2513.927641
702.755709	2514.497292
703.091002	2513.688186
703.426246	2512.445542
703.761440	2514.290604
704.096584	2513.630213
704.431679	2510.716426
704.766725	2513.002589
705.101721	2513.478978
705.436668	2510.875223
705.771565	2511.956550
706.106413	2512.264060
706.441212	2511.260871
706.775961	2512.072497
707.110661	2514.411592
707.445311	2514.136849
707.779913	2513.166427
708.114465	2514.870337
708.448967	2512.193484
708.783421	2517.537107
709.117825	2517.519463
709.452180	2516.929648
709.786485	2519.672036
710.120742	2517.305214
710.454949	2511.981756
710.789107	2517.562313
711.123216	2517.789165
711.457275	2519.041892
711.791286	2522.734537
712.125247	2522.716893
712.459159	2522.356450
712.793023	2525.136647
713.126837	2522.328724
713.460602	2523.964578
713.794318	2523.064732
714.127985	2521.897705
714.461602	2520.339989
714.795171	2523.599095
715.128691	2518.535256
715.462162	2517.562313
715.795584	2517.464011
716.128957	2517.214473
716.462281	2515.699607
716.795556	2516.652385
717.128782	2513.506705
717.461960	2513.239524
717.795088	2514.635923
718.128167	2511.490243
718.461198	2511.684328
718.794180	2513.113495
719.127113	2509.919924
719.459997	2508.521004
719.792833	2509.766169
720.125619	2507.916065
720.458357	2509.617455
720.791046	2508.982269
721.123686	2506.537310
721.456278	2504.538492
721.788821	2506.234840
722.121315	2508.200890
722.453761	2506.678462
722.786158	2505.745848
723.118506	2504.490601
723.450805	2507.238030
723.783056	2507.946312
724.115259	2505.594614
724.447412	2505.798781
724.779518	2508.750376
725.111574	2505.503873
725.443582	2508.725170
725.775542	2507.548061
726.107453	2509.793895
726.439315	2508.344563
726.771129	2510.824811
727.102895	2502.791732
727.434612	2509.776251
727.766281	2504.185611
728.097901	2513.047960
728.429473	2511.081910
728.760996	2513.632734
729.092471	2510.333298
729.423897	2511.830521
729.755276	2512.463186
730.086606	2511.079389
730.417887	2513.831859
730.749120	2516.508712
731.080305	2513.451252
731.411442	2517.078362
731.742530	2516.435615
732.073570	2517.574916
732.404562	2516.634741
732.735506	2519.087262
733.066401	2519.258661
733.397249	2512.228772
733.728048	2514.232631
734.058798	2513.554596
734.389501	2510.323216
734.720156	2509.763648
735.050762	2506.940602
735.381320	2509.418329
735.711831	2506.617968
736.042293	2506.693585
736.372707	2508.737773
736.703073	2503.469767
737.033391	2506.708709
737.363661	2506.088647
737.693883	2507.258195
738.024056	2505.395488
738.354182	2508.268946
738.684260	2507.434635
739.014290	2507.119563
739.344272	2509.168792
739.674207	2509.405726
740.004093	2511.023937
740.333931	2510.474451
740.663722	2510.792043
740.993464	2512.047291
741.323159	2510.451766
741.652806	2508.664677
741.982405	2509.453617
742.311956	2511.366735
742.641460	2510.648371
742.970915	2505.962618
743.300323	2506.950684
743.629683	2501.768378
743.958996	2503.656290
744.288260	2500.976917
744.617477	2506.716271
744.946647	2505.229130
745.275768	2503.227792
745.604842	2504.165447
745.933869	2503.714263
746.262847	2500.971876
746.591778	2505.047649
746.920662	2500.104797
747.249498	2501.503718
747.578286	2501.168481
747.907027	2502.630415
748.235720	2503.653770
748.564365	2504.941784
748.892963	2503.759634
749.221514	2502.955570
749.550017	2503.797442
749.878473	2500.767709
750.206881	2499.910713
750.535242	2502.433810
750.863555	2500.687051
751.191821	2501.281907
751.520039	2502.625374
751.848210	2501.160919
752.176334	2500.069509
752.504411	2502.910199
752.832440	2500.603872
753.160421	2501.216372
753.488356	2500.596310
753.816243	2504.304078
754.144082	2502.736280
754.471875	2500.147647
754.799620	2502.164109
755.127318	2499.308295
755.454969	2501.297030
755.782572	2501.639829
756.110129	2499.086484
756.437638	2503.192504
756.765100	2498.531957
757.092515	2502.582524
757.419882	2501.682678
757.747203	2499.930877
758.074477	2500.871053
758.401703	2500.034221
758.728882	2503.699140
759.056014	2502.620333
759.383099	2501.977586
759.710138	2500.586228
760.037129	2497.193531
760.364073	2503.908348
760.690970	2499.247801
761.017820	2503.815087
761.344623	2505.576970
761.671379	2502.605210
761.998088	2504.800632
762.324751	2508.896570
762.651366	2519.684639
762.977935	2525.779394
763.304456	2536.461599
763.630931	2538.488143
763.957359	2539.609799
764.283740	2536.580066
764.610074	2529.376257
764.936362	2523.175638
765.262602	2518.129443
765.588796	2513.267250
765.914943	2509.569564
766.241044	2506.406240
766.567097	2500.797956
766.893104	2500.127482
767.219064	2500.404746
767.544978	2500.210662
767.870845	2498.519354
768.196665	2498.594972
768.522438	2496.177738
768.848165	2497.468274
769.173846	2494.350320
769.499479	2496.558346
769.825066	2495.184631
770.150607	2494.410814
770.476101	2494.751092
770.801548	2492.850577
771.126949	2494.436020
771.452303	2492.918633
771.777611	2490.387973
772.102872	2490.692963
772.428087	2493.213540
772.753256	2490.766060
773.078378	2490.324959
773.403453	2490.241780
773.728482	2493.140443
774.053465	2488.736995
774.378401	2491.567603
774.703291	2492.107007
775.028135	2491.434013
775.352932	2488.832777
775.677683	2488.535349
776.002388	2487.953096
776.327046	2484.472179
776.651658	2486.763384
776.976224	2484.215080
777.300743	2488.636172
777.625216	2487.827067
777.949643	2488.298415
778.274024	2487.088538
778.598359	2487.524598
778.922647	2486.455873
779.246889	2486.622231
779.571086	2488.033754
779.895236	2487.915287
780.219339	2485.868579
780.543397	2486.990236
780.867409	2488.016110
781.191374	2489.311687
781.515294	2488.767242
781.839167	2489.120123
782.162995	2487.300267
782.486776	2485.654330
782.810511	2488.099289
783.134201	2486.904536
783.457844	2487.834629
783.781441	2485.760194
784.104993	2486.869248
784.428498	2487.753970
784.751958	2486.871768
785.075372	2491.227325
785.398739	2488.137098
785.722061	2487.461583
786.045337	2487.842191
786.368568	2488.033754
786.691752	2483.983187
787.014891	2487.635503
787.337983	2487.524598
787.661030	2491.227325
787.984031	2491.469301
788.306987	2496.328973
788.629897	2492.590957
788.952760	2495.653458
789.275579	2495.512306
789.598351	2494.168839
789.921078	2489.415031
790.243759	2490.846718
790.566395	2488.694146
790.888984	2490.909733
791.211529	2488.182468
791.534027	2490.718169
791.856480	2486.632314
792.178888	2481.984370
792.501249	2483.252220
792.823566	2485.520739
793.145836	2480.209884
793.468062	2486.329844
793.790241	2486.171048
794.112375	2488.046357
794.434464	2488.091728
794.756507	2486.841522
795.078505	2485.160297
795.400457	2488.679022
795.722364	2487.988384
796.044226	2491.857470
796.366042	2490.813951
796.687812	2489.911584
797.009538	2491.370998
797.331218	2492.656492
797.652852	2491.040803
797.974442	2489.142808
798.295986	2490.715648
798.617484	2489.762870
798.938938	2489.440236
799.260346	2487.887561
799.581709	2487.713641
799.903026	2487.464104
800.224299	2487.486789
800.545526	2488.941162
800.866708	2486.907057
801.187845	2487.403610
801.508936	2485.341778
801.829983	2485.041830
802.150984	2485.498054
802.471940	2484.686428
802.792851	2484.772128
803.113717	2485.099803
803.434538	2486.516367
803.755314	2484.051243
804.076045	2486.420585
804.396731	2483.547128
804.717372	2486.050060
805.037967	2483.912611
805.358518	2484.189875
805.679024	2484.736840
805.999485	2487.975781
806.319901	2487.023003
806.640272	2483.990749
806.960598	2484.230204
807.280879	2486.768425
807.601115	2487.126347
807.921306	2486.536532
808.241453	2486.274392
808.561554	2482.047384
808.881611	2484.814978
809.201623	2483.131232
809.521590	2486.206336
809.841513	2483.174082
810.161390	2485.172900
810.481223	2486.387818
810.801011	2484.537714
811.120755	2486.539052
811.440453	2483.942858
811.760107	2485.961840
812.079716	2485.377066
812.399281	2484.777169
812.718801	2485.170379
813.038276	2485.278764
813.357707	2482.929586
813.677093	2484.567961
813.996434	2485.722385
814.315731	2483.516881
814.634983	2483.393372
814.954191	2486.410503
815.273354	2486.912098
815.592473	2484.671305
815.911547	2485.079638
816.230577	2485.210708
816.549562	2487.658188
816.868502	2484.661223
817.187399	2486.846563
817.506250	2486.801192
817.825058	2488.900833
818.143821	2488.242962
818.462539	2490.193889
818.781213	2492.434682
819.099843	2494.874600
819.418429	2495.136740
819.736970	2500.029180
820.055466	2503.842813
820.373919	2511.888494
820.692327	2518.119361
821.010691	2529.847605
821.329011	2559.537481
821.647286	2607.556992
821.965517	2667.831547
822.283704	2713.645554
822.601847	2741.044225
822.919945	2722.928838
823.237999	2699.489994
823.556010	2669.454799
823.873976	2641.710809
824.191897	2613.790378
824.509775	2591.833633
824.827609	2573.312433
825.145398	2559.822306
825.463144	2557.997408
825.780845	2553.646892
826.098502	2558.519167
826.416116	2568.793039
826.733685	2581.743763
827.051210	2590.049064
827.368692	2587.926738
827.686129	2574.867629
828.003522	2564.195507
828.320872	2546.594318
828.638177	2535.087884
828.955439	2521.673374
829.272656	2518.701614
829.589830	2510.482012
829.906960	2504.881291
830.224046	2503.406753
830.541088	2496.691936
830.858086	2497.649755
831.175041	2496.460043
831.491952	2492.636328
831.808819	2495.577841
832.125642	2491.446616
832.442421	2498.017760
832.759157	2502.393481
833.075849	2512.755573
833.392497	2524.108251
833.709101	2534.130065
834.025662	2537.905889
834.342179	2533.716691
834.658653	2527.548839
834.975083	2515.850841
835.291469	2513.680625
835.607811	2506.688544
835.924110	2501.783502
836.240366	2500.845847
836.556578	2494.741010
836.872746	2494.892244
837.188871	2489.730103
837.504952	2490.030051
837.820990	2486.082828
838.136984	2482.511170
838.452935	2485.795482
838.768842	2484.325986
839.084706	2485.009062
839.400526	2488.724392
839.716303	2497.367451
840.032037	2497.927019
840.347727	2500.092194
840.663373	2498.055568
840.978977	2488.358909
841.294537	2494.352841
841.610054	2486.773466
841.925527	2488.318580
842.240957	2485.820688
842.556344	2484.129381
842.871687	2482.604432
843.186987	2481.225676
843.502244	2478.624441
843.817458	2480.383803
844.132629	2478.619400
844.447756	2477.870788
844.762840	2475.768627
845.077881	2479.037815
845.392879	2474.939357
845.707833	2476.958339
846.022745	2477.664101
846.337613	2473.769810
846.652438	2477.928762
846.967221	2474.261322
847.281960	2476.078658
847.596656	2475.637557
847.911309	2474.263843
848.225919	2477.608648
848.540485	2475.781230
848.855009	2475.342650
849.169490	2473.948771
849.483928	2473.706795
849.798323	2475.516569
850.112675	2475.380458
850.426984	2474.450365
850.741251	2473.878194
851.055474	2473.391723
851.369654	2474.462968
851.683792	2472.703606
851.997887	2473.346353
852.311938	2474.226034
852.625947	2476.648308
852.939914	2475.466158
853.253837	2475.312403
853.567718	2474.306693
853.881555	2473.391723
854.195350	2473.830303
854.509103	2475.319964
854.822812	2473.469861
855.136479	2474.205869
855.450103	2473.817701
855.763685	2471.571867
856.077224	2471.793677
856.390720	2474.412557
856.704173	2470.798049
857.017584	2472.499439
857.330953	2475.123359
857.644278	2473.643781
857.957561	2480.809781
858.270802	2474.634368
858.584000	2475.992958
858.897155	2477.762403
859.210268	2475.529172
859.523339	2473.434573
859.836367	2474.982207
860.149352	2474.407516
860.462295	2475.738380
860.775195	2474.609162
861.088054	2474.929275
861.400869	2474.294090
861.713642	2476.035808
862.026373	2475.098154
862.339062	2472.484315
862.651708	2475.340129
862.964312	2475.551857
863.276873	2474.349542
863.589392	2479.000007
863.901869	2472.988431
864.214303	2475.569502
864.526696	2476.923051
864.839045	2474.306692
865.151353	2476.582773
865.463619	2477.742239
865.775842	2476.040849
866.088023	2477.598566
866.400162	2476.529841
866.712258	2477.608648
867.024313	2478.889101
867.336325	2476.038329
867.648296	2478.730305
867.960224	2476.923051
868.272110	2472.375931
868.583954	2475.468678
868.895755	2478.677373
869.207515	2476.492033
869.519233	2479.123515
869.830909	2478.992445
870.142542	2475.690489
870.454134	2475.337608
870.765684	2480.779534
871.077191	2476.260140
871.388657	2475.821559
871.700081	2473.484984
872.011463	2476.124028
872.322803	2473.384161
872.634101	2478.533700
872.945357	2476.776858
873.256571	2481.263485
873.567744	2480.605614
873.878874	2478.740387
874.189963	2478.390027
874.501010	2480.991263
874.812015	2478.211066
875.122979	2481.540748
875.433900	2482.148207
875.744780	2477.490181
876.055618	2480.693834
876.366415	2479.451190
876.677169	2480.018320
876.987882	2481.704586
877.298554	2480.590491
877.609183	2481.848259
877.919771	2482.662405
878.230317	2481.064359
878.540822	2486.755822
878.851285	2486.312200
879.161707	2491.129023
879.472087	2492.626246
879.782425	2498.015239
880.092722	2511.190295
880.402977	2525.507172
880.713191	2550.246634
881.023363	2580.672518
881.333494	2598.404777
881.643583	2607.960284
881.953631	2610.269132
882.263637	2601.303440
882.573602	2592.483942
882.883526	2587.493199
883.193408	2576.831159
883.503248	2562.602502
883.813048	2555.373487
884.122806	2547.537014
884.432522	2538.084850
884.742197	2528.123530
885.051831	2522.144722
885.361424	2512.700120
885.670975	2508.568895
885.980485	2503.121928
886.289954	2502.169150
886.599382	2496.160094
886.908768	2492.112048
887.218113	2487.998466
887.527417	2487.557365
887.836680	2483.796665
888.145901	2489.868734
888.455082	2482.659884
888.764221	2483.499237
889.073319	2483.136273
889.382376	2480.716520
889.691392	2482.541417
890.000366	2480.698876
890.309300	2483.542086
890.618193	2484.530153
890.927044	2479.904894
891.235855	2483.098465
891.544625	2482.226345
891.853353	2485.046871
892.162041	2483.037971
892.470687	2484.386480
892.779293	2486.274392
893.087858	2488.192551
893.396381	2491.774291
893.704864	2499.146978
894.013306	2500.639160
894.321707	2506.630571
894.630068	2514.958557
894.938387	2519.064577
895.246665	2515.750018
895.554903	2515.097189
895.863100	2509.388082
896.171256	2504.276352
896.479371	2504.546054
896.787446	2500.656804
897.095480	2499.966166
897.403473	2495.736637
897.711425	2495.015752
898.019336	2493.848725
898.327207	2490.138436
898.635038	2489.765391
898.942827	2486.317242
899.250576	2486.385297
899.558284	2482.231386
899.865952	2484.010914
900.173579	2483.652992
900.481165	2481.208032
900.788711	2479.123515
901.096216	2479.456231
901.403681	2480.915645
901.711105	2480.908083
902.018489	2480.454380
902.325832	2478.274081
902.633135	2473.807618
902.940397	2481.397075
903.247619	2482.107878
903.554800	2497.473315
903.861941	2508.972187
904.169041	2521.713703
904.476101	2526.807789
904.783121	2523.251255
905.090100	2522.560617
905.397039	2516.123064
905.703938	2512.470748
906.010796	2506.993534
906.317614	2500.056906
906.624391	2500.505569
906.931129	2498.214365
907.237826	2493.591627
907.544483	2488.437047
907.851099	2488.971409
908.157675	2486.730616
908.464211	2481.003865
908.770707	2480.252733
909.077163	2478.780717
909.383578	2476.726446
909.689954	2475.226703
909.996289	2473.852989
910.302584	2475.773668
910.608839	2477.389358
910.915054	2472.612865
911.221229	2475.151086
911.527363	2474.800726
911.833458	2474.959522
912.139513	2475.955150
912.445527	2474.730149
912.751502	2475.186374
913.057436	2478.039667
913.363331	2476.963381
913.669186	2477.664101
913.975000	2477.775006
914.280775	2481.276088
914.586510	2487.822026
914.892205	2495.300578
915.197859	2498.983141
915.503475	2509.236848
915.809050	2514.638444
916.114585	2520.029958
916.420081	2525.557583
916.725536	2527.677388
917.030952	2525.139167
917.336328	2519.896367
917.641665	2514.734226
917.946961	2508.682321
918.252218	2508.309275
918.557435	2501.937257
918.862612	2504.714933
919.167750	2501.294510
919.472848	2499.212513
919.777906	2495.897954
920.082925	2493.838643
920.387904	2488.225318
920.692843	2487.222129
920.997743	2485.271202
921.302603	2485.132570
921.607423	2482.009576
921.912204	2481.460090
922.216946	2479.325161
922.521647	2480.136787
922.826310	2479.541931
923.130932	2479.095789
923.435516	2475.864409
923.740059	2475.440952
924.044564	2476.502115
924.349028	2477.260809
924.653454	2473.510190
924.957840	2475.970273
925.262186	2474.352063
925.566493	2472.791826
925.870761	2473.127062
926.174989	2471.513893
926.479178	2472.060858
926.783328	2471.218986
927.087438	2469.139510
927.391509	2471.355097
927.695541	2470.843420
927.999533	2469.361321
928.303486	2473.633698
928.607400	2470.266208
928.911275	2469.494911
929.215110	2469.648666
929.518906	2469.996506
929.822663	2470.319140
930.126381	2467.591876
930.430060	2470.843420
930.733699	2471.206383
931.037299	2469.993985
931.340861	2471.082875
931.644383	2470.893831
931.947866	2471.229068
932.251309	2469.169757
932.554714	2469.142030
932.858080	2468.612709
933.161407	2466.722277
933.464694	2467.480970
933.767943	2466.923923
934.071153	2469.378965
934.374323	2469.099181
934.677455	2471.410550
934.980548	2465.366206
935.283602	2469.003399
935.586617	2467.123048
935.889593	2467.959880
936.192530	2472.582618
936.495428	2471.004737
936.798287	2470.624130
937.101108	2468.421145
937.403890	2470.966928
937.706632	2469.714201
938.009336	2471.352576
938.312002	2472.312916
938.614628	2472.786785
938.917216	2473.101857
939.219765	2470.979531
939.522275	2472.514562
939.824747	2472.340643
940.127179	2473.842906
940.429573	2473.154789
940.731929	2472.353245
941.034246	2472.136476
941.336524	2472.020529
941.638763	2475.216621
941.940964	2474.067238
942.243126	2471.287041
942.545250	2473.091774
942.847335	2472.559933
943.149381	2473.865592
943.451389	2469.704119
943.753359	2473.147227
944.055290	2469.371403
944.357182	2470.298975
944.659036	2471.206383
944.960851	2472.963225
945.262628	2469.719243
945.564367	2472.751497
945.866067	2470.293934
946.167729	2471.103039
946.469352	2471.612196
946.770937	2470.145220
947.072484	2470.210755
947.373992	2470.172946
947.675462	2469.885601
947.976893	2468.022894
948.278286	2465.582976
948.579641	2467.780919
948.880958	2463.422841
949.182236	2468.232102
949.483476	2469.610858
949.784678	2471.801239
950.085841	2471.103039
950.386967	2467.405353
950.688054	2468.635394
950.989103	2468.653038
951.290114	2470.024232
951.591087	2471.846609
951.892021	2470.498101
952.192917	2470.480457
952.493776	2470.530868
952.794596	2473.490026
953.095378	2472.202011
953.396122	2469.094139
953.696828	2470.780405
953.997496	2470.919037
954.298126	2471.045066
954.598718	2469.999027
954.899272	2474.609162
955.199788	2474.296610
955.500266	2468.867288
955.800706	2472.254943
956.101108	2468.663121
956.401472	2470.452730
956.701798	2469.336115
957.002087	2468.030456
957.302337	2468.753862
957.602550	2469.651187
957.902724	2467.929633
958.202861	2465.981227
958.502960	2466.107256
958.803022	2466.361834
959.103045	2468.668162
959.403031	2466.054324
959.702979	2467.415435
960.002889	2466.213120
960.302762	2465.610702
960.602596	2466.568521
960.902393	2465.835033
961.202153	2463.586679
961.501875	2469.187401
961.801559	2464.428552
962.101205	2465.600620
962.400814	2464.484004
962.700385	2467.939715
962.999918	2461.769343
963.299414	2461.681123
963.598873	2462.742286
963.898293	2460.168777
964.197677	2466.255970
964.497022	2464.287399
964.796331	2464.927626
965.095601	2463.642132
965.394835	2464.433593
965.694030	2464.917543
965.993189	2464.728500
966.292309	2467.276803
966.591393	2462.326390
966.890439	2463.566514
967.189447	2466.359313
967.488419	2464.776391
967.787353	2466.220682
968.086249	2465.036011
968.385108	2464.100877
968.683930	2464.501648
968.982714	2465.099025
969.281462	2465.121710
969.580172	2464.378140
969.878844	2467.060034
970.177480	2464.615074
970.476078	2464.380661
970.774639	2464.032821
971.073162	2465.716566
971.371649	2469.257977
971.670098	2462.812862
971.968510	2464.317646
972.266885	2466.717235
972.565223	2465.615743
972.863524	2466.213120
973.161788	2466.802935
973.460014	2463.851339
973.758204	2466.394602
974.056356	2464.640280
974.354471	2466.845785
974.652550	2462.152471
974.950591	2465.487194
975.248595	2466.646659
975.546563	2465.146916
975.844493	2466.729838
976.142386	2465.373768
976.440243	2465.870322
976.738062	2465.802266
977.035845	2464.869653
977.333590	2466.608851
977.631299	2465.676237
977.928971	2464.688171
978.226606	2462.402008
978.524204	2463.443006
978.821765	2459.417645
979.119290	2464.937708
979.416777	2465.925774
979.714228	2465.038531
980.011642	2464.877214
980.309020	2468.592545
980.606360	2464.559622
980.903664	2465.260342
981.200931	2465.298151
981.498162	2467.745631
981.795356	2468.741259
982.092513	2466.460137
982.389633	2470.863584
982.686717	2467.964921
982.983764	2471.161012
983.280775	2470.704788
983.577749	2473.074130
983.874686	2473.333750
984.171587	2472.257463
984.468451	2470.034315
984.765279	2470.460292
985.062070	2472.585138
985.358824	2471.357618
985.655543	2469.126907
985.952224	2467.596917
986.248869	2471.869295
986.545478	2466.016515
986.842050	2467.831330
987.138586	2463.425362
987.435086	2467.327215
987.731549	2467.062554
988.027975	2467.332256
988.324366	2462.782615
988.620719	2467.929633
988.917037	2463.654734
989.213318	2464.983078
989.509563	2464.209261
989.805772	2463.145578
990.101944	2464.511731
990.398080	2465.073819
990.694180	2463.687502
990.990244	2461.197172
991.286271	2466.797894
991.582262	2463.289251
991.878217	2466.331587
992.174136	2463.276648
992.470019	2463.624488
992.765865	2463.584158
993.061676	2457.496965
993.357450	2462.485187
993.653188	2461.817234
993.948890	2464.236988
994.244556	2465.061216
994.540186	2463.405197
994.835780	2465.489714
995.131337	2465.093984
995.426859	2467.949797
995.722345	2466.699591
996.017795	2465.840075
996.313208	2467.831330
996.608586	2466.225723
996.903928	2471.024901
997.199234	2468.322843
997.494504	2470.258646
997.789738	2468.506845
998.084936	2469.757051
998.380099	2466.881073
998.675225	2466.094653
998.970316	2467.420476
999.265371	2469.096660
999.560390	2465.388891
999.855373	2465.063737
1000.150320	2465.812348
1000.445232	2464.967955
1000.740108	2463.642132
1001.034948	2465.144395
1001.329752	2464.088274
1001.624521	2462.913685
1001.919254	2465.560291
1002.213951	2465.562811
1002.508613	2463.692543
1002.803239	2462.495269
1003.097829	2464.171453
1003.392384	2463.523664
1003.686903	2465.066257
1003.981386	2463.253963
1004.275834	2463.216154
1004.570246	2458.669033
1004.864623	2465.890486
1005.158964	2464.814200
1005.453270	2461.290433
1005.747540	2461.729014
1006.041775	2461.711370
1006.335974	2463.841257
1006.630138	2462.540639
1006.924266	2463.584158
1007.218359	2461.746658
1007.512416	2461.305557
1007.806438	2461.537450
1008.100425	2461.134157
1008.394376	2458.744651
1008.688292	2461.718931
1008.982172	2459.268931
1009.276017	2462.154991
1009.569827	2463.803448
1009.863602	2463.130454
1010.157341	2460.476287
1010.451045	2462.422172
1010.744714	2460.829168
1011.038347	2464.236988
1011.331945	2461.938222
1011.625508	2463.349745
1011.919036	2462.724642
1012.212528	2461.875207
1012.505986	2461.345886
1012.799408	2462.664148
1013.092795	2463.904272
1013.386147	2462.681792
1013.679464	2460.488890
1013.972745	2463.778243
1014.265992	2462.911164
1014.559204	2462.354117
1014.852380	2464.484004
1015.145521	2465.078860
1015.438628	2459.447892
1015.731699	2462.500310
1016.024736	2460.700618
1016.317737	2461.832357
1016.610703	2462.739765
1016.903635	2463.485856
1017.196531	2460.907306
1017.489393	2461.802110
1017.782219	2461.040896
1018.075011	2462.805300
1018.367768	2463.989971
1018.660490	2464.163891
1018.953177	2464.163891
1019.245829	2464.163891
