Dividing Wavelength (nm)	Counts (n)	Blue Motor Position (mm): 0.000000	Red Motor Position (mm): 31.500000	
326.493990	2052.052085
326.888308	2052.052085
327.282561	2052.052085
327.676750	2026.069978
328.070874	2026.039731
328.464933	2033.770340
328.858929	2041.606814
329.252859	2051.258103
329.646726	2064.266800
330.040528	2083.042578
330.434265	2097.014136
330.827938	2117.337548
331.221547	2138.447379
331.615091	2158.387663
332.008571	2179.331137
332.401986	2201.655887
332.795338	2219.788917
333.188625	2241.536455
333.581847	2257.698394
333.975006	2278.281425
334.368100	2293.384722
334.761129	2312.364666
335.154095	2329.451657
335.546996	2346.004286
335.939833	2373.491177
336.332606	2389.043137
336.725315	2399.894221
337.117960	2408.529717
337.510540	2421.069587
337.903056	2427.040834
338.295508	2435.378903
338.687896	2441.579522
339.080220	2446.650923
339.472480	2451.797941
339.864676	2453.522015
340.256807	2457.907819
340.648875	2459.611729
341.040879	2465.393932
341.432818	2464.126082
341.824694	2463.024590
342.216506	2463.112810
342.608253	2465.477112
342.999937	2462.946452
343.391557	2464.363017
343.783113	2461.633232
344.174605	2460.768674
344.566033	2457.045782
344.957397	2456.392952
345.348697	2455.324228
345.739934	2452.478496
346.131106	2454.124433
346.522215	2449.859617
346.913260	2449.965481
347.304241	2446.847527
347.695159	2445.841817
348.086012	2448.044802
348.476802	2441.844182
348.867528	2436.117432
349.258191	2437.685230
349.648789	2438.239757
350.039324	2434.683223
350.429796	2438.537185
350.820203	2436.220775
351.210548	2437.034922
351.600828	2436.089705
351.991045	2434.968048
352.381198	2435.187339
352.771288	2433.682554
353.161314	2435.010898
353.551276	2436.014088
353.941175	2433.909406
354.331010	2436.409818
354.720782	2435.497370
355.110490	2436.303954
355.500135	2436.104829
355.889717	2435.177256
356.279235	2435.769592
356.668689	2437.362597
357.058080	2434.607606
357.447408	2437.574325
357.836672	2437.281938
358.225873	2436.606423
358.615010	2439.053904
359.004084	2440.548606
359.393095	2440.425098
359.782043	2438.075920
360.170927	2440.379727
360.559748	2438.322936
360.948505	2440.178081
361.337199	2445.642692
361.725830	2444.175716
362.114398	2445.751077
362.502903	2442.328133
362.891344	2448.344750
363.279722	2443.706889
363.668037	2446.698813
364.056289	2446.383741
364.444478	2446.842486
364.832603	2448.342230
365.220665	2448.490944
365.608665	2448.710234
365.996601	2448.468258
366.384474	2448.337188
366.772284	2450.371294
367.160031	2449.610080
367.547715	2449.738629
367.935336	2452.977571
368.322893	2449.385748
368.710388	2448.707713
369.097820	2451.497992
369.485189	2446.603032
369.872495	2454.628548
370.259738	2452.173507
370.646918	2457.701132
371.034035	2456.576954
371.421090	2458.454784
371.808081	2457.993519
372.195010	2458.127109
372.581875	2460.269600
372.968678	2460.567028
373.355418	2464.620115
373.742096	2468.007771
374.128710	2468.922740
374.515262	2472.469192
374.901751	2471.554223
375.288177	2476.650829
375.674540	2481.520584
376.060841	2483.670636
376.447079	2487.476707
376.833254	2493.165649
377.219367	2497.944663
377.605417	2502.597648
377.991404	2509.027640
378.377329	2517.872344
378.763191	2522.391738
379.148991	2528.700742
379.534727	2539.750952
379.920402	2548.535162
380.306013	2557.725186
380.691563	2572.256312
381.077049	2580.879205
381.462474	2591.821030
381.847835	2605.374172
382.233134	2619.312962
382.618371	2629.574231
383.003545	2647.498053
383.388657	2662.003974
383.773706	2681.707323
384.158693	2691.771987
384.543618	2711.059442
384.928480	2721.948334
385.313280	2746.672673
385.698017	2764.898965
386.082692	2792.907616
386.467305	2808.373876
386.851856	2827.336176
387.236344	2856.234590
387.620770	2872.951056
388.005133	2894.186917
388.389435	2927.216557
388.773674	2941.959411
389.157851	2974.084164
389.541965	3003.196828
389.926018	3014.012623
390.310008	3043.493291
390.693936	3071.786767
391.077802	3101.564863
391.461606	3131.847074
391.845348	3147.371307
392.229027	3178.661749
392.612645	3219.313614
392.996200	3247.813777
393.379694	3285.584622
393.763125	3329.588854
394.146494	3353.768748
394.529801	3393.089748
394.913047	3435.952159
395.296230	3442.772840
395.679351	3464.159935
396.062410	3515.403264
396.445408	3493.786797
396.828343	3537.360010
397.211217	3571.370154
397.594028	3541.748334
397.976778	3590.647527
398.359466	3624.761015
398.742092	3636.569917
399.124656	3650.576763
399.507158	3708.799570
399.889598	3719.209553
400.271977	3776.361114
400.654294	3769.469856
401.036549	3825.603104
401.418742	3828.829443
401.800874	3900.617994
402.182944	3926.237138
402.564952	4006.547760
402.946898	4006.630939
403.328783	3995.689115
403.710606	4049.475706
404.092367	4122.060759
404.474067	4180.853216
404.855705	4166.097759
405.237282	4139.419973
405.618797	4235.411103
406.000250	4311.774502
406.381642	4399.281371
406.762972	4399.601484
407.144240	4366.861711
407.525447	4429.581226
407.906593	4447.404226
408.287677	4532.466135
408.668700	4557.089651
409.049661	4598.313687
409.430560	4634.010097
409.811399	4616.517293
410.192176	4667.667361
410.572891	4746.022015
410.953545	4854.205176
411.334138	4754.934775
411.714669	4864.915108
412.095139	4774.746509
412.475547	4885.984610
412.855894	4889.342019
413.236180	4995.813708
413.616405	4919.941822
413.996568	5028.830746
414.376670	5025.543913
414.756711	5017.581411
415.136691	5094.186785
415.516609	5182.379251
415.896466	5209.793045
416.276262	5290.693482
416.655997	5402.667591
417.035670	5503.339434
417.415283	5644.204396
417.794834	5714.147885
418.174324	5674.002656
418.553753	5677.108007
418.933121	5840.643038
419.312428	5851.118555
419.691674	5777.167349
420.070859	6010.056054
420.449983	5880.455550
420.829045	6081.204378
421.208047	6005.750908
421.586988	6164.673283
421.965867	6240.575416
422.344686	6321.284289
422.723444	6485.164639
423.102141	6099.612152
423.480777	6493.356514
423.859352	6307.279964
424.237866	6677.439288
424.616319	6670.396796
424.994712	6838.083217
425.373044	6749.792448
425.751314	7063.553864
426.129524	6783.127078
426.507673	7049.922584
426.885762	7097.183401
427.263789	7134.671942
427.641756	7226.680561
428.019662	7308.329609
428.397508	7349.251176
428.775292	7328.716036
429.153016	7496.321798
429.530679	7430.161695
429.908282	7478.715568
430.285824	7421.445540
430.663305	7706.948768
431.040726	7583.740447
431.418086	7594.616736
431.795385	7725.742189
432.172624	7914.094820
432.549802	7800.772202
432.926920	7936.555681
433.303977	7879.202474
433.680974	7922.594206
434.057910	8123.176676
434.434786	8175.534100
434.811601	8129.122717
435.188355	8469.083009
435.565050	8354.013631
435.941683	8366.868573
436.318257	8703.791570
436.694770	8650.511615
437.071222	8879.072489
437.447614	8655.209971
437.823946	8628.771639
438.200218	8776.195142
438.576429	8656.911360
438.952580	8821.285743
439.328670	8829.669182
439.704700	8898.904389
440.080670	8796.505951
440.456580	9068.070388
440.832429	9043.368734
441.208218	8785.397769
441.583947	8897.240808
441.959616	9012.335391
442.335224	9044.755052
442.710773	9126.895612
443.086261	9307.741966
443.461689	9031.688381
443.837057	9197.527219
444.212365	9413.341536
444.587612	9398.311336
444.962800	9293.823340
445.337927	9423.950644
445.712995	8967.885017
446.088002	9638.829827
446.462949	9691.651037
446.837837	9683.701137
447.212664	9699.953817
447.587431	10537.087825
447.962139	11540.453881
448.336786	12487.868170
448.711374	12275.381015
449.085901	11067.762528
449.460369	10980.028808
449.834776	10753.970866
450.209124	11678.987309
450.583412	11493.734987
450.957640	11819.620378
451.331808	11406.195351
451.705917	10825.847638
452.079965	10704.960768
452.453954	10912.063971
452.827883	10850.468633
453.201752	10824.763790
453.575562	10828.300159
453.949311	11177.904178
454.323001	11240.845505
454.696632	11162.243834
455.070202	11745.502813
455.443713	11807.405662
455.817164	11974.832463
456.190556	12297.793985
456.563888	12164.556288
456.937160	12428.629571
457.310373	11910.993812
457.683526	11923.659711
458.056619	11946.375150
458.429653	12010.579285
458.802628	12142.463432
459.175542	12201.966691
459.548398	12748.836102
459.921194	13333.781347
460.293930	13602.016102
460.666607	14460.098624
461.039224	15257.616725
461.411782	15619.304390
461.784280	15300.930318
462.156719	15247.088275
462.529099	15160.317414
462.901419	14517.300597
463.273680	14118.623466
463.645882	14335.952649
464.018024	14209.081930
464.390106	14569.834461
464.762130	15634.195958
465.134094	17152.573852
465.505999	19434.028684
465.877845	21713.283052
466.249631	22994.454493
466.621358	22544.239126
466.993026	21745.392681
467.364634	21012.870178
467.736184	20199.600992
468.107674	19580.897660
468.479105	19440.433470
468.850477	19163.742179
469.221790	18729.126662
469.593043	18061.466165
469.964238	17670.849838
470.335373	17714.430613
470.706449	18440.535728
471.077467	19281.397669
471.448425	21752.818301
471.819324	23638.101455
472.190164	23564.619076
472.560945	21807.378709
472.931667	20223.692667
473.302330	19889.501975
473.672934	19324.134051
474.043479	19753.741182
474.413965	19534.385454
474.784393	19348.462659
475.154761	20014.567961
475.525070	20134.033225
475.895321	19967.902000
476.265513	20490.692339
476.635645	21079.695713
477.005719	21135.957511
477.375734	21484.331488
477.745691	22120.245320
478.115588	22746.704467
478.485427	23924.814559
478.855207	25714.698917
479.224928	27501.692174
479.594591	28935.048488
479.964194	28597.412168
480.333739	29067.378777
480.703226	29271.530384
481.072653	29674.938638
481.442022	30170.423567
481.811333	30568.828476
482.180584	30122.991351
482.549777	29908.084442
482.918912	29643.401180
483.287988	29561.923531
483.657005	29399.013603
484.025964	28993.972015
484.394864	29186.700368
484.763706	29083.321426
485.132489	28513.855043
485.501213	28558.754080
485.869879	28709.512306
486.238487	28611.918088
486.607036	28841.293109
486.975527	28485.241454
487.343959	28813.123141
487.712333	29120.575552
488.080648	29033.900474
488.448905	29418.500183
488.817104	29256.548075
489.185244	30020.045948
489.553326	30874.980270
489.921350	32623.098669
490.289315	35010.576527
490.657222	35820.021997
491.025070	36349.338110
491.392861	36014.035844
491.760593	35214.143361
492.128267	34185.730332
492.495883	33157.352592
492.863440	32237.543661
493.230939	31208.112319
493.598380	30591.082650
493.965763	30344.179537
494.333088	29770.576888
494.700354	29508.870427
495.067563	29379.975685
495.434713	29168.607666
495.801805	29340.783235
496.168839	29090.552961
496.535815	28856.078813
496.902733	28861.177940
497.269593	28574.575741
497.636395	28610.897255
498.003139	28752.042001
498.369825	28416.802749
498.736453	28668.686522
499.103023	28391.113029
499.469535	28350.942595
499.835989	28327.244131
500.202385	28083.723632
500.568723	27990.237955
500.935003	28119.656977
501.301226	27833.994953
501.667390	28357.468368
502.033497	28400.028310
502.399546	28065.772083
502.765537	27562.838849
503.131470	27833.347165
503.497345	28035.988947
503.863163	26997.294485
504.228923	27480.831879
504.594625	27647.207600
504.960269	27049.667032
505.325856	27423.639989
505.691385	26968.035628
506.056856	27078.719202
506.422270	27287.261654
506.787625	26723.154018
507.152924	26898.566007
507.518164	26848.794695
507.883347	26336.474833
508.248472	26258.286537
508.613540	26599.406294
508.978550	26575.216317
509.343503	26258.054643
509.708398	26325.230539
510.073236	26566.666520
510.438016	26431.873628
510.802738	25980.738250
511.167403	26172.833938
511.532010	26142.748332
511.896561	26315.314589
512.261053	26632.478784
512.625488	26240.256850
512.989866	25956.941483
513.354186	25785.149042
513.718449	25549.568361
514.082655	25923.548880
514.446803	25485.084442
514.810894	25670.490519
515.174927	25442.106085
515.538904	25226.561470
515.902822	25397.456585
516.266684	24961.956346
516.630488	24954.147598
516.994235	24723.615633
517.357925	24847.852349
517.721558	24773.281081
518.085133	24764.164154
518.448651	24637.283353
518.812112	24339.013403
519.175516	24193.694582
519.538863	24213.135792
519.902152	24010.350337
520.265385	24078.095883
520.628560	23843.304143
520.991678	23563.565474
521.354739	23454.903403
521.717743	23413.996960
522.080690	23099.842335
522.443580	23245.667792
522.806413	22990.146827
523.169189	22810.280979
523.531908	22683.974869
523.894569	22366.102393
524.257174	22219.112429
524.619722	22157.484323
524.982213	21983.211635
525.344647	21768.702977
525.707025	21576.244326
526.069345	21547.340870
526.431608	21275.841968
526.793815	21211.524407
527.155964	20756.872824
527.518057	20628.986312
527.880093	20326.844757
528.242072	20382.020185
528.603995	20024.100783
528.965860	19759.601523
529.327669	19612.593915
529.689421	19419.313556
530.051117	19176.823974
530.412755	19058.422393
530.774337	18847.583695
531.135862	18598.361652
531.497331	18441.198640
531.858743	18213.653558
532.220098	18148.186614
532.581396	17817.184452
532.942638	17500.320207
533.303824	17383.201600
533.664953	17184.814552
534.026025	16859.617279
534.387040	16841.882500
534.747999	16659.060014
535.108902	16570.222281
535.469748	16131.309180
535.830537	16026.430495
536.191270	15910.473874
536.551947	15626.354443
536.912567	15508.290620
537.273131	15357.613052
537.633638	15059.186827
537.994089	14918.906639
538.354483	14648.789013
538.714821	14660.297967
539.075103	14552.712182
539.435328	14333.230426
539.795497	14083.174072
540.155609	13935.140589
540.515665	13914.668463
540.875665	13554.281416
541.235609	13435.582408
541.595496	13304.893015
541.955328	13265.400616
542.315102	12950.930918
542.674821	12748.586564
543.034483	12539.529914
543.394090	12374.240562
543.753640	12210.798793
544.113134	12286.423662
544.472571	11921.449165
544.831953	12003.430929
545.191278	11691.280163
545.550548	11460.843979
545.909761	11441.758171
546.268918	11310.920064
546.628019	11231.325286
546.987064	10971.365585
547.346053	10690.187667
547.704986	10709.656603
548.063863	10505.472228
548.422684	10390.871678
548.781449	10166.429427
549.140158	10113.840110
549.498811	9937.508110
549.857408	9697.241676
550.215949	9688.134832
550.574434	9538.377275
550.932864	9382.156958
551.291237	9368.775215
551.649555	9202.840595
552.007817	9091.736085
552.366022	8908.923682
552.724173	8793.894633
553.082267	8723.515085
553.440305	8648.054053
553.798288	8420.902181
554.156215	8348.927107
554.514086	8254.450843
554.871902	8086.028413
555.229661	7984.623083
555.587365	7829.920154
555.945014	7725.734627
556.302606	7613.924356
556.660143	7513.403748
557.017625	7427.767147
557.375050	7278.929600
557.732421	7219.615384
558.089735	7118.804910
558.446994	6997.325705
558.804197	6939.992663
559.161345	6822.190979
559.518437	6657.995557
559.875474	6576.371715
560.232455	6500.010837
560.589381	6406.633544
560.946251	6297.797553
561.303065	6256.873467
561.659825	6133.221524
562.016528	6025.257653
562.373177	5902.767697
562.729770	5865.488364
563.086307	5744.147791
563.442789	5696.539134
563.799216	5604.656544
564.155587	5519.511455
564.511904	5430.898053
564.868164	5359.391806
565.224370	5304.105472
565.580520	5210.637438
565.936615	5144.689064
566.292654	5055.863933
566.648638	5002.301673
567.004567	4936.481848
567.360441	4874.735275
567.716260	4794.245692
568.072023	4751.595010
568.427732	4681.593548
568.783385	4603.833750
569.138982	4561.616607
569.494525	4515.643805
569.850013	4443.051189
570.205445	4393.380700
570.560823	4331.407276
570.916145	4276.914923
571.271412	4235.940425
571.626625	4178.584697
571.981782	4129.660299
572.336884	4070.583017
572.691931	4036.469529
573.046923	3986.330212
573.401860	3939.104683
573.756743	3899.125813
574.111570	3869.786297
574.466342	3827.087724
574.821059	3794.549597
575.175722	3748.692741
575.530330	3716.779716
575.884882	3671.802542
576.239380	3639.748365
576.593823	3614.625775
576.948211	3582.543872
577.302544	3541.980227
577.656823	3516.940816
578.011047	3497.106396
578.365216	3471.033549
578.719330	3439.836368
579.073389	3420.059922
579.427394	3396.270717
579.781344	3372.640308
580.135239	3351.044005
580.489080	3332.031293
580.842866	3309.431800
581.196597	3295.694656
581.550273	3280.326699
581.903895	3264.714245
582.257463	3254.470621
582.610975	3235.349524
582.964434	3226.212433
583.317837	3203.711242
583.671186	3188.106351
584.024481	3178.039167
584.377721	3161.448729
584.730906	3155.101917
585.084037	3142.095740
585.437113	3129.329017
585.790135	3118.397275
586.143103	3103.563680
586.496016	3093.988008
586.848874	3089.544231
587.201679	3082.360587
587.554428	3064.348544
587.907124	3059.468708
588.259765	3049.046122
588.612352	3042.036397
588.964884	3029.499048
589.317362	3024.941845
589.669786	3020.369518
590.022155	3013.518590
590.374470	3006.145903
590.726731	2997.225581
591.078937	2981.378714
591.431090	2982.838128
591.783188	2973.096098
592.135232	2963.560756
592.487222	2961.551856
592.839157	2956.949282
593.191038	2948.331430
593.542866	2942.587035
593.894639	2931.746034
594.246358	2930.561363
594.598022	2925.429468
594.949633	2916.468817
595.301190	2909.811973
595.652692	2907.732497
596.004141	2907.644277
596.355535	2893.329921
596.706876	2889.987636
597.058162	2884.646533
597.409395	2881.432798
597.760573	2879.890205
598.111698	2871.852085
598.462768	2868.345962
598.813785	2867.259594
599.164748	2860.690970
599.515657	2858.331710
599.866511	2850.235617
600.217312	2852.635206
600.568060	2841.844617
600.918753	2847.742767
601.269392	2839.883608
601.619978	2837.012671
601.970510	2834.439162
602.320988	2834.265242
602.671412	2832.768019
603.021783	2828.707370
603.372100	2820.523056
603.722363	2819.620690
604.072572	2816.243117
604.422728	2815.706234
604.772830	2815.741522
605.122878	2808.356232
605.472872	2808.104174
605.822813	2806.601910
606.172701	2802.079995
606.522534	2800.040848
606.872314	2802.463123
607.222041	2798.357103
607.571714	2795.954993
607.921333	2788.126081
608.270899	2790.417286
608.620411	2786.797737
608.969870	2789.751853
609.319276	2785.582819
609.668627	2782.369083
610.017926	2782.911007
610.367171	2783.004269
610.716362	2782.968981
611.065500	2778.421860
611.414585	2780.387910
611.763616	2780.748352
612.112594	2775.177877
612.461518	2773.761313
612.810389	2775.984462
613.159207	2770.381220
613.507971	2768.536157
613.856682	2771.480191
614.205340	2768.200921
614.553945	2768.586569
614.902496	2764.939294
615.250994	2765.473656
615.599439	2765.612288
615.947830	2764.699839
616.296169	2763.810076
616.644454	2761.859149
616.992686	2762.612802
617.340864	2763.880652
617.688990	2755.666092
618.037063	2762.499376
618.385082	2759.109200
618.733048	2761.274375
619.080961	2755.822367
619.428821	2757.750609
619.776628	2753.687439
620.124382	2754.030237
620.472083	2753.962182
620.819731	2752.684249
621.167326	2749.946902
621.514868	2747.602766
621.862357	2746.408012
622.209793	2742.397775
622.557176	2741.250912
622.904506	2738.884090
623.251783	2734.266393
623.599007	2732.615416
623.946179	2729.235322
624.293297	2725.991339
624.640363	2723.412789
624.987376	2719.072356
625.334336	2714.608414
625.681243	2713.378372
626.028097	2712.188660
626.374899	2713.302755
626.721647	2711.689586
627.068343	2709.259750
627.414987	2709.927703
627.761577	2708.070037
628.108115	2709.204297
628.454600	2702.411342
628.801032	2701.836651
629.147412	2703.583411
629.493739	2700.500745
629.840014	2697.740713
630.186236	2699.255580
630.532405	2696.157791
630.878521	2699.013605
631.224585	2694.456402
631.570597	2694.864735
631.916556	2694.287523
632.262462	2692.603777
632.608316	2692.722245
632.954117	2691.214940
633.299866	2687.870134
633.645562	2687.653364
633.991206	2686.319979
634.336797	2683.693538
634.682336	2681.384690
635.027823	2678.150789
635.373257	2680.986438
635.718639	2678.415450
636.063968	2677.124915
636.409245	2673.679286
636.754470	2670.188287
637.099642	2671.614933
637.444762	2669.026301
637.789829	2668.602844
638.134845	2666.929181
638.479808	2664.620332
638.824719	2663.831392
639.169577	2662.603871
639.514383	2662.548418
639.859137	2659.649755
640.203839	2659.007008
640.548489	2658.686894
640.893086	2658.321411
641.237632	2653.262613
641.582125	2655.508447
641.926566	2660.098417
642.270955	2651.064670
642.615292	2650.444608
642.959576	2651.954433
643.303809	2649.030564
643.647990	2655.198416
643.992118	2654.356543
644.336195	2651.394865
644.680219	2649.882519
645.024192	2652.014927
645.368112	2653.741522
645.711981	2656.322593
646.055797	2657.439209
646.399562	2657.769404
646.743274	2663.286947
647.086935	2662.601350
647.430544	2661.409117
647.774101	2661.676299
648.117606	2661.784683
648.461059	2667.518996
648.804460	2664.353151
649.147810	2657.300577
649.491108	2658.923829
649.834354	2657.353509
650.177548	2653.509629
650.520690	2650.807571
650.863781	2649.547282
651.206820	2652.745895
651.549807	2648.181130
651.892742	2648.062663
652.235626	2643.084523
652.578458	2643.457569
652.921238	2640.992444
653.263967	2641.652836
653.606644	2640.521097
653.949269	2639.684265
654.291843	2637.670324
654.634365	2640.213586
654.976836	2635.792494
655.319255	2640.967239
655.661622	2636.478091
656.003938	2638.106384
656.346203	2636.916672
656.688416	2636.304171
657.030577	2637.214100
657.372687	2632.825775
657.714746	2633.478605
658.056753	2633.781074
658.398708	2630.799231
658.740612	2635.154788
659.082465	2634.325518
659.424266	2630.184211
659.766016	2631.787297
660.107715	2630.509365
660.449362	2630.935343
660.790958	2632.551032
661.132503	2630.143881
661.473996	2635.648821
661.815438	2632.682102
662.156829	2634.769140
662.498168	2631.694036
662.839456	2634.633029
663.180693	2634.391053
663.521879	2631.038686
663.863013	2631.681433
664.204097	2633.793677
664.545129	2632.596403
664.886110	2635.976496
665.227040	2633.430714
665.567918	2634.507000
665.908746	2632.314098
666.249522	2635.321146
666.590248	2630.680764
666.930922	2637.577063
667.271545	2633.675210
667.612118	2638.272742
667.952639	2636.624285
668.293109	2634.655714
668.633528	2634.549850
668.973896	2632.616567
669.314213	2634.703605
669.654480	2632.785446
669.994695	2633.284520
670.334859	2633.508852
670.674973	2631.809983
671.015035	2632.994654
671.355047	2632.493059
671.695008	2630.940384
672.034918	2629.667492
672.374777	2632.717390
672.714585	2630.806793
673.054342	2633.191259
673.394049	2631.530199
673.733705	2634.249901
674.073310	2632.591362
674.412864	2630.030455
674.752368	2630.915178
675.091820	2630.751340
675.431223	2628.442492
675.770574	2628.394601
676.109875	2627.829992
676.449125	2625.453088
676.788324	2622.612398
677.127473	2624.258334
677.466571	2619.764146
677.805619	2622.821605
678.144616	2622.335134
678.483562	2619.088631
678.822458	2617.409927
679.161303	2621.654578
679.500098	2618.208950
679.838842	2618.029989
680.177535	2618.972684
680.516179	2617.911522
680.854771	2621.523508
681.193314	2624.454939
681.531805	2626.042903
681.870247	2627.814868
682.208638	2634.408697
682.546978	2635.172432
682.885268	2636.372227
683.223508	2634.587658
683.561697	2635.447175
683.899836	2634.043214
684.237925	2630.211937
684.575963	2632.044396
684.913951	2630.975672
685.251889	2628.006432
685.589776	2628.762605
685.927614	2627.696401
686.265401	2629.775877
686.603137	2628.502986
686.940824	2631.005919
687.278460	2634.118831
687.616046	2635.132103
687.953582	2638.635705
688.291068	2636.967083
688.628504	2640.816004
688.965889	2640.178298
689.303224	2636.805766
689.640510	2637.433390
689.977745	2632.994654
690.314930	2629.286885
690.652065	2630.360651
690.989150	2624.018879
691.326185	2622.796400
691.663170	2617.271295
692.000105	2613.888681
692.336990	2613.719802
692.673825	2612.640995
693.010610	2607.380551
693.347345	2603.894593
693.684030	2598.356886
694.020665	2597.658686
694.357251	2594.760022
694.693786	2598.036773
695.030272	2596.547112
695.366707	2596.005187
695.703093	2591.758015
696.039429	2594.800352
696.375716	2592.932604
696.711952	2591.122830
697.048139	2592.761205
697.384276	2590.739702
697.720363	2589.723910
698.056400	2591.606781
698.392388	2589.103848
698.728326	2588.382963
699.064214	2587.082345
699.400053	2588.488827
699.735842	2584.481110
700.071581	2582.767117
700.407270	2586.016141
700.742910	2586.303487
701.078501	2582.499936
701.414042	2582.772159
701.749533	2579.684452
702.084974	2580.488516
702.420366	2580.337281
702.755709	2578.071283
703.091002	2575.719584
703.426246	2577.357959
703.761440	2575.573391
704.096584	2575.580953
704.431679	2575.679255
704.766725	2573.549368
705.101721	2574.050963
705.436668	2573.388051
705.771565	2574.842424
706.106413	2577.476427
706.441212	2575.281004
706.775961	2573.519121
707.110661	2574.512228
707.445311	2576.543813
707.779913	2573.652711
708.114465	2576.843762
708.448967	2575.606158
708.783421	2579.369380
709.117825	2581.000193
709.452180	2581.882395
709.786485	2584.685277
710.120742	2587.765422
710.454949	2584.100503
710.789107	2589.096286
711.123216	2591.936976
711.457275	2598.364448
711.791286	2600.751434
712.125247	2602.225971
712.459159	2602.377206
712.793023	2605.986672
713.126837	2600.784201
713.460602	2603.198914
713.794318	2599.559201
714.127985	2600.249839
714.461602	2593.144333
714.795171	2597.038624
715.128691	2590.898499
715.462162	2585.101172
715.795584	2584.897005
716.128957	2582.386510
716.462281	2581.123701
716.795556	2580.496078
717.128782	2579.318968
717.461960	2574.456775
717.795088	2574.355952
718.128167	2573.161199
718.461198	2569.428224
718.794180	2570.219686
719.127113	2568.437638
719.459997	2568.291444
719.792833	2565.372616
720.125619	2566.277503
720.458357	2563.593089
720.791046	2566.007802
721.123686	2561.949673
721.456278	2562.221895
721.788821	2560.510423
722.121315	2559.741647
722.453761	2559.787018
722.786158	2562.915054
723.118506	2559.799621
723.450805	2559.406411
723.783056	2560.311298
724.115259	2562.660475
724.447412	2558.877089
724.779518	2560.152501
725.111574	2558.909857
725.443582	2563.278017
725.775542	2558.292316
726.107453	2563.046124
726.439315	2560.820454
726.771129	2568.581311
727.102895	2562.315156
727.434612	2567.421845
727.766281	2567.258008
728.097901	2572.757907
728.429473	2570.895200
728.760996	2573.756055
729.092471	2574.091292
729.423897	2576.009451
729.755276	2573.539285
730.086606	2571.053997
730.417887	2576.758062
730.749120	2578.688824
731.080305	2581.375759
731.411442	2583.750142
731.742530	2588.914805
732.073570	2585.549834
732.404562	2586.263158
732.735506	2587.760380
733.066401	2586.963878
733.397249	2583.533373
733.728048	2581.290059
734.058798	2577.874678
734.389501	2570.585169
734.720156	2567.532751
735.050762	2566.065775
735.381320	2562.234498
735.711831	2562.418500
736.042293	2560.780125
736.372707	2559.003118
736.703073	2561.750547
737.033391	2559.464384
737.363661	2559.724003
737.693883	2558.292316
738.024056	2562.264745
738.354182	2562.421021
738.684260	2565.906978
739.014290	2565.707853
739.344272	2566.365723
739.674207	2569.413101
740.004093	2570.685992
740.333931	2570.592731
740.663722	2572.720098
740.993464	2572.447876
741.323159	2571.195149
741.652806	2568.782957
741.982405	2569.143399
742.311956	2564.805486
742.641460	2563.499827
742.970915	2563.550239
743.300323	2559.340876
743.629683	2558.935063
743.958996	2557.934394
744.288260	2550.944834
744.617477	2555.370967
744.946647	2554.191337
745.275768	2554.960113
745.604842	2553.692263
745.933869	2553.074721
746.262847	2551.741336
746.591778	2550.276881
746.920662	2549.435008
747.249498	2550.448280
747.578286	2551.809392
747.907027	2551.554813
748.235720	2553.624207
748.564365	2553.478014
748.892963	2553.783003
749.221514	2558.166287
749.550017	2552.621018
749.878473	2555.481872
750.206881	2554.697973
750.535242	2550.571788
750.863555	2551.033054
751.191821	2552.578168
751.520039	2551.471634
751.848210	2554.539177
752.176334	2548.688917
752.504411	2550.362581
752.832440	2548.918290
753.160421	2550.302087
753.488356	2548.174720
753.816243	2550.176058
754.144082	2547.325285
754.471875	2548.023485
754.799620	2545.097095
755.127318	2546.309493
755.454969	2546.760676
755.782572	2549.130018
756.110129	2548.908208
756.437638	2545.313865
756.765100	2546.034750
757.092515	2547.365615
757.419882	2550.123126
757.747203	2548.451983
758.074477	2548.063814
758.401703	2548.789741
758.728882	2547.897456
759.056014	2548.678835
759.383099	2547.332847
759.710138	2548.474668
760.037129	2548.731767
760.364073	2551.721172
760.690970	2548.499874
761.017820	2551.446429
761.344623	2555.408776
761.671379	2559.494631
761.998088	2558.468756
762.324751	2570.360838
762.651366	2584.662591
762.977935	2609.341560
763.304456	2628.898716
763.630931	2639.911117
763.957359	2634.880045
764.283740	2626.592388
764.610074	2615.516973
764.936362	2599.292020
765.262602	2587.788107
765.588796	2575.613720
765.914943	2565.044941
766.241044	2560.699467
766.567097	2553.294012
766.893104	2551.002807
767.219064	2546.284287
767.544978	2541.550644
767.870845	2540.197094
768.196665	2537.855478
768.522438	2533.817514
768.848165	2532.216947
769.173846	2533.406660
769.499479	2533.290713
769.825066	2532.113604
770.150607	2530.414735
770.476101	2528.486493
770.801548	2526.659075
771.126949	2526.449867
771.452303	2525.968437
771.777611	2526.631349
772.102872	2527.571524
772.428087	2524.677902
772.753256	2525.686133
773.078378	2520.140863
773.403453	2523.236132
773.728482	2521.628004
774.053465	2520.060205
774.378401	2518.704134
774.703291	2520.503826
775.028135	2518.986439
775.352932	2519.372087
775.677683	2518.983918
776.002388	2514.739267
776.327046	2513.083248
776.651658	2515.981911
776.976224	2511.696931
777.300743	2517.448887
777.625216	2515.303876
777.949643	2514.809843
778.274024	2513.083248
778.598359	2517.665657
778.922647	2513.405882
779.246889	2514.439318
779.571086	2514.467045
779.895236	2512.306910
780.219339	2516.791017
780.543397	2512.783299
780.867409	2513.599966
781.191374	2515.092148
781.515294	2517.179185
781.839167	2517.199350
782.162995	2517.879906
782.486776	2515.997035
782.810511	2512.836231
783.134201	2516.042405
783.457844	2514.242713
783.781441	2512.916890
784.104993	2514.293125
784.428498	2512.969822
784.751958	2513.370594
785.075372	2511.429749
785.398739	2511.966632
785.722061	2515.175327
786.045337	2512.382528
786.368568	2513.110974
786.691752	2515.034174
787.014891	2517.446367
787.337983	2518.099196
787.661030	2521.791841
787.984031	2525.650844
788.306987	2530.245856
788.629897	2531.299457
788.952760	2533.820034
789.275579	2530.911288
789.598351	2529.905578
789.921078	2526.306194
790.243759	2524.355268
790.566395	2521.766635
790.888984	2519.548528
791.211529	2517.965605
791.534027	2517.015348
791.856480	2515.172806
792.178888	2514.199863
792.501249	2508.760458
792.823566	2512.692558
793.145836	2510.353463
793.468062	2513.237003
793.790241	2512.581653
794.112375	2512.256499
794.434464	2510.976046
794.756507	2513.410923
795.078505	2514.494771
795.400457	2515.664319
795.722364	2520.486182
796.044226	2518.946110
796.366042	2523.838550
796.687812	2522.006090
797.009538	2523.029444
797.331218	2523.573889
797.652852	2526.215454
797.974442	2521.733868
798.295986	2521.965761
798.617484	2522.540452
798.938938	2519.346882
799.260346	2518.318486
799.581709	2518.779752
799.903026	2518.580626
800.224299	2515.797909
800.545526	2515.349247
800.866708	2514.093999
801.187845	2514.726664
801.508936	2513.375635
801.829983	2510.164420
802.150984	2513.665501
802.471940	2509.118380
802.792851	2510.986128
803.113717	2507.853051
803.434538	2508.037053
803.755314	2509.993021
804.076045	2507.550582
804.396731	2510.552589
804.717372	2509.395644
805.037967	2508.856240
805.358518	2510.555109
805.679024	2509.930006
805.999485	2509.962774
806.319901	2509.171313
806.640272	2510.897908
806.960598	2510.635768
807.280879	2512.082579
807.601115	2509.609893
807.921306	2511.921262
808.241453	2510.613083
808.561554	2507.159892
808.881611	2508.470592
809.201623	2505.415653
809.521590	2510.930675
809.841513	2511.699451
810.161390	2514.890502
810.481223	2511.429749
810.801011	2512.374966
811.120755	2509.395644
811.440453	2509.597290
811.760107	2506.635612
812.079716	2510.393792
812.399281	2508.949502
812.718801	2509.521673
813.038276	2511.454955
813.357707	2508.737773
813.677093	2509.541837
813.996434	2508.314316
814.315731	2507.709378
814.634983	2507.321209
814.954191	2507.389265
815.273354	2510.164420
815.592473	2508.210973
815.911547	2510.804646
816.230577	2512.213649
816.549562	2512.238855
816.868502	2513.869668
817.187399	2514.807323
817.506250	2516.992663
817.825058	2519.316635
818.143821	2517.612725
818.462539	2522.016173
818.781213	2522.520288
819.099843	2529.640918
819.418429	2535.430683
819.736970	2545.921324
820.055466	2555.212171
820.373919	2566.854715
820.692327	2584.644947
821.010691	2614.291973
821.329011	2676.898063
821.647286	2782.598456
821.965517	2918.714651
822.283704	3020.225845
822.601847	3078.609969
822.919945	3041.335677
823.237999	2985.091524
823.556010	2917.401430
823.873976	2856.811802
824.191897	2794.803089
824.509775	2750.861872
824.827609	2710.373845
825.145398	2682.138342
825.463144	2667.917247
825.780845	2665.058913
826.098502	2673.742300
826.416116	2697.299612
826.733685	2727.773387
827.051210	2742.123032
827.368692	2739.052969
827.686129	2713.998434
828.003522	2679.209432
828.320872	2648.057622
828.638177	2620.227932
828.955439	2602.518358
829.272656	2585.083528
829.589830	2570.202042
829.906960	2558.309960
830.224046	2546.168341
830.541088	2540.875129
830.858086	2536.116280
831.175041	2529.590506
831.491952	2528.027748
831.808819	2529.295599
832.125642	2533.754499
832.442421	2537.432021
832.759157	2552.537838
833.075849	2575.180181
833.392497	2599.972576
833.709101	2624.200361
834.025662	2629.080198
834.342179	2616.709206
834.658653	2602.286465
834.975083	2583.288877
835.291469	2571.575756
835.607811	2554.695452
835.924110	2548.862837
836.240366	2539.017464
836.556578	2532.249715
836.872746	2523.896523
837.188871	2521.582633
837.504952	2515.190450
837.820990	2510.729029
838.136984	2507.664008
838.452935	2508.253823
838.768842	2504.893893
839.084706	2509.345232
839.400526	2520.851666
839.716303	2533.726773
840.032037	2544.252702
840.347727	2544.794626
840.663373	2539.801363
840.978977	2528.541946
841.294537	2525.572707
841.610054	2515.445028
841.925527	2512.725326
842.240957	2510.444204
842.556344	2508.405057
842.871687	2504.137720
843.186987	2499.940960
843.502244	2496.956597
843.817458	2493.967193
844.132629	2492.293529
844.447756	2493.536174
844.762840	2490.445947
845.077881	2491.786893
845.392879	2490.143477
845.707833	2489.299084
846.022745	2488.265647
846.337613	2488.056440
846.652438	2488.416882
846.967221	2488.442088
847.281960	2489.823364
847.596656	2487.456542
847.911309	2484.212560
848.225919	2489.856132
848.540485	2485.256079
848.855009	2487.302787
849.169490	2487.895123
849.483928	2485.523260
849.798323	2487.902684
850.112675	2486.828919
850.426984	2484.729278
850.741251	2484.711634
851.055474	2486.276912
851.369654	2486.531491
851.683792	2485.185503
851.997887	2487.701038
852.311938	2483.842035
852.625947	2485.523260
852.939914	2484.620893
853.253837	2484.603249
853.567718	2487.466625
853.881555	2486.992756
854.195350	2486.082828
854.509103	2487.327993
854.822812	2483.947899
855.136479	2484.636017
855.450103	2483.975626
855.763685	2480.716520
856.077224	2481.064359
856.390720	2485.006542
856.704173	2480.993783
857.017584	2485.785400
857.330953	2485.800523
857.644278	2486.055102
857.957561	2489.198261
858.270802	2486.264309
858.584000	2485.651809
858.897155	2488.008549
859.210268	2485.830770
859.523339	2485.873620
859.836367	2487.290184
860.149352	2485.621562
860.462295	2487.287664
860.775195	2483.804226
861.088054	2485.195585
861.400869	2485.245996
861.713642	2485.445122
862.026373	2484.028558
862.339062	2487.365802
862.651708	2485.954278
862.964312	2485.044350
863.276873	2486.904536
863.589392	2486.670122
863.901869	2490.791266
864.214303	2489.314207
864.526696	2488.762201
864.839045	2487.547283
865.151353	2490.425782
865.463619	2489.740185
865.775842	2488.444608
866.088023	2489.064670
866.400162	2488.363950
866.712258	2488.895792
867.024313	2491.829743
867.336325	2493.014414
867.648296	2488.623569
867.960224	2488.820174
868.272110	2491.756647
868.583954	2489.485607
868.895755	2489.556183
869.207515	2491.315546
869.519233	2491.227325
869.830909	2485.316573
870.142542	2491.451657
870.454134	2492.744713
870.765684	2493.248828
871.077191	2490.703045
871.388657	2491.983498
871.700081	2490.826554
872.011463	2492.737151
872.322803	2488.283292
872.634101	2494.564569
872.945357	2495.618170
873.256571	2495.895434
873.567744	2496.734786
873.878874	2494.662872
874.189963	2497.052379
874.501010	2496.843171
874.812015	2497.831237
875.122979	2501.342401
875.433900	2498.804180
875.744780	2500.750065
876.055618	2500.656804
876.366415	2501.216372
876.677169	2499.041114
876.987882	2500.114880
877.298554	2500.966835
877.609183	2500.384581
877.919771	2504.624192
878.230317	2505.120745
878.540822	2509.982938
878.851285	2511.918741
879.161707	2519.392252
879.472087	2526.890968
879.782425	2540.315561
880.092722	2565.004612
880.402977	2606.601693
880.713191	2658.460042
881.023363	2715.541027
881.333494	2754.831781
881.643583	2778.484874
881.953631	2778.573095
882.263637	2768.883997
882.573602	2748.144690
882.883526	2729.094170
883.193408	2709.325285
883.503248	2686.118333
883.813048	2665.573111
884.122806	2647.283804
884.432522	2629.221350
884.742197	2608.663525
885.051831	2594.777667
885.361424	2576.004410
885.670975	2564.243398
885.980485	2552.114382
886.289954	2544.865202
886.599382	2534.324150
886.908768	2530.240815
887.218113	2519.765297
887.527417	2518.252951
887.836680	2509.463699
888.145901	2513.690707
888.455082	2509.990500
888.764221	2507.774913
889.073319	2506.822135
889.382376	2503.878101
889.691392	2502.015395
890.000366	2504.069665
890.309300	2500.825682
890.618193	2504.205776
890.927044	2503.658811
891.235855	2500.752586
891.544625	2504.430107
891.853353	2504.921620
892.162041	2503.968842
892.470687	2509.872033
892.779293	2511.230624
893.087858	2516.276819
893.396381	2522.134640
893.704864	2534.374561
894.013306	2547.093392
894.321707	2562.731052
894.630068	2576.526169
894.938387	2583.747622
895.246665	2580.415419
895.554903	2576.725295
895.863100	2568.470405
896.171256	2562.365568
896.479371	2554.203940
896.787446	2546.967363
897.095480	2541.318751
897.403473	2535.798687
897.711425	2529.295599
898.019336	2528.922553
898.327207	2524.612367
898.635038	2520.700431
898.942827	2517.521984
899.250576	2512.528721
899.558284	2508.178205
899.865952	2505.602176
900.173579	2504.765344
900.481165	2501.793584
900.788711	2502.312823
901.096216	2500.200579
901.403681	2496.654127
901.711105	2500.669407
902.018489	2498.663027
902.325832	2497.349807
902.633135	2493.765546
902.940397	2501.196207
903.247619	2509.473782
903.554800	2536.675848
903.861941	2562.358006
904.169041	2589.504620
904.476101	2605.099429
904.783121	2601.371496
905.090100	2594.828078
905.397039	2583.213260
905.703938	2569.559294
906.010796	2563.129303
906.317614	2548.454504
906.624391	2541.389327
906.931129	2534.374561
907.237826	2525.676050
907.544483	2524.612367
907.851099	2516.420492
908.157675	2508.934378
908.464211	2502.010353
908.770707	2500.003974
909.077163	2497.301916
909.383578	2492.081801
909.689954	2490.156080
909.996289	2492.094404
910.302584	2488.711790
910.608839	2487.756491
910.915054	2486.808754
911.221229	2487.890082
911.527363	2487.411172
911.833458	2487.280102
912.139513	2488.794969
912.445527	2485.805564
912.751502	2489.276399
913.057436	2489.891420
913.363331	2493.677326
913.669186	2496.021463
913.975000	2500.384581
914.280775	2504.036897
914.586510	2513.794051
914.892205	2525.466842
915.197859	2543.481406
915.503475	2562.647872
915.809050	2581.012796
916.114585	2592.935125
916.420081	2602.467947
916.725536	2603.634974
917.030952	2597.603233
917.336328	2590.548138
917.641665	2581.486664
917.946961	2572.662125
918.252218	2567.618450
918.557435	2558.695608
918.862612	2553.483055
919.167750	2549.651778
919.472848	2541.971580
919.777906	2533.832637
920.082925	2527.626977
920.387904	2522.144722
920.692843	2517.358146
920.997743	2513.962929
921.302603	2509.912362
921.607423	2503.348780
921.912204	2502.194356
922.216946	2497.866525
922.521647	2496.780156
922.826310	2493.571462
923.130932	2493.949548
923.435516	2491.335710
923.740059	2489.135247
924.044564	2487.958137
924.349028	2489.011738
924.653454	2486.813795
924.957840	2485.629124
925.262186	2483.423619
925.566493	2485.397231
925.870761	2483.121150
926.174989	2482.982518
926.479178	2482.869092
926.783328	2479.093268
927.087438	2478.967239
927.391509	2479.657877
927.695541	2480.159472
927.999533	2477.482619
928.303486	2480.378762
928.607400	2475.768627
928.911275	2476.665953
929.215110	2477.964050
929.518906	2476.736529
929.822663	2476.517238
930.126381	2477.701910
930.430060	2476.502115
930.733699	2478.253916
931.037299	2477.308700
931.340861	2477.114615
931.644383	2475.912300
931.947866	2476.711323
932.251309	2479.345326
932.554714	2476.020685
932.858080	2475.042701
933.161407	2473.479943
933.464694	2474.036991
933.767943	2472.743935
934.071153	2477.389358
934.374323	2473.979017
934.677455	2477.386838
934.980548	2475.050263
935.283602	2477.424646
935.586617	2472.575056
935.889593	2477.782568
936.192530	2476.108905
936.495428	2474.987248
936.798287	2474.394913
937.101108	2478.879019
937.403890	2478.843731
937.706632	2478.800881
938.009336	2480.093937
938.312002	2482.357415
938.614628	2482.327168
938.917216	2485.034268
939.219765	2483.728609
939.522275	2484.688949
939.824747	2483.642909
940.127179	2484.545276
940.429573	2486.821357
940.731929	2485.089721
941.034246	2482.594349
941.336524	2484.588126
941.638763	2485.258599
941.940964	2483.779021
942.243126	2481.923876
942.545250	2487.315390
942.847335	2484.492344
943.149381	2481.339102
943.451389	2480.650985
943.753359	2480.446818
944.055290	2480.323310
944.357182	2481.145018
944.659036	2480.751808
944.960851	2481.840697
945.262628	2478.117805
945.564367	2480.650985
945.866067	2481.034112
946.167729	2481.056798
946.469352	2479.723412
946.770937	2481.991932
947.072484	2480.817343
947.373992	2478.770634
947.675462	2477.596045
947.976893	2476.870119
948.278286	2477.089409
948.579641	2474.344501
948.880958	2473.732001
949.182236	2476.698720
949.483476	2477.250726
949.784678	2477.480099
950.085841	2475.680407
950.386967	2480.154431
950.688054	2479.065542
950.989103	2476.376086
951.290114	2480.335913
951.591087	2476.693679
951.892021	2478.863896
952.192917	2479.713330
952.493776	2479.299955
952.794596	2482.097796
953.095378	2478.987404
953.396122	2481.049236
953.696828	2482.347333
953.997496	2480.570326
954.298126	2481.593680
954.598718	2477.641416
954.899272	2480.406489
955.199788	2481.336582
955.500266	2477.512866
955.800706	2477.946406
956.101108	2476.116467
956.401472	2473.953812
956.701798	2477.505305
957.002087	2474.082361
957.302337	2473.979018
957.602550	2475.665283
957.902724	2472.222175
958.202861	2470.183029
958.502960	2472.774182
958.803022	2473.066569
959.103045	2472.106229
959.403031	2469.144551
959.702979	2469.671352
960.002889	2469.837710
960.302762	2468.383337
960.602596	2468.809314
960.902393	2468.224540
961.202153	2466.634056
961.501875	2467.647328
961.801559	2470.114973
962.101205	2467.128089
962.400814	2470.170426
962.700385	2467.344859
962.999918	2464.040383
963.299414	2464.733541
963.598873	2465.207410
963.898293	2463.037193
964.197677	2471.334932
964.497022	2467.488532
964.796331	2466.802935
965.095601	2466.805456
965.394835	2467.637246
965.694030	2468.937864
965.993189	2467.972483
966.292309	2470.031794
966.591393	2468.879890
966.890439	2467.785960
967.189447	2467.927112
967.488419	2466.480301
967.787353	2465.603140
968.086249	2466.986937
968.385108	2465.935857
968.683930	2467.881742
968.982714	2466.830661
969.281462	2466.780250
969.580172	2470.072123
969.878844	2465.217492
970.177480	2468.239664
970.476078	2468.809314
970.774639	2468.413584
971.073162	2467.843933
971.371649	2469.444500
971.670098	2466.008953
971.968510	2468.030456
972.266885	2467.047431
972.565223	2470.122535
972.863524	2465.981227
973.161788	2473.454738
973.460014	2467.710343
973.758204	2470.016671
974.056356	2468.990796
974.354471	2468.910137
974.652550	2467.470888
974.950591	2468.688327
975.248595	2468.295117
975.546563	2467.816207
975.844493	2469.658749
976.142386	2469.295786
976.440243	2468.864767
976.738062	2467.924592
977.035845	2466.099694
977.333590	2469.605817
977.631299	2468.968111
977.928971	2466.389560
978.226606	2464.030300
978.524204	2465.547688
978.821765	2461.466874
979.119290	2468.496763
979.416777	2465.832513
979.714228	2464.247070
980.011642	2466.830661
980.309020	2470.172946
980.606360	2466.155147
980.903664	2467.453244
981.200931	2471.153451
981.498162	2471.839048
981.795356	2472.806949
982.092513	2475.471199
982.389633	2477.795171
982.686717	2478.879019
982.983764	2480.439256
983.280775	2481.644092
983.577749	2483.191726
983.874686	2484.084010
984.171587	2484.986377
984.468451	2482.367497
984.765279	2480.933289
985.062070	2483.032930
985.358824	2478.697537
985.655543	2478.316930
985.952224	2476.615541
986.248869	2474.614203
986.545478	2473.545478
986.842050	2468.940384
987.138586	2467.118007
987.435086	2467.410394
987.731549	2466.553398
988.027975	2466.381999
988.324366	2463.495938
988.620719	2466.674386
988.917037	2467.395271
989.213318	2466.457616
989.509563	2464.511731
989.805772	2467.314612
990.101944	2463.987451
990.398080	2464.569704
990.694180	2465.436782
990.990244	2467.339818
991.286271	2465.285548
991.582262	2468.393419
991.878217	2465.527523
992.174136	2465.744293
992.470019	2463.773202
992.765865	2462.603654
993.061676	2463.997533
993.357450	2463.478294
993.653188	2461.459312
993.948890	2465.124231
994.244556	2467.990127
994.540186	2468.743779
994.835780	2467.168419
995.131337	2468.673203
995.426859	2466.898717
995.722345	2469.941053
996.017795	2472.212093
996.313208	2475.418267
996.608586	2474.994810
996.903928	2475.057824
997.199234	2474.992289
997.494504	2476.638226
997.789738	2473.003554
998.084936	2474.911631
998.380099	2473.908441
998.675225	2472.363328
998.970316	2470.364510
999.265371	2467.236474
999.560390	2473.590849
999.855373	2469.260498
1000.150320	2467.765795
1000.445232	2467.642287
1000.740108	2468.234623
1001.034948	2466.818058
1001.329752	2466.276134
1001.624521	2465.746813
1001.919254	2465.487194
1002.213951	2466.616412
1002.508613	2463.884107
1002.803239	2463.717749
1003.097829	2461.441668
1003.392384	2463.629529
1003.686903	2463.639611
1003.981386	2467.725466
1004.275834	2464.476442
1004.570246	2465.875363
1004.864623	2466.911320
1005.158964	2461.706328
1005.453270	2463.153140
1005.747540	2461.890331
1006.041775	2461.093828
1006.335974	2462.865794
1006.630138	2463.465691
1006.924266	2462.477625
1007.218359	2465.000723
1007.512416	2459.367233
1007.806438	2457.552418
1008.100425	2459.354630
1008.394376	2459.463015
1008.688292	2463.856381
1008.982172	2462.041565
1009.276017	2462.064250
1009.569827	2462.439816
1009.863602	2461.124075
1010.157341	2465.373768
1010.451045	2463.977368
1010.744714	2462.447378
1011.038347	2465.525003
1011.331945	2463.538788
1011.625508	2463.382512
1011.919036	2464.458798
1012.212528	2463.092646
1012.505986	2464.889817
1012.799408	2466.949128
1013.092795	2463.443006
1013.386147	2461.653396
1013.679464	2463.190948
1013.972745	2463.445527
1014.265992	2463.662296
1014.559204	2462.457460
1014.852380	2462.880917
1015.145521	2462.979220
1015.438628	2462.754888
1015.731699	2465.275465
1016.024736	2460.950155
1016.317737	2460.491410
1016.610703	2463.397636
1016.903635	2462.220526
1017.196531	2461.119034
1017.489393	2463.390074
1017.782219	2461.625670
1018.075011	2462.288582
1018.367768	2461.729014
1018.660490	2461.890331
1018.953177	2461.890331
1019.245829	2461.890331
