Dividing Wavelength (nm)	Counts (n)	Blue Motor Position (mm): 0.000000	Red Motor Position (mm): 8.000000	
326.493990	2052.871272
326.888308	2052.871272
327.282561	2052.871272
327.676750	2028.041069
328.070874	2032.250432
328.464933	2038.559436
328.858929	2045.871630
329.252859	2056.599205
329.646726	2068.307285
330.040528	2086.215984
330.434265	2100.845413
330.827938	2122.577827
331.221547	2143.594397
331.615091	2162.297078
332.008571	2184.493278
332.401986	2203.599252
332.795338	2227.194372
333.188625	2243.149624
333.581847	2261.164187
333.975006	2280.275202
334.368100	2300.439817
334.761129	2317.050419
335.154095	2329.522233
335.546996	2346.200891
335.939833	2361.689836
336.332606	2372.742566
336.725315	2382.282950
337.117960	2391.969527
337.510540	2404.837072
337.903056	2414.632034
338.295508	2419.426171
338.687896	2426.503951
339.080220	2428.943870
339.472480	2436.200611
339.864676	2438.229675
340.256807	2439.127000
340.648875	2447.086982
341.040879	2443.956426
341.432818	2450.633434
341.824694	2447.891046
342.216506	2448.916921
342.608253	2447.946499
342.999937	2448.919442
343.391557	2445.367949
343.783113	2447.263423
344.174605	2447.507919
344.566033	2444.914245
344.957397	2439.104315
345.348697	2439.825200
345.739934	2439.154727
346.131106	2435.872936
346.522215	2432.951587
346.913260	2433.533840
347.304241	2430.360434
347.695159	2428.207861
348.086012	2428.084353
348.476802	2425.611667
348.867528	2422.975143
349.258191	2418.662436
349.648789	2419.128743
350.039324	2417.387024
350.429796	2420.109247
350.820203	2420.005904
351.210548	2420.751995
351.600828	2419.204360
351.991045	2418.357447
352.381198	2414.810995
352.771288	2419.421130
353.161314	2416.799730
353.551276	2418.289391
353.941175	2415.589853
354.331010	2419.640420
354.720782	2418.433064
355.110490	2416.116654
355.500135	2417.616397
355.889717	2419.993301
356.279235	2419.658064
356.668689	2420.983888
357.058080	2417.525656
357.447408	2420.721748
357.836672	2419.547159
358.225873	2420.142015
358.615010	2420.336099
359.004084	2422.375246
359.393095	2422.259300
359.782043	2420.915832
360.170927	2424.177459
360.559748	2424.694177
360.948505	2422.947417
361.337199	2426.307346
361.725830	2425.520926
362.114398	2426.493869
362.502903	2426.675350
362.891344	2424.550504
363.279722	2427.494538
363.668037	2427.746596
364.056289	2425.644434
364.444478	2429.868921
364.832603	2427.494538
365.220665	2429.402615
365.608665	2429.873962
365.996601	2429.498397
366.384474	2431.267842
366.772284	2430.511668
367.160031	2429.395053
367.547715	2434.685744
367.935336	2429.382450
368.322893	2430.042841
368.710388	2428.502769
369.097820	2430.819179
369.485189	2425.878848
369.872495	2433.029725
370.259738	2433.929571
370.646918	2432.853284
371.034035	2434.670620
371.421090	2433.221289
371.808081	2437.133224
372.195010	2437.102977
372.581875	2441.329985
372.968678	2439.328647
373.355418	2440.720005
373.742096	2441.030036
374.128710	2443.502722
374.515262	2446.595470
374.901751	2448.150666
375.288177	2453.406069
375.674540	2457.635597
376.060841	2459.321863
376.447079	2461.943263
376.833254	2465.630867
377.219367	2476.529841
377.605417	2480.378762
377.991404	2483.731130
378.377329	2492.164980
378.763191	2496.676813
379.148991	2504.452793
379.534727	2511.737260
379.920402	2524.163704
380.306013	2532.297606
380.691563	2542.115253
381.077049	2553.740154
381.462474	2560.192831
381.847835	2573.965263
382.233134	2586.568147
382.618371	2596.400918
383.003545	2614.929679
383.388657	2622.022582
383.773706	2641.854482
384.158693	2650.391676
384.543618	2665.726866
384.928480	2677.293793
385.313280	2693.115455
385.698017	2708.135572
386.082692	2725.444374
386.467305	2730.926629
386.851856	2748.318610
387.236344	2767.820313
387.620770	2773.484050
388.005133	2785.850000
388.389435	2807.562250
388.773674	2812.684062
389.157851	2835.487722
389.541965	2848.937520
389.926018	2851.475741
390.310008	2868.325798
390.693936	2876.502549
391.077802	2891.129457
391.461606	2907.949267
391.845348	2907.677045
392.229027	2918.074424
392.612645	2934.533792
392.996200	2944.979063
393.379694	2956.747636
393.763125	2973.378403
394.146494	2975.241109
394.529801	2983.095227
394.913047	2994.674757
395.296230	2985.003303
395.679351	2982.896101
396.062410	2995.710714
396.445408	2965.030252
396.828343	2970.567959
397.211217	2968.256590
397.594028	2942.554268
397.976778	2944.268260
398.359466	2938.856581
398.742092	2931.143616
399.124656	2915.868920
399.507158	2918.928900
399.889598	2902.903072
400.271977	2904.455747
400.654294	2881.024464
401.036549	2879.358363
401.418742	2858.654344
401.800874	2859.450846
402.182944	2844.120697
402.564952	2849.194619
402.946898	2826.093531
403.328783	2804.219965
403.710606	2795.307205
404.092367	2790.886113
404.474067	2782.195164
404.855705	2762.007863
405.237282	2739.844430
405.618797	2735.728328
406.000250	2731.334962
406.381642	2720.277192
406.762972	2704.321940
407.144240	2677.692044
407.525447	2672.550067
407.906593	2654.505257
408.287677	2651.974598
408.668700	2639.669142
409.049661	2631.764612
409.430560	2620.651389
409.811399	2604.812083
410.192176	2597.154571
410.572891	2589.237438
410.953545	2583.336768
411.334138	2569.934860
411.714669	2560.089487
412.095139	2549.440049
412.475547	2543.529297
412.855894	2535.150899
413.236180	2529.981196
413.616405	2521.232273
413.996568	2516.828825
414.376670	2514.363701
414.756711	2504.709891
415.136691	2502.146465
415.516609	2498.068171
415.896466	2497.127996
416.276262	2491.489465
416.655997	2490.634990
417.035670	2488.663899
417.415283	2489.916625
417.794834	2487.050729
418.174324	2482.664926
418.553753	2477.764924
418.933121	2478.531179
419.312428	2480.262816
419.691674	2477.311220
420.070859	2476.386168
420.449983	2473.235447
420.829045	2475.362814
421.208047	2472.842237
421.586988	2474.566312
421.965867	2472.585138
422.344686	2474.462968
422.723444	2467.962400
423.102141	2472.859881
423.480777	2469.578090
423.859352	2469.124386
424.237866	2471.551702
424.616319	2468.723615
424.994712	2470.636732
425.373044	2469.439458
425.751314	2470.538430
426.129524	2464.418469
426.507673	2468.990796
426.885762	2461.623149
427.263789	2469.293265
427.641756	2467.798563
428.019662	2470.820735
428.397508	2469.285703
428.775292	2467.861577
429.153016	2465.590537
429.530679	2470.180508
429.908282	2469.933492
430.285824	2468.043059
430.663305	2469.890642
431.040726	2467.075157
431.418086	2471.650004
431.795385	2469.736887
432.172624	2469.467185
432.549802	2469.194963
432.926920	2469.129428
433.303977	2472.832155
433.680974	2467.241515
434.057910	2470.331743
434.434786	2470.183029
434.811601	2469.071454
435.188355	2470.868626
435.565050	2470.740076
435.941683	2472.507001
436.318257	2471.670169
436.694770	2471.831486
437.071222	2469.840230
437.447614	2471.962556
437.823946	2467.647328
438.200218	2470.074644
438.576429	2469.179839
438.952580	2468.796711
439.328670	2470.775364
439.704700	2471.760910
440.080670	2472.441466
440.456580	2474.195787
440.832429	2472.559933
441.208218	2472.078503
441.583947	2472.229737
441.959616	2474.422639
442.335224	2475.355252
442.710773	2470.959366
443.086261	2473.089254
443.461689	2472.880046
443.837057	2475.047742
444.212365	2471.231589
444.587612	2469.252936
444.962800	2470.611527
445.337927	2471.808801
445.712995	2469.736887
446.088002	2474.309213
446.462949	2474.861219
446.837837	2477.112095
447.212664	2476.093782
447.587431	2472.917855
447.962139	2478.558906
448.336786	2481.220635
448.711374	2479.010089
449.085901	2475.607310
449.460369	2476.562609
449.834776	2477.641416
450.209124	2478.511015
450.583412	2479.844400
450.957640	2478.427836
451.331808	2478.289204
451.705917	2476.522280
452.079965	2478.226190
452.453954	2476.020685
452.827883	2477.709471
453.201752	2474.183184
453.575562	2481.394555
453.949311	2478.720223
454.323001	2477.170068
454.696632	2479.297435
455.070202	2477.923720
455.443713	2480.333392
455.817164	2482.528814
456.190556	2480.706437
456.563888	2483.257261
456.937160	2481.021509
457.310373	2478.082517
457.683526	2478.200984
458.056619	2480.915645
458.429653	2483.282467
458.802628	2482.062508
459.175542	2482.531335
459.548398	2483.479072
459.921194	2482.067549
460.293930	2482.974957
460.666607	2485.041830
461.039224	2486.385297
461.411782	2484.320945
461.784280	2484.709113
462.156719	2484.414206
462.529099	2483.572333
462.901419	2482.284318
463.273680	2483.020327
463.645882	2481.172744
464.018024	2482.979998
464.390106	2481.084524
464.762130	2487.179279
465.134094	2488.903353
465.505999	2493.866369
465.877845	2493.374857
466.249631	2499.000785
466.621358	2494.123468
466.993026	2495.986175
467.364634	2496.255876
467.736184	2492.255721
468.107674	2490.304794
468.479105	2491.076091
468.850477	2489.341934
469.221790	2488.870586
469.593043	2491.035762
469.964238	2488.308497
470.335373	2487.910246
470.706449	2490.614825
471.077467	2486.836480
471.448425	2490.443426
471.819324	2493.097593
472.190164	2495.396360
472.560945	2492.810248
472.931667	2493.447954
473.302330	2488.984012
473.672934	2489.208343
474.043479	2490.032572
474.413965	2489.533498
474.784393	2492.175062
475.154761	2490.909733
475.525070	2489.586430
475.895321	2490.161121
476.265513	2490.748416
476.635645	2494.496514
477.005719	2488.681543
477.375734	2491.083653
477.745691	2491.035762
478.115588	2493.435351
478.485427	2494.183962
478.855207	2496.704539
479.224928	2497.977430
479.594591	2498.378202
479.964194	2497.616988
480.333739	2499.192348
480.703226	2498.841988
481.072653	2502.522031
481.442022	2500.669407
481.811333	2498.731083
482.180584	2494.935094
482.549777	2497.987513
482.918912	2495.696308
483.287988	2497.957266
483.657005	2501.508759
484.025964	2498.363079
484.394864	2497.564056
484.763706	2498.910044
485.132489	2498.267297
485.501213	2500.535816
485.869879	2497.480877
486.238487	2498.491628
486.607036	2496.384426
486.975527	2496.134889
487.343959	2498.622698
487.712333	2499.620847
488.080648	2494.519199
488.448905	2499.081443
488.817104	2499.661176
489.185244	2499.101608
489.553326	2500.377020
489.921350	2500.815600
490.289315	2503.638646
490.657222	2504.233502
491.025070	2506.542351
491.392861	2502.451454
491.760593	2502.597648
492.128267	2504.470437
492.495883	2502.186794
492.863440	2502.481701
493.230939	2497.962307
493.598380	2500.041783
493.965763	2497.808552
494.333088	2495.822337
494.700354	2497.501041
495.067563	2499.217554
495.434713	2497.367451
495.801805	2498.562204
496.168839	2497.984992
496.535815	2497.997595
496.902733	2496.444920
497.269593	2498.219406
497.636395	2496.802842
498.003139	2497.901813
498.369825	2497.009529
498.736453	2496.782677
499.103023	2498.713439
499.469535	2499.361227
499.835989	2499.089005
500.202385	2495.517347
500.568723	2494.879641
500.935003	2495.214878
501.301226	2491.565083
501.667390	2497.959786
502.033497	2498.390805
502.399546	2498.514313
502.765537	2497.609426
503.131470	2495.923160
503.497345	2499.562873
503.863163	2500.248470
504.228923	2497.390136
504.594625	2498.506752
504.960269	2497.377533
505.325856	2498.887359
505.691385	2497.054899
506.056856	2498.542040
506.422270	2497.932060
506.787625	2497.770743
507.152924	2500.225785
507.518164	2499.870384
507.883347	2498.393326
508.248472	2497.140599
508.613540	2497.145640
508.978550	2499.774602
509.343503	2498.678151
509.708398	2498.708398
510.073236	2499.368789
510.438016	2498.388284
510.802738	2499.351145
511.167403	2498.952894
511.532010	2498.542040
511.896561	2498.791577
512.261053	2501.082781
512.625488	2499.431803
512.989866	2498.524396
513.354186	2499.328460
513.718449	2497.311998
514.082655	2499.328460
514.446803	2495.943325
514.810894	2499.641011
515.174927	2497.856443
515.538904	2498.151350
515.902822	2501.846516
516.266684	2499.262925
516.630488	2502.148985
516.994235	2500.175373
517.357925	2498.960455
517.721558	2500.845847
518.085133	2500.687051
518.448651	2496.114724
518.812112	2494.259579
519.175516	2498.095898
519.538863	2493.488283
519.902152	2501.012205
520.265385	2497.949704
520.628560	2499.577997
520.991678	2499.862822
521.354739	2499.106649
521.717743	2500.293841
522.080690	2500.303923
522.443580	2500.182935
522.806413	2501.163440
523.169189	2500.412308
523.531908	2500.250991
523.894569	2500.167812
524.257174	2497.226298
524.619722	2499.388953
524.982213	2500.939108
525.344647	2501.107987
525.707025	2500.470281
526.069345	2500.177894
526.431608	2498.721001
526.793815	2501.125631
527.155964	2498.239570
527.518057	2498.925167
527.880093	2499.099087
528.242072	2500.271155
528.603995	2497.256545
528.965860	2498.718480
529.327669	2500.833244
529.689421	2499.580517
530.051117	2497.173366
530.412755	2501.191166
530.774337	2499.986330
531.135862	2500.591269
531.497331	2498.156391
531.858743	2496.901144
532.220098	2499.358707
532.581396	2498.148830
532.942638	2499.772081
533.303824	2498.113542
533.664953	2501.478512
534.026025	2497.881648
534.387040	2498.564725
534.747999	2498.597492
535.108902	2497.611947
535.469748	2500.964314
535.830537	2500.336690
536.191270	2499.015908
536.551947	2496.071874
536.912567	2494.693119
537.273131	2496.482728
537.633638	2494.625063
537.994089	2497.289313
538.354483	2499.111690
538.714821	2497.879128
539.075103	2497.226298
539.435328	2500.694612
539.795497	2499.247801
540.155609	2502.406084
540.515665	2499.330980
540.875665	2500.671927
541.235609	2496.066833
541.595496	2499.910713
541.955328	2499.857781
542.315102	2497.516165
542.674821	2498.766371
543.034483	2497.909375
543.394090	2498.330311
543.753640	2496.938953
544.113134	2502.048162
544.472571	2499.855260
544.831953	2498.872235
545.191278	2495.983654
545.550548	2499.237719
545.909761	2497.987513
546.268918	2498.978099
546.628019	2498.473984
546.987064	2497.127996
547.346053	2498.410970
547.704986	2498.887359
548.063863	2502.269973
548.422684	2499.497338
548.781449	2496.271000
549.140158	2498.085815
549.498811	2499.696464
549.857408	2498.746206
550.215949	2500.545898
550.574434	2497.891731
550.932864	2499.083964
551.291237	2498.650424
551.649555	2498.569766
552.007817	2497.750578
552.366022	2499.779643
552.724173	2497.077584
553.082267	2498.587410
553.440305	2497.687564
553.798288	2499.391474
554.156215	2500.286279
554.514086	2496.271000
554.871902	2494.047851
555.229661	2498.756289
555.587365	2491.887717
555.945014	2497.432986
556.302606	2501.433141
556.660143	2499.192348
557.017625	2498.168994
557.375050	2500.626557
557.732421	2500.271155
558.089735	2498.163953
558.446994	2499.091525
558.804197	2498.854591
559.161345	2497.175887
559.518437	2496.462564
559.875474	2499.552791
560.232455	2499.958604
560.589381	2499.101608
560.946251	2499.646052
561.303065	2498.925167
561.659825	2501.707884
562.016528	2499.076402
562.373177	2496.949035
562.729770	2501.470950
563.086307	2501.539006
563.442789	2498.705877
563.799216	2501.115549
564.155587	2497.422903
564.511904	2498.884838
564.868164	2501.309633
565.224370	2498.572287
565.580520	2500.462719
565.936615	2499.005826
566.292654	2499.462050
566.648638	2498.345435
567.004567	2499.217554
567.360441	2500.258552
567.716260	2500.031701
568.072023	2500.351814
568.427732	2500.752586
568.783385	2500.465240
569.138982	2498.496669
569.494525	2498.284941
569.850013	2498.713439
570.205445	2498.668068
570.560823	2498.279900
570.916145	2501.846516
571.271412	2498.383243
571.626625	2500.566063
571.981782	2499.094046
572.336884	2497.380054
572.691931	2492.706904
573.046923	2496.727224
573.401860	2494.725886
573.756743	2499.656135
574.111570	2497.652276
574.466342	2500.936588
574.821059	2498.602533
575.175722	2498.310147
575.530330	2499.078922
575.884882	2499.162102
576.239380	2497.241422
576.593823	2499.015908
576.948211	2498.174035
577.302544	2496.381905
577.656823	2500.283758
578.011047	2499.071361
578.365216	2497.206134
578.719330	2500.530775
579.073389	2495.444251
579.427394	2498.398367
579.781344	2496.011380
580.135239	2497.473315
580.489080	2498.879797
580.842866	2497.904334
581.196597	2499.083964
581.550273	2498.146309
581.903895	2497.032214
582.257463	2498.602533
582.610975	2498.582369
582.964434	2498.957935
583.317837	2497.228819
583.671186	2498.118583
584.024481	2496.848212
584.377721	2498.534478
584.730906	2499.409118
585.084037	2496.391987
585.437113	2496.981803
585.790135	2496.051710
586.143103	2496.830568
586.496016	2497.266628
586.848874	2496.855774
587.201679	2498.841988
587.554428	2497.047338
587.907124	2495.494662
588.259765	2497.344766
588.612352	2496.054230
588.964884	2498.368120
589.317362	2498.000116
589.669786	2497.553973
590.022155	2498.660507
590.374470	2494.128509
590.726731	2493.561380
591.078937	2493.790752
591.431090	2495.063643
591.783188	2496.921309
592.135232	2495.073726
592.487222	2497.569097
592.839157	2497.057420
593.191038	2496.127327
593.542866	2497.755620
593.894639	2496.147492
594.246358	2494.894765
594.598022	2496.578510
594.949633	2493.652120
595.301190	2495.661020
595.652692	2496.323932
596.004141	2497.785867
596.355535	2497.503562
596.706876	2496.540702
597.058162	2496.439878
597.409395	2495.630773
597.760573	2496.812924
598.111698	2495.839981
598.462768	2498.552122
598.813785	2497.387615
599.164748	2496.422234
599.515657	2494.975423
599.866511	2497.243942
600.217312	2496.621360
600.568060	2495.688747
600.918753	2498.859632
601.269392	2494.917450
601.619978	2494.738489
601.970510	2493.246308
602.320988	2496.512975
602.671412	2496.535660
603.021783	2495.592965
603.372100	2496.875938
603.722363	2494.317553
604.072572	2498.504231
604.422728	2496.863335
604.772830	2494.010042
605.122878	2493.044661
605.472872	2496.994405
605.822813	2493.959631
606.172701	2492.217912
606.522534	2497.246463
606.872314	2496.144971
607.222041	2495.983654
607.571714	2494.279744
607.921333	2493.014414
608.270899	2492.132213
608.620411	2491.461739
608.969870	2495.446771
609.319276	2494.143633
609.668627	2498.710918
610.017926	2495.076246
610.367171	2498.080774
610.716362	2498.443737
611.065500	2495.114055
611.414585	2495.744199
611.763616	2497.289313
612.112594	2496.739827
612.461518	2494.287306
612.810389	2496.051710
613.159207	2494.655310
613.507971	2495.174549
613.856682	2497.342245
614.205340	2494.589775
614.553945	2496.013901
614.902496	2498.199241
615.250994	2496.986844
615.599439	2494.211688
615.947830	2495.718993
616.296169	2497.735455
616.644454	2496.452481
616.992686	2495.088849
617.340864	2493.667244
617.688990	2495.787049
618.037063	2495.915598
618.385082	2496.702018
618.733048	2496.860815
619.080961	2494.904847
619.428821	2495.592965
619.776628	2497.359889
620.124382	2495.361072
620.472083	2498.181597
620.819731	2497.173366
621.167326	2495.966010
621.514868	2494.892244
621.862357	2498.773933
622.209793	2498.005157
622.557176	2497.967348
622.904506	2496.659169
623.251783	2496.175218
623.599007	2493.460557
623.946179	2495.514827
624.293297	2496.296206
624.640363	2492.285968
624.987376	2491.444095
625.334336	2491.544918
625.681243	2492.386791
626.028097	2489.916625
626.374899	2496.117245
626.721647	2493.084991
627.068343	2495.240084
627.414987	2493.652120
627.761577	2495.635814
628.108115	2494.829230
628.454600	2491.560042
628.801032	2494.509117
629.147412	2491.244969
629.493739	2494.677995
629.840014	2494.854436
630.186236	2491.736482
630.532405	2493.679847
630.878521	2496.545743
631.224585	2492.452326
631.570597	2491.378560
631.916556	2492.422079
632.262462	2491.050885
632.608316	2493.276554
632.954117	2493.624394
633.299866	2494.700680
633.645562	2494.524240
633.991206	2494.478870
634.336797	2493.664723
634.682336	2491.005515
635.027823	2490.047695
635.373257	2492.099445
635.718639	2492.328818
636.063968	2489.402428
636.409245	2492.737151
636.754470	2492.149857
637.099642	2492.016266
637.444762	2491.658344
637.789829	2491.698673
638.134845	2492.235556
638.479808	2490.982829
638.824719	2490.299753
639.169577	2494.052892
639.514383	2492.527943
639.859137	2489.246152
640.203839	2488.880668
640.548489	2490.408138
640.893086	2490.203971
641.237632	2489.626759
641.582125	2494.279744
641.926566	2492.540546
642.270955	2490.057778
642.615292	2484.643578
642.959576	2485.301449
643.303809	2482.120481
643.647990	2490.022490
643.992118	2489.798158
644.336195	2491.754126
644.680219	2491.940649
645.024192	2492.210350
645.368112	2489.828405
645.711981	2488.623569
646.055797	2490.985350
646.399562	2491.522233
646.743274	2490.917294
647.086935	2490.357726
647.430544	2491.207161
647.774101	2493.838643
648.117606	2494.309991
648.461059	2490.319918
648.804460	2493.884013
649.147810	2489.775473
649.491108	2492.767398
649.834354	2488.981491
650.177548	2490.463591
650.520690	2489.765391
650.863781	2490.448467
651.206820	2489.437716
651.549807	2487.663230
651.892742	2489.457880
652.235626	2489.525936
652.578458	2490.327479
652.921238	2491.121461
653.263967	2488.999135
653.606644	2489.533498
653.949269	2490.536687
654.291843	2485.465287
654.634365	2490.851759
654.976836	2488.638693
655.319255	2491.895278
655.661622	2487.859835
656.003938	2489.624238
656.346203	2487.673312
656.688416	2489.747747
657.030577	2489.127685
657.372687	2487.983343
657.714746	2486.874289
658.056753	2489.510813
658.398708	2488.454691
658.740612	2489.208343
659.082465	2488.323621
659.424266	2486.350009
659.766016	2484.998980
660.107715	2488.305977
660.449362	2482.002014
660.790958	2487.363281
661.132503	2486.486120
661.473996	2487.890082
661.815438	2486.281953
662.156829	2486.218939
662.498168	2489.057109
662.839456	2487.494351
663.180693	2486.188692
663.521879	2488.159783
663.863013	2490.004846
664.204097	2484.706593
664.545129	2486.244145
664.886110	2487.322952
665.227040	2489.659527
665.567918	2488.671460
665.908746	2488.537870
666.249522	2485.808085
666.590248	2486.350009
666.930922	2490.166163
667.271545	2490.405617
667.612118	2489.147849
667.952639	2487.625421
668.293109	2488.560555
668.633528	2487.179279
668.973896	2488.182468
669.314213	2488.250524
669.654480	2489.029382
669.994695	2490.438385
670.334859	2488.583240
670.674973	2487.995946
671.015035	2491.297902
671.355047	2486.261789
671.695008	2486.554176
672.034918	2485.263640
672.374777	2486.186172
672.714585	2485.926552
673.054342	2486.833960
673.394049	2484.875472
673.733705	2486.876810
674.073310	2487.292705
674.412864	2485.556027
674.752368	2487.945534
675.091820	2487.824547
675.431223	2485.359422
675.770574	2487.325472
676.109875	2484.923363
676.449125	2485.402272
676.788324	2484.000831
677.127473	2484.663743
677.466571	2481.560913
677.805619	2486.660040
678.144616	2485.283805
678.483562	2486.823877
678.822458	2487.726244
679.161303	2486.912098
679.500098	2485.475369
679.838842	2486.009731
680.177535	2487.126347
680.516179	2487.292705
680.854771	2485.077118
681.193314	2487.055771
681.531805	2487.118785
681.870247	2486.700369
682.208638	2487.920328
682.546978	2487.055771
682.885268	2487.945534
683.223508	2486.166007
683.561697	2485.997128
683.899836	2488.386635
684.237925	2488.623569
684.575963	2484.888074
684.913951	2487.491830
685.251889	2486.652478
685.589776	2488.187510
685.927614	2486.302118
686.265401	2485.674494
686.603137	2482.198619
686.940824	2489.228508
687.278460	2489.687253
687.616046	2488.719351
687.953582	2485.951758
688.291068	2487.638024
688.628504	2489.099958
688.965889	2486.758343
689.303224	2487.002838
689.640510	2487.811944
689.977745	2489.067191
690.314930	2486.539052
690.652065	2484.134422
690.989150	2484.179792
691.326185	2487.252376
691.663170	2484.656181
692.000105	2486.715493
692.336990	2485.538383
692.673825	2484.880513
693.010610	2484.736840
693.347345	2482.304483
693.684030	2480.010758
694.020665	2480.419092
694.357251	2478.561426
694.693786	2483.685759
695.030272	2482.387662
695.366707	2481.634010
695.703093	2482.503609
696.039429	2481.142497
696.375716	2480.535038
696.711952	2484.361274
697.048139	2481.792806
697.384276	2485.576192
697.720363	2482.223825
698.056400	2484.434371
698.392388	2481.581078
698.728326	2483.234576
699.064214	2483.789103
699.400053	2482.208701
699.735842	2480.656026
700.071581	2480.577888
700.407270	2482.518732
700.742910	2483.637868
701.078501	2480.938330
701.414042	2481.565954
701.749533	2483.869761
702.084974	2480.787096
702.420366	2481.555872
702.755709	2482.034781
703.091002	2481.162662
703.426246	2482.370018
703.761440	2479.108392
704.096584	2482.644761
704.431679	2482.753146
704.766725	2480.429174
705.101721	2483.262302
705.436668	2483.126191
705.771565	2481.233238
706.106413	2480.633341
706.441212	2482.072590
706.775961	2482.095275
707.110661	2479.388176
707.445311	2481.336582
707.779913	2481.994452
708.114465	2482.115440
708.448967	2480.018320
708.783421	2481.724750
709.117825	2483.816829
709.452180	2484.593167
709.786485	2483.418578
710.120742	2482.395224
710.454949	2479.609986
710.789107	2482.609473
711.123216	2479.262147
711.457275	2482.032261
711.791286	2485.061994
712.125247	2480.953454
712.459159	2483.587457
712.793023	2482.601911
713.126837	2481.339102
713.460602	2481.288691
713.794318	2485.888743
714.127985	2483.181644
714.461602	2481.724750
714.795171	2483.337920
715.128691	2481.341623
715.462162	2484.774648
715.795584	2481.228197
716.128957	2481.873464
716.462281	2479.857003
716.795556	2479.665439
717.128782	2480.242651
717.461960	2481.129894
717.795088	2481.011427
718.128167	2481.631489
718.461198	2482.528814
718.794180	2477.709471
719.127113	2480.955974
719.459997	2481.545789
719.792833	2480.290542
720.125619	2478.614358
720.458357	2478.526138
720.791046	2482.853969
721.123686	2480.540079
721.456278	2477.613689
721.788821	2479.609986
722.121315	2478.437918
722.453761	2477.959008
722.786158	2480.560244
723.118506	2479.186529
723.450805	2479.993114
723.783056	2480.053608
724.115259	2480.650985
724.447412	2478.465644
724.779518	2479.302476
725.111574	2479.763742
725.443582	2477.926241
725.775542	2479.736015
726.107453	2481.523104
726.439315	2475.135962
726.771129	2484.310862
727.102895	2477.737198
727.434612	2479.569657
727.766281	2476.814667
728.097901	2480.693834
728.429473	2479.612507
728.760996	2480.414050
729.092471	2481.208032
729.423897	2480.953454
729.755276	2480.144349
730.086606	2480.386324
730.417887	2479.630151
730.749120	2483.239617
731.080305	2480.517394
731.411442	2482.780872
731.742530	2481.815491
732.073570	2483.242138
732.404562	2478.846252
732.735506	2479.108392
733.066401	2479.748618
733.397249	2480.580408
733.728048	2480.693834
734.058798	2480.477065
734.389501	2480.953454
734.720156	2478.994966
735.050762	2478.936992
735.381320	2477.038998
735.711831	2482.629637
736.042293	2482.087713
736.372707	2480.661067
736.703073	2477.989255
737.033391	2476.686117
737.363661	2479.693165
737.693883	2478.722743
738.024056	2478.337095
738.354182	2479.279791
738.684260	2479.446149
739.014290	2480.653505
739.344272	2479.060501
739.674207	2479.347846
740.004093	2481.709627
740.333931	2478.987404
740.663722	2482.440594
740.993464	2477.603607
741.323159	2481.258444
741.652806	2478.437918
741.982405	2480.000676
742.311956	2477.548154
742.641460	2480.663588
742.970915	2479.652836
743.300323	2481.245841
743.629683	2475.425829
743.958996	2477.280973
744.288260	2473.560602
744.617477	2481.704586
744.946647	2477.462455
745.275768	2480.219966
745.604842	2476.401292
745.933869	2481.202991
746.262847	2481.717189
746.591778	2479.650316
746.920662	2477.709471
747.249498	2479.115953
747.578286	2476.187043
747.907027	2477.623772
748.235720	2478.132928
748.564365	2477.785089
748.892963	2479.577219
749.221514	2475.889615
749.550017	2479.703248
749.878473	2477.069245
750.206881	2481.684421
750.535242	2477.517907
750.863555	2480.565285
751.191821	2477.512866
751.520039	2477.805253
751.848210	2477.704430
752.176334	2475.771148
752.504411	2477.948926
752.832440	2475.942547
753.160421	2478.558906
753.488356	2474.460448
753.816243	2479.010089
754.144082	2476.986066
754.471875	2477.616210
754.799620	2477.117136
755.127318	2477.359111
755.454969	2479.184009
755.782572	2475.801395
756.110129	2480.305666
756.437638	2477.953967
756.765100	2478.213587
757.092515	2478.536221
757.419882	2475.758545
757.747203	2474.170581
758.074477	2477.008751
758.401703	2476.489512
758.728882	2477.570840
759.056014	2476.802064
759.383099	2478.707620
759.710138	2475.214100
760.037129	2472.411219
760.364073	2474.914152
760.690970	2475.564460
761.017820	2476.071096
761.344623	2476.950778
761.671379	2480.862713
761.998088	2477.759883
762.324751	2478.836169
762.651366	2482.773310
762.977935	2482.254072
763.304456	2482.231386
763.630931	2484.371356
763.957359	2481.908753
764.283740	2479.914976
764.610074	2482.231386
764.936362	2481.205512
765.262602	2479.425984
765.588796	2480.514873
765.914943	2479.045377
766.241044	2476.981025
766.567097	2478.468165
766.893104	2477.371714
767.219064	2477.006230
767.544978	2476.867599
767.870845	2476.469347
768.196665	2477.570840
768.522438	2476.658391
768.848165	2475.241827
769.173846	2475.645119
769.499479	2474.510859
769.825066	2475.166209
770.150607	2474.997331
770.476101	2472.234778
770.801548	2473.542958
771.126949	2471.776033
771.452303	2475.420788
771.777611	2474.291569
772.102872	2476.852475
772.428087	2472.010447
772.753256	2476.766776
773.078378	2473.474902
773.403453	2474.838534
773.728482	2475.433390
774.053465	2475.902218
774.378401	2473.996662
774.703291	2476.005561
775.028135	2474.697382
775.352932	2477.787609
775.677683	2475.672845
776.002388	2473.227886
776.327046	2468.859726
776.651658	2471.138327
776.976224	2469.983903
777.300743	2474.861219
777.625216	2473.817701
777.949643	2475.665283
778.274024	2475.493884
778.598359	2474.586477
778.922647	2476.403812
779.246889	2473.265694
779.571086	2473.484984
779.895236	2473.805098
780.219339	2472.262505
780.543397	2474.727629
780.867409	2474.644450
781.191374	2474.815849
781.515294	2473.860550
781.839167	2477.013792
782.162995	2476.033288
782.486776	2475.811477
782.810511	2477.333905
783.134201	2473.459779
783.457844	2476.623103
783.781441	2476.232413
784.104993	2473.041363
784.428498	2474.437762
784.751958	2471.307206
785.075372	2474.304172
785.398739	2477.316261
785.722061	2474.089923
786.045337	2472.320478
786.368568	2475.917341
786.691752	2473.197639
787.014891	2472.612865
787.337983	2474.263843
787.661030	2473.464820
787.984031	2475.415746
788.306987	2473.550519
788.629897	2477.076807
788.952760	2476.970942
789.275579	2476.620582
789.598351	2475.100674
789.921078	2473.237968
790.243759	2472.058338
790.566395	2474.258802
790.888984	2477.049080
791.211529	2475.509008
791.534027	2472.673359
791.856480	2473.099336
792.178888	2471.034984
792.501249	2471.168574
792.823566	2472.106229
793.145836	2468.569859
793.468062	2472.804429
793.790241	2472.146558
794.112375	2474.727629
794.434464	2474.641929
794.756507	2473.406847
795.078505	2471.632360
795.400457	2474.125211
795.722364	2475.153606
796.044226	2476.595376
796.366042	2472.282669
796.687812	2473.981538
797.009538	2473.530355
797.331218	2473.870633
797.652852	2474.772999
797.974442	2474.183184
798.295986	2472.849799
798.617484	2474.286528
798.938938	2476.620582
799.260346	2475.219141
799.581709	2472.441466
799.903026	2475.075468
800.224299	2474.097485
800.545526	2475.072948
800.866708	2473.941209
801.187845	2475.501446
801.508936	2475.879532
801.829983	2474.475571
802.150984	2471.934830
802.471940	2473.863071
802.792851	2472.527165
803.113717	2472.446507
803.434538	2472.275107
803.755314	2470.626650
804.076045	2470.800570
804.396731	2473.275777
804.717372	2471.350056
805.037967	2474.936837
805.358518	2473.056486
805.679024	2470.213276
805.999485	2472.915334
806.319901	2470.568677
806.640272	2473.401805
806.960598	2472.950622
807.280879	2472.441466
807.601115	2472.983390
807.921306	2471.839048
808.241453	2471.609675
808.561554	2466.928964
808.881611	2472.443986
809.201623	2469.956177
809.521590	2473.396764
809.841513	2473.656384
810.161390	2471.967597
810.481223	2471.758389
810.801011	2475.171250
811.120755	2473.631178
811.440453	2473.943729
811.760107	2473.152268
812.079716	2474.437763
812.399281	2471.917186
812.718801	2471.801239
813.038276	2473.341312
813.357707	2470.203193
813.677093	2471.917186
813.996434	2476.406333
814.315731	2472.068420
814.634983	2472.111270
814.954191	2472.935499
815.273354	2473.053966
815.592473	2473.951291
815.911547	2470.941722
816.230577	2474.732670
816.549562	2471.556743
816.868502	2473.565643
817.187399	2473.109418
817.506250	2472.237299
817.825058	2470.203193
818.143821	2475.014975
818.462539	2474.568833
818.781213	2474.911631
819.099843	2473.149748
819.418429	2473.366517
819.736970	2475.332567
820.055466	2477.704430
820.373919	2475.272073
820.692327	2476.280304
821.010691	2482.309524
821.329011	2482.319607
821.647286	2492.258241
821.965517	2501.513800
822.283704	2508.455469
822.601847	2511.538134
822.919945	2510.678618
823.237999	2505.574449
823.556010	2501.733090
823.873976	2494.960300
824.191897	2490.466111
824.509775	2485.636686
824.827609	2486.518888
825.145398	2478.669811
825.463144	2483.340440
825.780845	2480.247692
826.098502	2486.256748
826.416116	2486.102993
826.733685	2488.820174
827.051210	2486.476038
827.368692	2488.641213
827.686129	2484.431850
828.003522	2486.102993
828.320872	2479.834318
828.638177	2479.015130
828.955439	2478.546303
829.272656	2476.771817
829.589830	2475.299800
829.906960	2474.435242
830.224046	2474.498256
830.541088	2475.433390
830.858086	2476.134111
831.175041	2474.127732
831.491952	2471.536578
831.808819	2474.029429
832.125642	2474.858699
832.442421	2476.423977
832.759157	2475.322485
833.075849	2474.384830
833.392497	2478.362301
833.709101	2479.962867
834.025662	2480.204843
834.342179	2478.228710
834.658653	2479.005048
834.975083	2479.879688
835.291469	2479.118474
835.607811	2474.125211
835.924110	2475.226703
836.240366	2472.955663
836.556578	2474.289048
836.872746	2471.655046
837.188871	2470.150261
837.504952	2473.409367
837.820990	2473.069089
838.136984	2471.982721
838.452935	2475.493884
838.768842	2472.048256
839.084706	2472.817032
839.400526	2471.715539
839.716303	2473.500108
840.032037	2470.901393
840.347727	2470.132617
840.663373	2472.149079
840.978977	2469.497432
841.294537	2472.028091
841.610054	2471.168574
841.925527	2470.984572
842.240957	2472.990951
842.556344	2470.704788
842.871687	2469.772175
843.186987	2471.937350
843.502244	2468.085909
843.817458	2471.781074
844.132629	2469.341156
844.447756	2472.663276
844.762840	2472.542289
845.077881	2473.011116
845.392879	2471.070272
845.707833	2471.236630
846.022745	2471.614716
846.337613	2471.796198
846.652438	2470.407360
846.967221	2469.696557
847.281960	2469.368882
847.596656	2470.649335
847.911309	2469.588173
848.225919	2472.131435
848.540485	2471.307206
848.855009	2468.592545
849.169490	2469.842751
849.483928	2469.202524
849.798323	2468.489201
850.112675	2471.748307
850.426984	2473.056486
850.741251	2469.255456
851.055474	2469.610858
851.369654	2471.430714
851.683792	2471.985241
851.997887	2468.869808
852.311938	2472.595221
852.625947	2470.644294
852.939914	2471.012298
853.253837	2471.410550
853.567718	2469.683954
853.881555	2472.254943
854.195350	2468.111114
854.509103	2469.449541
854.822812	2469.406691
855.136479	2469.121866
855.450103	2470.505663
855.763685	2466.200517
856.077224	2465.542647
856.390720	2469.588172
856.704173	2464.133644
857.017584	2469.767133
857.330953	2469.331074
857.644278	2471.627319
857.957561	2473.134624
858.270802	2469.658749
858.584000	2472.542289
858.897155	2468.804273
859.210268	2466.717235
859.523339	2471.884418
859.836367	2471.516414
860.149352	2467.533902
860.462295	2471.251753
860.775195	2468.242184
861.088054	2469.784777
861.400869	2470.218317
861.713642	2467.609520
862.026373	2469.522637
862.339062	2470.631691
862.651708	2470.336784
862.964312	2469.429376
863.276873	2467.644808
863.589392	2471.027422
863.901869	2469.031125
864.214303	2468.617750
864.526696	2470.319140
864.839045	2471.153451
865.151353	2471.113122
865.463619	2470.137658
865.775842	2469.026084
866.088023	2469.744448
866.400162	2468.312761
866.712258	2470.533389
867.024313	2468.012812
867.336325	2468.443831
867.648296	2470.525827
867.960224	2471.937350
868.272110	2468.521968
868.583954	2470.314099
868.895755	2470.372072
869.207515	2467.377627
869.519233	2469.283183
869.830909	2474.009264
870.142542	2469.623461
870.454134	2472.474233
870.765684	2470.729994
871.077191	2467.639767
871.388657	2468.171608
871.700081	2463.974848
872.011463	2466.883593
872.322803	2466.757565
872.634101	2468.708491
872.945357	2468.433748
873.256571	2469.878039
873.567744	2469.762092
873.878874	2471.241671
874.189963	2469.192442
874.501010	2467.909468
874.812015	2469.169757
875.122979	2470.767802
875.433900	2470.437607
875.744780	2471.251753
876.055618	2469.605817
876.366415	2469.860395
876.677169	2470.581280
876.987882	2473.414408
877.298554	2471.077833
877.609183	2471.619757
877.919771	2469.981383
878.230317	2469.159674
878.540822	2471.203862
878.851285	2472.711167
879.161707	2469.769654
879.472087	2472.020529
879.782425	2476.061014
880.092722	2474.273925
880.402977	2479.531848
880.713191	2480.403968
881.023363	2482.798516
881.333494	2486.405462
881.643583	2488.963847
881.953631	2488.633652
882.263637	2485.820688
882.573602	2485.949237
882.883526	2483.269864
883.193408	2481.918835
883.503248	2480.948413
883.813048	2480.219966
884.122806	2479.161324
884.432522	2476.149234
884.742197	2474.833493
885.051831	2478.405151
885.361424	2474.155458
885.670975	2474.034470
885.980485	2473.789974
886.289954	2472.806949
886.599382	2468.958028
886.908768	2472.159161
887.218113	2463.848819
887.527417	2471.246712
887.836680	2463.138016
888.145901	2470.767803
888.455082	2469.424335
888.764221	2469.018522
889.073319	2467.422997
889.382376	2472.277628
889.691392	2472.504480
890.000366	2469.550364
890.309300	2471.753348
890.618193	2470.482977
890.927044	2470.810652
891.235855	2469.943574
891.544625	2468.529530
891.853353	2471.511373
892.162041	2470.697226
892.470687	2473.071610
892.779293	2471.256794
893.087858	2471.050107
893.396381	2471.793677
893.704864	2471.569346
894.013306	2471.345015
894.321707	2473.280818
894.630068	2471.292082
894.938387	2474.891466
895.246665	2476.302989
895.554903	2474.997331
895.863100	2473.681589
896.171256	2474.142855
896.479371	2471.186218
896.787446	2472.877525
897.095480	2470.049438
897.403473	2471.289562
897.711425	2470.316619
898.019336	2470.548512
898.327207	2468.630353
898.635038	2472.161682
898.942827	2469.351238
899.250576	2472.726291
899.558284	2469.835189
899.865952	2469.424335
900.173579	2467.763275
900.481165	2469.268059
900.788711	2467.586834
901.096216	2470.992134
901.403681	2469.535240
901.711105	2471.634881
902.018489	2468.287555
902.325832	2465.220013
902.633135	2467.886783
902.940397	2470.641774
903.247619	2465.950980
903.554800	2470.803091
903.861941	2473.028760
904.169041	2476.398771
904.476101	2472.877525
904.783121	2474.858699
905.090100	2475.042701
905.397039	2474.505818
905.703938	2471.176136
906.010796	2474.110088
906.317614	2470.545992
906.624391	2471.332412
906.931129	2471.433235
907.237826	2471.886939
907.544483	2469.003399
907.851099	2471.216465
908.157675	2470.099850
908.464211	2470.251084
908.770707	2471.125724
909.077163	2467.231433
909.383578	2470.440128
909.689954	2469.545323
909.996289	2470.361990
910.302584	2469.673872
910.608839	2467.692699
910.915054	2469.820066
911.221229	2470.641774
911.527363	2469.752010
911.833458	2466.928964
912.139513	2470.432566
912.445527	2468.968111
912.751502	2469.454582
913.057436	2468.892493
913.363331	2469.842751
913.669186	2469.973821
913.975000	2469.056331
914.280775	2468.511886
914.586510	2469.636063
914.892205	2472.839717
915.197859	2473.237968
915.503475	2475.438432
915.809050	2474.289048
916.114585	2473.752166
916.420081	2472.895169
916.725536	2474.359625
917.030952	2475.574543
917.336328	2475.214100
917.641665	2473.429532
917.946961	2467.670013
918.252218	2473.540437
918.557435	2466.694550
918.862612	2469.936012
919.167750	2472.915334
919.472848	2471.163533
919.777906	2470.051959
920.082925	2470.712350
920.387904	2471.798718
920.692843	2471.962556
920.997743	2468.330405
921.302603	2470.230920
921.607423	2472.471712
921.912204	2471.161013
922.216946	2468.748820
922.521647	2470.142699
922.826310	2469.368882
923.130932	2470.304016
923.435516	2468.325363
923.740059	2468.544654
924.044564	2469.661269
924.349028	2468.635394
924.653454	2466.389560
924.957840	2469.671352
925.262186	2466.928964
925.566493	2467.324694
925.870761	2466.339149
926.174989	2468.368213
926.479178	2466.419807
926.783328	2467.745631
927.087438	2468.572380
927.391509	2468.184211
927.695541	2468.418625
927.999533	2467.911989
928.303486	2467.085240
928.607400	2467.919551
928.911275	2467.659931
929.215110	2467.422997
929.518906	2468.111114
929.822663	2465.459468
930.126381	2466.679427
930.430060	2471.332412
930.733699	2468.080867
931.037299	2466.245887
931.340861	2468.141361
931.644383	2464.015177
931.947866	2465.212451
932.251309	2467.440641
932.554714	2467.664972
932.858080	2464.184056
933.161407	2461.774384
933.464694	2464.862091
933.767943	2461.502162
934.071153	2468.547174
934.374323	2467.319653
934.677455	2470.150261
934.980548	2468.274952
935.283602	2466.182873
935.586617	2465.270424
935.889593	2467.720425
936.192530	2469.918368
936.495428	2468.030456
936.798287	2465.519961
937.101108	2464.317646
937.403890	2467.317133
937.706632	2468.219499
938.009336	2467.609520
938.312002	2466.351752
938.614628	2466.581124
938.917216	2468.022894
939.219765	2466.767647
939.522275	2469.207565
939.824747	2466.495425
940.127179	2467.493573
940.429573	2468.774026
940.731929	2465.232616
941.034246	2469.305868
941.336524	2467.168419
941.638763	2465.542647
941.940964	2469.008440
942.243126	2468.043059
942.545250	2468.713532
942.847335	2465.714046
943.149381	2467.662452
943.451389	2465.086422
943.753359	2466.122379
944.055290	2467.279324
944.357182	2467.143213
944.659036	2468.799232
944.960851	2465.424179
945.262628	2467.191104
945.564367	2466.908799
945.866067	2466.003912
946.167729	2466.263532
946.469352	2468.602627
946.770937	2467.029787
947.072484	2468.965590
947.373992	2468.085909
947.675462	2468.171608
947.976893	2466.679427
948.278286	2459.339507
948.579641	2463.556432
948.880958	2460.443519
949.182236	2466.772688
949.483476	2466.326546
949.784678	2466.820579
950.085841	2464.315126
950.386967	2468.269911
950.688054	2466.394602
950.989103	2468.310240
951.290114	2466.631536
951.591087	2466.697071
951.892021	2467.733028
952.192917	2468.456433
952.493776	2468.869808
952.794596	2467.054993
953.095378	2467.770837
953.396122	2468.433748
953.696828	2465.527523
953.997496	2467.904427
954.298126	2464.768829
954.598718	2468.711012
954.899272	2463.359827
955.199788	2465.167081
955.500266	2467.291927
955.800706	2465.761937
956.101108	2468.655559
956.401472	2466.152626
956.701798	2466.180353
957.002087	2463.841257
957.302337	2469.845271
957.602550	2466.588686
957.902724	2467.352421
958.202861	2465.260342
958.502960	2464.728500
958.803022	2465.451906
959.103045	2468.768985
959.403031	2466.467698
959.702979	2466.596248
960.002889	2468.564818
960.302762	2466.092132
960.602596	2466.387040
960.902393	2464.690692
961.202153	2467.047431
961.501875	2465.963583
961.801559	2465.189766
962.101205	2466.160188
962.400814	2467.738069
962.700385	2463.909313
962.999918	2464.055506
963.299414	2458.913529
963.598873	2465.250260
963.898293	2463.080043
964.197677	2465.230095
964.497022	2464.330249
964.796331	2466.971814
965.095601	2465.290589
965.394835	2466.218161
965.694030	2464.519292
965.993189	2464.166412
966.292309	2464.499128
966.591393	2466.644139
966.890439	2468.237143
967.189447	2462.354117
967.488419	2465.519961
967.787353	2466.502986
968.086249	2466.223202
968.385108	2466.913840
968.683930	2463.979889
968.982714	2466.717235
969.281462	2464.035342
969.580172	2467.203707
969.878844	2466.276134
970.177480	2465.053655
970.476078	2464.259673
970.774639	2466.727318
971.073162	2465.398974
971.371649	2466.107256
971.670098	2462.749847
971.968510	2466.790332
972.266885	2463.443006
972.565223	2469.016002
972.863524	2461.464353
973.161788	2468.746300
973.460014	2467.138172
973.758204	2465.872842
974.056356	2464.887297
974.354471	2467.911989
974.652550	2463.195989
974.950591	2464.915023
975.248595	2462.878397
975.546563	2469.031125
975.844493	2465.522482
976.142386	2465.459467
976.440243	2466.150106
976.738062	2465.865280
977.035845	2466.802935
977.333590	2466.603809
977.631299	2463.659776
977.928971	2465.162039
978.226606	2461.348407
978.524204	2460.889662
978.821765	2463.049796
979.119290	2465.144395
979.416777	2465.656073
979.714228	2465.608182
980.011642	2464.688171
980.309020	2464.597430
980.606360	2466.160188
980.903664	2466.770167
981.200931	2466.843264
981.498162	2466.069447
981.795356	2465.797225
982.092513	2465.156998
982.389633	2464.824282
982.686717	2466.293778
982.983764	2467.541464
983.280775	2467.619602
983.577749	2465.182204
983.874686	2467.221351
984.171587	2465.061216
984.468451	2466.281176
984.765279	2467.864098
985.062070	2466.795373
985.358824	2465.114148
985.655543	2465.401494
985.952224	2466.623974
986.248869	2465.449385
986.545478	2465.832513
986.842050	2461.948304
987.138586	2463.921916
987.435086	2465.875363
987.731549	2466.845785
988.027975	2464.025259
988.324366	2464.252111
988.620719	2466.392081
988.917037	2465.356124
989.213318	2463.543829
989.509563	2464.796556
989.805772	2464.078191
990.101944	2463.639611
990.398080	2465.343521
990.694180	2464.158850
990.990244	2467.382668
991.286271	2465.842595
991.582262	2463.188428
991.878217	2465.953501
992.174136	2468.378296
992.470019	2463.858901
992.765865	2463.019549
993.061676	2460.841771
993.357450	2461.063581
993.653188	2460.506534
993.948890	2462.182717
994.244556	2465.313274
994.540186	2465.504838
994.835780	2465.341000
995.131337	2464.857050
995.426859	2464.599951
995.722345	2463.715228
996.017795	2466.079529
996.313208	2464.985599
996.608586	2466.737400
996.903928	2466.185394
997.199234	2463.238839
997.494504	2468.645477
997.789738	2465.305712
998.084936	2466.059365
998.380099	2463.790846
998.675225	2466.434931
998.970316	2466.142544
999.265371	2464.650362
999.560390	2465.824951
999.855373	2463.599282
1000.150320	2464.753706
1000.445232	2466.243367
1000.740108	2464.166412
1001.034948	2467.218830
1001.329752	2463.584158
1001.624521	2467.460806
1001.919254	2463.962245
1002.213951	2465.686319
1002.508613	2465.973665
1002.803239	2466.634056
1003.097829	2462.621298
1003.392384	2464.277317
1003.686903	2464.899899
1003.981386	2463.664817
1004.275834	2464.673047
1004.570246	2464.345373
1004.864623	2464.897379
1005.158964	2462.724642
1005.453270	2465.696402
1005.747540	2465.398974
1006.041775	2463.289251
1006.335974	2463.004426
1006.630138	2465.146916
1006.924266	2464.983078
1007.218359	2462.898561
1007.512416	2461.721452
1007.806438	2460.614919
1008.100425	2463.710187
1008.394376	2459.357151
1008.688292	2464.937708
1008.982172	2461.998715
1009.276017	2465.381330
1009.569827	2465.507358
1009.863602	2463.009467
1010.157341	2465.824951
1010.451045	2464.489045
1010.744714	2463.468212
1011.038347	2466.813017
1011.331945	2461.870166
1011.625508	2466.835703
1011.919036	2463.874025
1012.212528	2462.318829
1012.505986	2464.282358
1012.799408	2464.962914
1013.092795	2463.163222
1013.386147	2462.926288
1013.679464	2465.799745
1013.972745	2465.625826
1014.265992	2464.148768
1014.559204	2466.621453
1014.852380	2463.768160
1015.145521	2467.118007
1015.438628	2463.478294
1015.731699	2462.744806
1016.024736	2463.541308
1016.317737	2465.272945
1016.610703	2465.754375
1016.903635	2465.461988
1017.196531	2466.470219
1017.489393	2463.732872
1017.782219	2467.218830
1018.075011	2463.667337
1018.367768	2463.395115
1018.660490	2462.028962
1018.953177	2462.028962
1019.245829	2462.028962
