Dividing Wavelength (nm)	Counts (n)	Blue Motor Position (mm): 0.000000	Red Motor Position (mm): 39.500000	
326.493990	2052.616694
326.888308	2052.616694
327.282561	2052.616694
327.676750	2027.799093
328.070874	2028.991326
328.464933	2033.823272
328.858929	2042.181505
329.252859	2053.037630
329.646726	2064.680175
330.040528	2082.682135
330.434265	2099.814497
330.827938	2121.662858
331.221547	2142.056845
331.615091	2165.132727
332.008571	2180.041940
332.401986	2201.471885
332.795338	2221.359237
333.188625	2240.545868
333.581847	2259.382139
333.975006	2281.157403
334.368100	2297.384878
334.761129	2312.886426
335.154095	2327.621718
335.546996	2354.312108
335.939833	2403.697771
336.332606	2419.315266
336.725315	2429.959662
337.117960	2443.492640
337.510540	2450.464555
337.903056	2461.126596
338.295508	2465.784622
338.687896	2474.399954
339.080220	2478.044708
339.472480	2482.014617
339.864676	2488.631131
340.256807	2492.573313
340.648875	2491.865031
341.040879	2494.594816
341.432818	2494.012563
341.824694	2496.878459
342.216506	2495.091370
342.608253	2494.070536
342.999937	2493.591627
343.391557	2497.062461
343.783113	2493.142964
344.174605	2491.602891
344.566033	2487.285143
344.957397	2488.928559
345.348697	2484.699031
345.739934	2484.749443
346.131106	2485.228352
346.522215	2483.043012
346.913260	2477.999338
347.304241	2482.692652
347.695159	2477.570840
348.086012	2477.154944
348.476802	2474.319295
348.867528	2469.010960
349.258191	2468.274952
349.648789	2469.313430
350.039324	2466.432410
350.429796	2469.280662
350.820203	2467.581793
351.210548	2466.250929
351.600828	2467.170939
351.991045	2467.498614
352.381198	2468.123717
352.771288	2466.407204
353.161314	2466.608851
353.551276	2464.589868
353.941175	2467.380147
354.331010	2467.226392
354.720782	2464.972996
355.110490	2468.247226
355.500135	2468.400981
355.889717	2466.868470
356.279235	2467.954839
356.668689	2468.872329
357.058080	2468.491722
357.447408	2469.136989
357.836672	2472.965746
358.225873	2468.587503
358.615010	2473.419449
359.004084	2473.444655
359.393095	2469.835189
359.782043	2471.874336
360.170927	2472.567494
360.559748	2474.316775
360.948505	2473.303503
361.337199	2477.139821
361.725830	2475.088071
362.114398	2476.809625
362.502903	2474.223513
362.891344	2480.214925
363.279722	2476.764255
363.668037	2478.231231
364.056289	2478.236272
364.444478	2479.214256
364.832603	2482.385142
365.220665	2481.787765
365.608665	2481.976808
365.996601	2483.416058
366.384474	2481.392034
366.772284	2482.576705
367.160031	2481.697024
367.547715	2483.983187
367.935336	2480.265336
368.322893	2478.758031
368.710388	2479.652836
369.097820	2483.353043
369.485189	2481.606283
369.872495	2486.130719
370.259738	2488.091728
370.646918	2488.915956
371.034035	2490.453508
371.421090	2490.818992
371.808081	2490.617346
372.195010	2491.076091
372.581875	2494.793942
372.968678	2494.932573
373.355418	2495.925681
373.742096	2497.339724
374.128710	2501.864160
374.515262	2503.671414
374.901751	2506.963287
375.288177	2506.628050
375.674540	2513.529390
376.060841	2515.838238
376.447079	2522.893333
376.833254	2526.031452
377.219367	2527.145547
377.605417	2536.569984
377.991404	2542.843700
378.377329	2549.392158
378.763191	2556.096893
379.148991	2566.048131
379.534727	2576.702609
379.920402	2579.770152
380.306013	2589.900350
380.691563	2609.364245
381.077049	2614.173506
381.462474	2624.112141
381.847835	2641.302475
382.233134	2653.658343
382.618371	2660.932728
383.003545	2681.845955
383.388657	2694.854653
383.773706	2712.332333
384.158693	2727.029817
384.543618	2744.073958
384.928480	2757.538880
385.313280	2779.062087
385.698017	2800.542443
386.082692	2825.576813
386.467305	2839.344204
386.851856	2863.990405
387.236344	2893.594581
387.620770	2909.204514
388.005133	2928.020621
388.389435	2962.509675
388.773674	2974.006026
389.157851	3011.106398
389.541965	3035.301416
389.926018	3049.401523
390.310008	3081.170875
390.693936	3105.277672
391.077802	3133.379585
391.461606	3168.650017
391.845348	3183.962522
392.229027	3214.401009
392.612645	3254.145466
392.996200	3283.003551
393.379694	3322.450580
393.763125	3366.510265
394.146494	3393.298956
394.529801	3428.758433
394.913047	3472.538333
395.296230	3478.038232
395.679351	3501.199813
396.062410	3554.260478
396.445408	3531.860111
396.828343	3573.328642
397.211217	3607.023715
397.594028	3584.172164
397.976778	3629.466932
398.359466	3664.823064
398.742092	3672.599044
399.124656	3687.674615
399.507158	3748.211311
399.889598	3758.759925
400.271977	3822.134791
400.654294	3808.213644
401.036549	3870.015670
401.418742	3867.631204
401.800874	3934.734003
402.182944	3964.350782
402.564952	4048.747259
402.946898	4043.459088
403.328783	4038.601937
403.710606	4091.377776
404.092367	4162.238755
404.474067	4226.165627
404.855705	4210.071744
405.237282	4182.514276
405.618797	4278.167650
406.000250	4359.494064
406.381642	4445.803659
406.762972	4441.097742
407.144240	4407.097680
407.525447	4473.048575
407.906593	4488.086337
408.287677	4575.842743
408.668700	4600.181434
409.049661	4641.614677
409.430560	4676.968289
409.811399	4658.847862
410.192176	4713.909865
410.572891	4790.200167
410.953545	4896.576074
411.334138	4796.846928
411.714669	4906.151746
412.095139	4822.093026
412.475547	4934.629224
412.855894	4937.318680
413.236180	5035.638824
413.616405	4966.948062
413.996568	5071.020162
414.376670	5076.005863
414.756711	5067.317435
415.136691	5142.909537
415.516609	5225.609665
415.896466	5258.404892
416.276262	5339.645607
416.655997	5452.948060
417.035670	5546.191762
417.415283	5687.727197
417.794834	5766.223004
418.174324	5723.461416
418.553753	5725.445110
418.933121	5890.984000
419.312428	5904.595115
419.691674	5828.577036
420.070859	6058.438528
420.449983	5933.080155
420.829045	6132.833356
421.208047	6051.549791
421.586988	6217.741510
421.965867	6291.289424
422.344686	6370.319593
422.723444	6538.167331
423.102141	6154.205327
423.480777	6548.199227
423.859352	6356.630339
424.237866	6728.380147
424.616319	6730.636064
424.994712	6886.072481
425.373044	6798.915972
425.751314	7119.929087
426.129524	6836.669173
426.507673	7103.628516
426.885762	7151.834550
427.263789	7196.421035
427.641756	7276.351050
428.019662	7360.250973
428.397508	7404.287973
428.775292	7385.620580
429.153016	7558.627939
429.530679	7485.626990
429.908282	7538.826287
430.285824	7489.806107
430.663305	7772.156093
431.040726	7650.329048
431.418086	7650.455077
431.795385	7789.850543
432.172624	7983.372877
432.549802	7861.621450
432.926920	7999.718818
433.303977	7940.659180
433.680974	7980.232238
434.057910	8189.561110
434.434786	8235.823779
434.811601	8190.569341
435.188355	8536.866363
435.565050	8426.979292
435.941683	8434.644366
436.318257	8770.241540
436.694770	8720.661792
437.071222	8955.667781
437.447614	8724.752688
437.823946	8695.592133
438.200218	8850.153910
438.576429	8720.424857
438.952580	8895.443637
439.328670	8899.968072
439.704700	8973.679824
440.080670	8870.862970
440.456580	9143.271801
440.832429	9123.462587
441.208218	8853.561730
441.583947	8966.675140
441.959616	9092.751878
442.335224	9119.943861
442.710773	9205.983755
443.086261	9391.089883
443.461689	9105.246377
443.837057	9278.641905
444.212365	9492.767435
444.587612	9474.783119
444.962800	9364.785142
445.337927	9501.980144
445.712995	9039.935709
446.088002	9717.086178
446.462949	9773.282441
446.837837	9757.811140
447.212664	9782.464903
447.587431	10620.297110
447.962139	11625.755245
448.336786	12592.020929
448.711374	12369.169161
449.085901	11141.081070
449.460369	11073.060781
449.834776	10843.370688
450.209124	11760.669125
450.583412	11585.925088
450.957640	11900.566185
451.331808	11489.628967
451.705917	10915.411298
452.079965	10791.986207
452.453954	10989.501136
452.827883	10940.105390
453.201752	10910.297047
453.575562	10909.523230
453.949311	11260.145562
454.323001	11328.264153
454.696632	11238.826523
455.070202	11840.853718
455.443713	11891.245092
455.817164	12068.386197
456.190556	12390.425187
456.563888	12255.781008
456.937160	12524.177080
457.310373	12001.285918
457.683526	12017.006757
458.056619	12031.527800
458.429653	12096.793098
458.802628	12240.140829
459.175542	12292.127728
459.548398	12849.298736
459.921194	13421.815017
460.293930	13704.548130
460.666607	14571.248505
461.039224	15385.357042
461.411782	15736.622122
461.784280	15406.885290
462.156719	15348.894377
462.529099	15265.969917
462.901419	14616.180309
463.273680	14216.610894
463.645882	14423.154528
464.018024	14310.951047
464.390106	14681.372511
464.762130	15753.872950
465.134094	17290.174667
465.505999	19602.025136
465.877845	21881.980224
466.249631	23181.430889
466.621358	22714.988048
466.993026	21895.256103
467.364634	21152.250520
467.736184	20335.805408
468.107674	19720.512416
468.479105	19579.831456
468.850477	19302.978849
469.221790	18872.867603
469.593043	18198.000775
469.964238	17799.381617
470.335373	17851.930605
470.706449	18584.869004
471.077467	19429.408467
471.448425	21935.098862
471.819324	23830.991124
472.190164	23757.382716
472.560945	21993.457780
472.931667	20400.470808
473.302330	20060.119827
473.672934	19507.311937
474.043479	19924.787532
474.413965	19708.867351
474.784393	19514.760242
475.154761	20205.814214
475.525070	20326.179324
475.895321	20164.050775
476.265513	20695.206909
476.635645	21308.198614
477.005719	21355.804750
477.375734	21736.361454
477.745691	22380.963714
478.115588	23019.715715
478.485427	24213.662592
478.855207	26046.633692
479.224928	27879.929947
479.594591	29343.230715
479.964194	28986.296858
480.333739	29461.125659
480.703226	29678.772436
481.072653	30117.466246
481.442022	30636.261471
481.811333	31066.932285
482.180584	30635.717026
482.549777	30403.803785
482.918912	30156.567956
483.287988	30099.376066
483.657005	29965.175509
484.025964	29580.437168
484.394864	29780.583579
484.763706	29709.362157
485.132489	29160.277160
485.501213	29230.913807
485.869879	29415.160419
486.238487	29359.475833
486.607036	29629.631268
486.975527	29297.693972
487.343959	29656.984569
487.712333	30011.342396
488.080648	29971.993670
488.448905	30414.276782
488.817104	30304.818208
489.185244	31131.998458
489.553326	32097.467639
489.921350	34000.402393
490.289315	36538.671246
490.657222	37484.416913
491.025070	38093.350489
491.392861	37823.235384
491.760593	37038.428553
492.128267	36030.631323
492.495883	35047.865942
492.863440	34121.589211
493.230939	33140.888183
493.598380	32565.327046
493.965763	32394.222722
494.333088	31885.663561
494.700354	31699.130786
495.067563	31658.851967
495.434713	31534.585004
495.801805	31828.060816
496.168839	31646.911994
496.535815	31496.277276
496.902733	31632.121248
497.269593	31442.508329
497.636395	31601.914655
498.003139	31862.940560
498.369825	31623.178242
498.736453	32044.565771
499.103023	31880.907232
499.469535	31965.500314
499.835989	32077.776893
500.202385	31958.687195
500.568723	31998.414007
500.935003	32313.128201
501.301226	32166.370130
501.667390	32910.555343
502.033497	33123.476038
502.399546	32923.561520
502.765537	32512.024405
503.131470	33000.403828
503.497345	33442.245839
503.863163	32358.407845
504.228923	33152.611386
504.594625	33554.998807
504.960269	33023.212529
505.325856	33699.236301
505.691385	33354.940617
506.056856	33691.367060
506.422270	34183.116494
506.787625	33697.771846
507.152924	34160.320396
507.518164	34335.946634
507.883347	33908.308074
508.248472	34060.833225
508.613540	34765.919249
508.978550	34980.138040
509.343503	34823.083413
509.708398	35175.840674
510.073236	35771.001817
510.438016	35870.456221
510.802738	35546.277261
511.167403	36101.101613
511.532010	36356.645263
511.896561	36878.941569
512.261053	37640.813670
512.625488	37416.530215
512.989866	37332.882349
513.354186	37381.211891
513.718449	37352.978909
514.082655	38245.268181
514.446803	37929.233205
514.810894	38568.660721
515.174927	38561.555214
515.538904	38576.494674
515.902822	39211.654853
516.266684	38888.010255
516.630488	39248.349411
516.994235	39268.713152
517.357925	39841.446203
517.721558	40102.005801
518.085133	40486.411426
518.448651	40663.517243
518.812112	40551.326364
519.175516	40722.491181
519.538863	41174.042454
519.902152	41235.489078
520.265385	41774.174176
520.628560	41790.053810
520.991678	41740.713517
521.354739	41970.461583
521.717743	42331.604803
522.080690	42235.162489
522.443580	42944.790593
522.806413	42943.227835
523.169189	43076.261364
523.531908	43299.264366
523.894569	43155.694825
524.257174	43345.494268
524.619722	43699.847054
524.982213	43853.629973
525.344647	43901.813321
525.707025	44016.101320
526.069345	44445.748780
526.431608	44379.944078
526.793815	44763.165032
527.155964	44303.905834
527.518057	44556.513012
527.880093	44419.565027
528.242072	45044.975614
528.603995	44781.595490
528.965860	44672.991392
529.327669	44903.583852
529.689421	44966.900744
530.051117	44922.294094
530.412755	45213.443414
530.774337	45253.263488
531.135862	45192.005907
531.497331	45361.134098
531.858743	45335.789697
532.220098	45750.911072
532.581396	45469.677702
532.942638	45228.140898
533.303824	45489.963305
533.664953	45541.196552
534.026025	45212.369648
534.387040	45784.835517
534.747999	45845.800711
535.108902	46178.693305
535.469748	45483.878633
535.830537	45754.807884
536.191270	46026.939451
536.551947	45755.211177
536.912567	46024.854934
537.273131	46159.559606
537.633638	45787.245189
537.994089	45962.929400
538.354483	45719.953347
538.714821	46357.331633
539.075103	46659.321954
539.435328	46519.601334
539.795497	46262.706655
540.155609	46392.425626
540.515665	46986.828076
540.875665	46284.683565
541.235609	46541.432051
541.595496	46687.063424
541.955328	47257.951412
542.315102	46676.542536
542.674821	46580.158195
543.034483	46470.661813
543.394090	46489.253588
543.753640	46473.893192
544.113134	47555.886125
544.472571	46650.941036
544.831953	47762.540665
545.191278	47021.274280
545.550548	46719.223465
545.909761	47359.427318
546.268918	47487.293665
546.628019	47899.100481
546.987064	47319.181266
547.346053	46650.212589
547.704986	47559.906445
548.063863	47190.057152
548.422684	47399.658246
548.781449	46963.104406
549.140158	47495.205756
549.498811	47246.482787
549.857408	46621.445245
550.215949	47466.710634
550.574434	47310.001325
550.932864	47277.001932
551.291237	47983.602823
551.649555	47710.389928
552.007817	47888.319974
552.366022	47586.256556
552.724173	47654.039911
553.082267	48028.395995
553.440305	48418.261190
553.798288	47633.431674
554.156215	48031.569402
554.514086	48227.841685
554.871902	47801.256726
555.229661	47984.003594
555.587365	47683.316412
555.945014	47788.016136
556.302606	47803.651274
556.660143	47889.328205
557.017625	48115.844891
557.375050	47796.772620
557.732421	48189.685192
558.089735	48259.048948
558.446994	48114.456053
558.804197	48586.640769
559.161345	48445.380077
559.518437	47771.778579
559.875474	48008.634672
560.232455	48222.162826
560.589381	48247.678626
560.946251	48076.831401
561.303065	48735.816073
561.659825	48398.772089
562.016528	48181.364767
562.373177	47752.556660
562.729770	48398.121780
563.086307	47886.663955
563.442789	48437.654508
563.799216	48258.242364
564.155587	48161.051438
564.511904	48099.514073
564.868164	48131.079258
565.224370	48452.563721
565.580520	48155.738062
565.936615	48357.333804
566.292654	47963.866705
566.648638	48332.344805
567.004567	48238.604549
567.360441	48295.746028
567.716260	47992.765120
568.072023	48385.932270
568.427732	48275.021844
568.783385	47785.742575
569.138982	48193.032518
569.494525	48306.569385
569.850013	47898.099812
570.205445	47998.673352
570.560823	47750.686392
570.916145	47604.089638
571.271412	47820.521496
571.626625	47439.120399
571.981782	47498.515273
572.336884	47089.811287
572.691931	47383.902120
573.046923	47008.061416
573.401860	46809.029100
573.756743	46800.073490
574.111570	46929.978984
574.466342	46789.731563
574.821059	46921.567818
575.175722	46390.910759
575.530330	46458.842828
575.884882	46085.134531
576.239380	45949.003213
576.593823	46004.529002
576.948211	45912.611123
577.302544	45417.963025
577.656823	45382.942130
578.011047	45605.708198
578.365216	45406.958187
578.719330	45081.496253
579.073389	45037.030756
579.427394	45036.889603
579.781344	44893.816616
580.135239	44639.956711
580.489080	44644.289583
580.842866	44117.557062
581.196597	44547.375921
581.550273	44498.126368
581.903895	44379.056835
582.257463	44775.538544
582.610975	44165.178321
582.964434	44434.194455
583.317837	43879.849014
583.671186	43812.854600
584.024481	44032.255697
584.377721	43518.385680
584.730906	43679.460628
585.084037	43794.973627
585.437113	43460.964417
585.790135	43516.371739
586.143103	43032.267215
586.496016	43152.181141
586.848874	43208.425295
587.201679	43174.102599
587.554428	42613.339768
587.907124	42826.867922
588.259765	42547.711507
588.612352	42644.897391
588.964884	42066.281315
589.317362	42272.651030
589.669786	42232.679721
590.022155	42056.239336
590.374470	42443.772997
590.726731	41978.119096
591.078937	41294.599128
591.431090	41574.352919
591.783188	41032.408716
592.135232	40801.755763
592.487222	40974.805972
592.839157	41067.467421
593.191038	40664.565803
593.542866	40418.794429
593.894639	39769.400552
594.246358	40004.290595
594.598022	39943.408580
594.949633	39443.699164
595.301190	39368.238132
595.652692	39252.079865
596.004141	39664.713431
596.355535	38557.507168
596.706876	38491.268927
597.058162	38169.570215
597.409395	38552.644975
597.760573	38698.765340
598.111698	38240.393385
598.462768	38107.732901
598.813785	38066.249246
599.164748	37618.065463
599.515657	37799.978020
599.866511	37270.208204
600.217312	37814.781369
600.568060	36797.829403
600.918753	37468.849830
601.269392	37309.047774
601.619978	36973.581670
601.970510	37094.544157
602.320988	37130.996740
602.671412	37290.450957
603.021783	37086.770698
603.372100	36626.367158
603.722363	36627.158619
604.072572	36566.158137
604.422728	36497.222879
604.772830	36226.928813
605.122878	36306.805895
605.472872	36099.438032
605.822813	36230.686993
606.172701	35908.768990
606.522534	36101.152024
606.872314	36210.716462
607.222041	35964.990459
607.571714	36168.506881
607.921333	35628.087627
608.270899	35705.446653
608.620411	35953.191638
608.969870	35655.324981
609.319276	35571.856076
609.668627	35521.068972
610.017926	35746.254793
610.367171	35774.016427
610.716362	35718.999795
611.065500	35534.574223
611.414585	35611.046006
611.763616	35642.845604
612.112594	35451.057427
612.461518	35472.121888
612.810389	35670.024985
613.159207	35389.381430
613.507971	35257.898056
613.856682	35586.409887
614.205340	35323.102860
614.553945	35794.927134
614.902496	35137.197709
615.250994	35374.628493
615.599439	35323.120504
615.947830	35295.623530
616.296169	35184.680337
616.644454	35092.283549
616.992686	35099.804950
617.340864	35338.876630
617.688990	34815.249460
618.037063	35239.303760
618.385082	34969.470959
618.733048	35129.025999
619.080961	34891.771655
619.428821	34802.152542
619.776628	34721.456272
620.124382	34460.929441
620.472083	34440.999239
620.819731	34434.178558
621.167326	33980.789784
621.514868	33874.620564
621.862357	33328.703931
622.209793	33317.802436
622.557176	32877.921434
622.904506	32581.269695
623.251783	32208.829248
623.599007	31853.435464
623.946179	31695.672554
624.293297	31387.037992
624.640363	30865.628930
624.987376	30644.682718
625.334336	30389.378523
625.681243	29985.055299
626.028097	29792.367276
626.374899	29552.060513
626.721647	29422.240719
627.068343	29141.395518
627.414987	28811.240270
627.761577	28510.462347
628.108115	28640.645103
628.454600	27989.547317
628.801032	28039.074133
629.147412	27836.339090
629.493739	27650.496953
629.840014	27220.330254
630.186236	27391.560606
630.532405	26891.699956
630.878521	26941.307430
631.224585	26670.504207
631.570597	26329.944018
631.916556	26342.904824
632.262462	26154.703428
632.608316	26006.001992
632.954117	25800.217051
633.299866	25669.565467
633.645562	25511.724419
633.991206	25067.629012
634.336797	24698.230903
634.682336	24518.753223
635.027823	24266.382979
635.373257	24097.244706
635.718639	23774.462146
636.063968	23619.116469
636.409245	23107.882975
636.754470	22969.220998
637.099642	22740.713056
637.444762	22277.962859
637.789829	22253.495619
638.134845	21927.282553
638.479808	21766.129468
638.824719	21645.156899
639.169577	21241.814180
639.514383	21195.972447
639.859137	20853.710868
640.203839	20859.777897
640.548489	20602.129565
640.893086	20496.603092
641.237632	20224.809282
641.582125	20187.328303
641.926566	19964.683223
642.270955	19898.623943
642.615292	19758.570607
642.959576	19580.305325
643.303809	19488.117744
643.647990	19458.195976
643.992118	19336.873047
644.336195	19152.495365
644.680219	19083.381146
645.024192	19090.340459
645.368112	19278.680487
645.711981	19189.454585
646.055797	19457.709504
646.399562	19238.119363
646.743274	19590.279247
647.086935	19712.713751
647.430544	19594.889383
647.774101	19523.040337
648.117606	19588.119113
648.461059	19562.189938
648.804460	19271.388458
649.147810	18925.766950
649.491108	18670.646757
649.834354	18522.698974
650.177548	18010.613525
650.520690	17648.862846
650.863781	17534.398407
651.206820	17358.948609
651.549807	17067.758960
651.892742	16690.935230
652.235626	16551.403653
652.578458	16396.105868
652.921238	15982.418701
653.263967	16029.238417
653.606644	15796.722758
653.949269	15669.085784
654.291843	15391.739143
654.634365	15471.964066
654.976836	15178.876422
655.319255	15143.490043
655.661622	14989.848276
656.003938	14850.041957
656.346203	14688.205795
656.688416	14703.634246
657.030577	14540.315985
657.372687	14375.341705
657.714746	14357.077604
658.056753	14354.925032
658.398708	14019.254762
658.740612	13956.010966
659.082465	13971.225168
659.424266	13851.908619
659.766016	13763.597686
660.107715	13625.094504
660.449362	13584.556066
660.790958	13503.564888
661.132503	13405.239703
661.473996	13349.424047
661.815438	13310.234117
662.156829	13277.872430
662.498168	13116.212709
662.839456	13031.843958
663.180693	13007.059125
663.521879	12953.401083
663.863013	12854.506248
664.204097	12763.185746
664.545129	12851.466432
664.886110	12738.905028
665.227040	12716.086246
665.567918	12625.688275
665.908746	12582.110020
666.249522	12541.213660
666.590248	12479.646048
666.930922	12434.505036
667.271545	12378.515461
667.612118	12326.311792
667.952639	12187.009588
668.293109	12133.800209
668.633528	11997.159734
668.973896	11912.067577
669.314213	11840.710045
669.654480	11704.119981
669.994695	11620.971190
670.334859	11519.391940
670.674973	11394.406612
671.015035	11383.537885
671.355047	11299.065790
671.695008	11202.792355
672.034918	11112.873294
672.374777	11068.889226
672.714585	10977.626698
673.054342	10954.482760
673.394049	10845.175422
673.733705	10845.568632
674.073310	10699.894409
674.412864	10645.586058
674.752368	10504.171611
675.091820	10514.992447
675.431223	10339.391415
675.770574	10219.611079
676.109875	10095.712120
676.449125	9977.988575
676.788324	9885.085151
677.127473	9691.076345
677.466571	9600.761553
677.805619	9476.925609
678.144616	9400.905009
678.483562	9330.585954
678.822458	9182.020630
679.161303	9117.597204
679.500098	9041.390082
679.838842	8962.080129
680.177535	8918.559847
680.516179	8918.690918
680.854771	8890.868789
681.193314	9004.105708
681.531805	9190.598153
681.870247	9331.639555
682.208638	9480.524993
682.546978	9521.754070
682.885268	9515.641671
683.223508	9369.748158
683.561697	9259.372094
683.899836	9167.290378
684.237925	9014.354373
684.575963	8931.934029
684.913951	8799.608781
685.251889	8781.213611
685.589776	8730.827278
685.927614	8684.597377
686.265401	8677.290224
686.603137	8662.491917
686.940824	8724.805620
687.278460	8760.542360
687.616046	8770.617106
687.953582	8888.751505
688.291068	8845.657201
688.628504	8876.965287
688.965889	8842.362807
689.303224	8745.996110
689.640510	8631.952607
689.977745	8462.204354
690.314930	8253.487982
690.652065	8114.344574
690.989150	7927.647962
691.326185	7707.543624
691.663170	7518.404573
692.000105	7330.422466
692.336990	7167.119328
692.673825	7045.055350
693.010610	6905.861530
693.347345	6765.089830
693.684030	6611.256500
694.020665	6533.690786
694.357251	6377.236056
694.693786	6342.021076
695.030272	6266.983501
695.366707	6150.734493
695.703093	6065.758283
696.039429	6051.143978
696.375716	5974.720086
696.711952	5945.045334
697.048139	5903.899436
697.384276	5847.723338
697.720363	5847.458677
698.056400	5805.334796
698.392388	5755.709678
698.728326	5730.140945
699.064214	5678.350651
699.400053	5649.162370
699.735842	5558.701385
700.071581	5503.200802
700.407270	5434.031130
700.742910	5382.044231
701.078501	5313.247604
701.414042	5253.242750
701.749533	5186.245816
702.084974	5114.525320
702.420366	5122.770127
702.755709	5039.865831
703.091002	4971.744719
703.426246	4958.652843
703.761440	4922.180095
704.096584	4871.425758
704.431679	4844.994988
704.766725	4813.001305
705.101721	4781.423518
705.436668	4780.269093
705.771565	4720.241554
706.106413	4743.261983
706.441212	4734.210591
706.775961	4727.561309
707.110661	4717.652922
707.445311	4744.940687
707.779913	4716.659814
708.114465	4733.204881
708.448967	4756.290845
708.783421	4817.172860
709.117825	4845.965410
709.452180	4859.833625
709.786485	4902.756529
710.120742	4988.050332
710.454949	4990.707020
710.789107	5056.940219
711.123216	5142.758302
711.457275	5168.841232
711.791286	5232.122836
712.125247	5252.017750
712.459159	5211.839754
712.793023	5286.327843
713.126837	5151.623171
713.460602	5160.614069
713.794318	5094.945478
714.127985	5034.509605
714.461602	4900.752670
714.795171	4872.645717
715.128691	4733.363677
715.462162	4647.848064
715.795584	4571.764450
716.128957	4518.313096
716.462281	4456.889157
716.795556	4410.336621
717.128782	4333.915250
717.461960	4257.738374
717.795088	4233.329107
718.128167	4187.409237
718.461198	4124.137715
718.794180	4096.592850
719.127113	4058.433836
719.459997	4020.836911
719.792833	3970.677430
720.125619	3964.411276
720.458357	3917.722629
720.791046	3891.985018
721.123686	3867.537943
721.456278	3833.507634
721.788821	3825.802230
722.121315	3793.760656
722.453761	3789.725212
722.786158	3772.411370
723.118506	3769.376595
723.450805	3752.423195
723.783056	3758.114657
724.115259	3738.565063
724.447412	3730.163980
724.779518	3738.953232
725.111574	3738.416349
725.443582	3749.045622
725.775542	3740.742841
726.107453	3779.242133
726.439315	3761.051129
726.771129	3794.030358
727.102895	3817.945592
727.434612	3841.207996
727.766281	3849.407433
728.097901	3875.558418
728.429473	3875.344169
728.760996	3869.274620
729.092471	3867.585834
729.423897	3846.748224
729.755276	3820.871982
730.086606	3815.311589
730.417887	3842.256556
730.749120	3876.347359
731.080305	3878.089078
731.411442	3898.520874
731.742530	3896.703538
732.073570	3891.034761
732.404562	3911.085950
732.735506	3900.489445
733.066401	3878.467164
733.397249	3831.919670
733.728048	3769.258128
734.058798	3693.913043
734.389501	3622.333699
734.720156	3576.882656
735.050762	3523.993390
735.381320	3484.437977
735.711831	3454.589305
736.042293	3420.412802
736.372707	3416.599169
736.703073	3392.946076
737.033391	3399.832292
737.363661	3393.893813
737.693883	3398.503948
738.024056	3406.658014
738.354182	3418.063625
738.684260	3442.104887
739.014290	3455.237093
739.344272	3471.958600
739.674207	3494.671519
740.004093	3508.602748
740.333931	3502.477746
740.663722	3500.148733
740.993464	3500.506655
741.323159	3479.946309
741.652806	3453.996969
741.982405	3433.918053
742.311956	3400.583424
742.641460	3381.525342
742.970915	3352.130373
743.300323	3319.725837
743.629683	3295.119965
743.958996	3269.647014
744.288260	3245.739342
744.617477	3220.233624
744.946647	3212.311451
745.275768	3187.425795
745.604842	3171.427693
745.933869	3155.762308
746.262847	3147.421719
746.591778	3133.843371
746.920662	3127.766260
747.249498	3119.551700
747.578286	3125.923718
747.907027	3129.802886
748.235720	3143.668580
748.564365	3144.200421
748.892963	3134.836478
749.221514	3135.703557
749.550017	3126.700056
749.878473	3118.856020
750.206881	3102.648711
750.535242	3092.105137
750.863555	3083.517532
751.191821	3075.905390
751.520039	3071.582600
751.848210	3061.890982
752.176334	3059.680436
752.504411	3053.827656
752.832440	3044.007489
753.160421	3042.394319
753.488356	3037.358207
753.816243	3027.749768
754.144082	3017.964888
754.471875	3014.027747
754.799620	3007.955677
755.127318	3003.317815
755.454969	3000.867815
755.782572	2996.963441
756.110129	2992.970847
756.437638	2990.644355
756.765100	2982.167654
757.092515	2983.475834
757.419882	2983.047336
757.747203	2981.416523
758.074477	2984.121102
758.401703	2981.847541
758.728882	2988.370794
759.056014	2989.918428
759.383099	2993.444716
759.710138	2994.490755
760.037129	2996.812206
760.364073	2998.105262
760.690970	2995.695591
761.017820	2995.408245
761.344623	3000.298164
761.671379	3008.384175
761.998088	3022.522091
762.324751	3069.112435
762.651366	3179.251564
762.977935	3344.893797
763.304456	3470.242088
763.630931	3524.885675
763.957359	3492.198833
764.283740	3412.016761
764.610074	3328.003411
764.936362	3227.744943
765.262602	3150.534631
765.588796	3074.045204
765.914943	3020.127543
766.241044	2973.096098
766.567097	2935.688216
766.893104	2902.121693
767.219064	2881.657129
767.544978	2862.571321
767.870845	2843.619103
768.196665	2831.477484
768.522438	2821.291832
768.848165	2812.989052
769.173846	2803.695685
769.499479	2793.956176
769.825066	2784.287242
770.150607	2777.096037
770.476101	2773.007661
770.801548	2768.286620
771.126949	2758.673140
771.452303	2753.069897
771.777611	2746.637385
772.102872	2744.182343
772.428087	2737.354100
772.753256	2733.384192
773.078378	2727.453274
773.403453	2720.206615
773.728482	2716.438353
774.053465	2712.743187
774.378401	2707.313864
774.703291	2704.397557
775.028135	2697.012267
775.352932	2695.121834
775.677683	2691.267872
776.002388	2685.740247
776.327046	2684.893333
776.651658	2683.025585
776.976224	2674.904286
777.300743	2677.888649
777.625216	2675.075686
777.949643	2674.548885
778.274024	2671.869512
778.598359	2670.757937
778.922647	2671.269614
779.246889	2669.026301
779.571086	2667.070333
779.895236	2666.896413
780.219339	2667.776095
780.543397	2668.597803
780.867409	2668.028152
781.191374	2669.149809
781.515294	2666.455312
781.839167	2666.404901
782.162995	2665.023625
782.486776	2664.262411
782.810511	2663.344921
783.134201	2662.666885
783.457844	2659.838798
783.781441	2657.595485
784.104993	2656.136071
784.428498	2653.917963
784.751958	2650.673980
785.075372	2652.506440
785.398739	2649.670791
785.722061	2649.632982
786.045337	2647.132570
786.368568	2651.888898
786.691752	2650.343785
787.014891	2657.769404
787.337983	2666.009170
787.661030	2682.695390
787.984031	2696.959334
788.306987	2707.999461
788.629897	2714.757128
788.952760	2713.461552
789.275579	2708.004502
789.598351	2697.239118
789.921078	2685.170596
790.243759	2679.753876
790.566395	2669.933709
790.888984	2665.341217
791.211529	2655.621873
791.534027	2649.748929
791.856480	2645.763897
792.178888	2640.077475
792.501249	2635.885756
792.823566	2632.936681
793.145836	2630.116155
793.468062	2628.654220
793.790241	2628.613891
794.112375	2629.838892
794.434464	2635.979017
794.756507	2633.707977
795.078505	2636.135293
795.400457	2644.551499
795.722364	2652.423261
796.044226	2659.639672
796.366042	2665.358862
796.687812	2667.002278
797.009538	2666.397339
797.331218	2662.334169
797.652852	2660.854591
797.974442	2658.359219
798.295986	2655.337048
798.617484	2652.670277
798.938938	2645.393372
799.260346	2646.774648
799.581709	2638.923051
799.903026	2636.546147
800.224299	2635.248050
800.545526	2630.269910
800.866708	2627.784621
801.187845	2626.733541
801.508936	2623.134157
801.829983	2620.898405
802.150984	2617.896398
802.471940	2617.314145
802.792851	2615.262395
803.113717	2618.110647
803.434538	2612.272991
803.755314	2612.164606
804.076045	2611.597476
804.396731	2610.148145
804.717372	2610.493464
805.037967	2610.896756
805.358518	2611.957919
805.679024	2610.276694
805.999485	2611.564709
806.319901	2613.679473
806.640272	2613.107302
806.960598	2616.343723
807.280879	2613.487909
807.601115	2618.508898
807.921306	2613.162755
808.241453	2615.093517
808.561554	2609.011364
808.881611	2611.257198
809.201623	2610.677466
809.521590	2613.351798
809.841513	2611.509256
810.161390	2613.497991
810.481223	2607.637650
810.801011	2610.911879
811.120755	2609.966663
811.440453	2605.598503
811.760107	2606.747886
812.079716	2602.818307
812.399281	2602.147833
812.718801	2604.854933
813.038276	2600.769078
813.357707	2600.295209
813.677093	2602.523399
813.996434	2604.310488
814.315731	2601.578183
814.634983	2602.961980
814.954191	2600.590117
815.273354	2602.926692
815.592473	2603.967690
815.911547	2606.750407
816.230577	2608.620675
816.549562	2612.038577
816.868502	2613.913887
817.187399	2616.068980
817.506250	2620.096862
817.825058	2622.083076
818.143821	2629.085239
818.462539	2638.839872
818.781213	2642.406488
819.099843	2652.302273
819.418429	2674.657270
819.736970	2698.234746
820.055466	2718.772407
820.373919	2751.252561
820.692327	2797.172432
821.010691	2871.463916
821.329011	3044.652756
821.647286	3349.317410
821.965517	3752.423195
822.283704	4037.714694
822.601847	4190.285215
822.919945	4065.065474
823.237999	3896.411151
823.556010	3708.509703
823.873976	3529.089997
824.191897	3366.495141
824.509775	3245.396544
824.827609	3128.814820
825.145398	3049.479661
825.463144	3002.551560
825.780845	2991.211484
826.098502	3013.271574
826.416116	3078.531831
826.733685	3154.055877
827.051210	3196.910726
827.368692	3180.872295
827.686129	3108.435955
828.003522	3021.471010
828.320872	2939.068310
828.638177	2875.315358
828.955439	2822.761329
829.272656	2776.430604
829.589830	2744.734349
829.906960	2709.579863
830.224046	2687.504650
830.541088	2668.239881
830.858086	2655.185813
831.175041	2645.945378
831.491952	2639.535551
831.808819	2638.164357
832.125642	2646.194915
832.442421	2660.365599
832.759157	2692.671833
833.075849	2742.072620
833.392497	2811.597693
833.709101	2861.842874
834.025662	2872.535161
834.342179	2850.197808
834.658653	2804.945891
834.975083	2763.699170
835.291469	2732.527195
835.607811	2698.920343
835.924110	2679.622806
836.240366	2659.107831
836.556578	2640.546302
836.872746	2622.521657
837.188871	2611.080758
837.504952	2601.447113
837.820990	2593.466967
838.136984	2585.254927
838.452935	2584.065215
838.768842	2583.876171
839.084706	2588.211564
839.400526	2609.452465
839.716303	2643.906231
840.032037	2668.328101
840.347727	2674.712722
840.663373	2660.791576
840.978977	2636.808287
841.294537	2620.704321
841.610054	2603.758482
841.925527	2593.666092
842.240957	2586.968919
842.556344	2576.211097
842.871687	2570.156671
843.186987	2562.887327
843.502244	2557.521019
843.817458	2552.391645
844.132629	2549.896274
844.447756	2548.257899
844.762840	2546.294369
845.077881	2541.533000
845.392879	2541.845551
845.707833	2538.672145
846.022745	2539.957639
846.337613	2537.016126
846.652438	2536.476722
846.967221	2535.566794
847.281960	2537.316074
847.596656	2534.896321
847.911309	2533.071423
848.225919	2532.784077
848.540485	2531.614529
848.855009	2531.879190
849.169490	2531.838861
849.483928	2530.576052
849.798323	2530.606299
850.112675	2533.497400
850.426984	2531.564118
850.741251	2529.812317
851.055474	2528.345341
851.369654	2530.737369
851.683792	2531.559077
851.997887	2530.507996
852.311938	2533.623429
852.625947	2530.497914
852.939914	2533.318439
853.253837	2531.632173
853.567718	2530.233253
853.881555	2531.869108
854.195350	2526.331400
854.509103	2527.632018
854.822812	2531.148223
855.136479	2531.692667
855.450103	2532.403470
855.763685	2525.650844
856.077224	2527.042203
856.390720	2528.310053
856.704173	2522.858045
857.017584	2531.707791
857.330953	2529.076308
857.644278	2529.930784
857.957561	2534.787936
858.270802	2531.828778
858.584000	2531.201155
858.897155	2533.552853
859.210268	2532.310209
859.523339	2531.105373
859.836367	2530.233253
860.149352	2530.795342
860.462295	2529.673685
860.775195	2534.457740
861.088054	2531.039838
861.400869	2529.993798
861.713642	2531.143182
862.026373	2531.654859
862.339062	2530.092101
862.651708	2531.523789
862.964312	2531.085208
863.276873	2534.233409
863.589392	2532.756351
863.901869	2535.314736
864.214303	2534.924047
864.526696	2534.641742
864.839045	2538.079809
865.151353	2537.520241
865.463619	2537.777340
865.775842	2538.457896
866.088023	2542.044677
866.400162	2536.234747
866.712258	2535.692823
867.024313	2539.382947
867.336325	2539.798843
867.648296	2539.934954
867.960224	2537.437062
868.272110	2541.101981
868.583954	2538.525951
868.895755	2540.837320
869.207515	2540.890253
869.519233	2542.221117
869.830909	2539.183822
870.142542	2541.636343
870.454134	2543.068031
870.765684	2544.855120
871.077191	2542.571477
871.388657	2542.964687
871.700081	2541.560726
872.011463	2544.996272
872.322803	2541.860675
872.634101	2550.959957
872.945357	2549.591284
873.256571	2548.741850
873.567744	2552.489947
873.878874	2553.414999
874.189963	2553.324258
874.501010	2556.532953
874.812015	2555.496996
875.122979	2551.441387
875.433900	2553.437684
875.744780	2556.880792
876.055618	2554.564382
876.366415	2554.095555
876.677169	2556.348951
876.987882	2556.842984
877.298554	2562.473953
877.609183	2564.308933
877.919771	2566.479149
878.230317	2567.507545
878.540822	2578.144379
878.851285	2581.736202
879.161707	2594.061823
879.472087	2609.626385
879.782425	2636.248719
880.092722	2682.060204
880.402977	2755.920670
880.713191	2858.482945
881.023363	2970.293217
881.333494	3051.450752
881.643583	3092.324428
881.953631	3091.112030
882.263637	3066.226374
882.573602	3026.973430
882.883526	2988.842142
883.193408	2947.368569
883.503248	2902.668658
883.813048	2863.652648
884.122806	2827.714262
884.432522	2788.131122
884.742197	2754.554517
885.051831	2724.841956
885.361424	2694.947914
885.670975	2673.618792
885.980485	2653.751605
886.289954	2637.723256
886.599382	2625.017028
886.908768	2611.494133
887.218113	2596.048037
887.527417	2594.273551
887.836680	2579.876016
888.145901	2580.911973
888.455082	2574.968452
888.764221	2572.074830
889.073319	2566.879921
889.382376	2565.400342
889.691392	2562.620146
890.000366	2561.538819
890.309300	2561.793397
890.618193	2562.809189
890.927044	2561.982440
891.235855	2562.184086
891.544625	2561.357337
891.853353	2563.010836
892.162041	2564.306412
892.470687	2571.149778
892.779293	2576.705130
893.087858	2583.830801
893.396381	2596.960486
893.704864	2613.447580
894.013306	2642.759369
894.321707	2670.195849
894.630068	2696.719880
894.938387	2704.158102
895.246665	2703.507793
895.554903	2695.729293
895.863100	2675.544513
896.171256	2662.258552
896.479371	2648.881850
896.787446	2635.779891
897.095480	2623.272789
897.403473	2617.127622
897.711425	2607.113370
898.019336	2600.965683
898.327207	2591.667275
898.635038	2586.908425
898.942827	2581.867272
899.250576	2572.906621
899.558284	2567.956207
899.865952	2566.753892
900.173579	2561.233829
900.481165	2558.257027
900.788711	2556.023796
901.096216	2550.105482
901.403681	2549.006510
901.711105	2551.390976
902.018489	2549.694628
902.325832	2551.345606
902.633135	2552.442057
902.940397	2560.449929
903.247619	2578.479616
903.554800	2613.369442
903.861941	2662.750064
904.169041	2707.139945
904.476101	2733.784963
904.783121	2729.880590
905.090100	2715.662015
905.397039	2696.084694
905.703938	2673.225582
906.010796	2658.021462
906.317614	2640.261477
906.624391	2627.363685
906.931129	2614.425564
907.237826	2601.558018
907.544483	2594.492841
907.851099	2581.103537
908.157675	2569.294634
908.464211	2558.763663
908.770707	2552.716799
909.077163	2546.604400
909.383578	2540.270191
909.689954	2539.287166
909.996289	2533.404139
910.302584	2533.961187
910.608839	2530.225692
910.915054	2533.275590
911.221229	2531.261649
911.527363	2531.105373
911.833458	2531.372554
912.139513	2530.838192
912.445527	2533.036135
912.751502	2536.234747
913.057436	2535.934798
913.363331	2541.964018
913.669186	2545.767569
913.975000	2553.104968
914.280775	2562.915054
914.586510	2577.446180
914.892205	2600.620364
915.197859	2628.737399
915.503475	2656.486431
915.809050	2690.020186
916.114585	2710.641026
916.420081	2723.231308
916.725536	2721.560165
917.030952	2715.535986
917.336328	2704.581559
917.641665	2692.790300
917.946961	2678.604493
918.252218	2668.189469
918.557435	2650.132056
918.862612	2645.254740
919.167750	2635.152268
919.472848	2623.247583
919.777906	2609.951540
920.082925	2599.869232
920.387904	2589.176945
920.692843	2577.214287
920.997743	2573.483833
921.302603	2564.934036
921.607423	2558.811554
921.912204	2552.699155
922.216946	2551.307797
922.521647	2549.639175
922.826310	2544.038453
923.130932	2538.977135
923.435516	2537.336239
923.740059	2535.236598
924.044564	2532.365661
924.349028	2529.035979
924.653454	2528.229395
924.957840	2528.526823
925.262186	2524.181348
925.566493	2523.599095
925.870761	2523.437778
926.174989	2520.410565
926.479178	2519.225894
926.783328	2517.027951
927.087438	2516.047446
927.391509	2516.246572
927.695541	2514.673732
927.999533	2515.732374
928.303486	2511.833042
928.607400	2514.754390
928.911275	2510.686179
929.215110	2512.301869
929.518906	2512.959740
929.822663	2512.949657
930.126381	2511.938906
930.430060	2514.048629
930.733699	2513.471417
931.037299	2513.012672
931.340861	2513.030316
931.644383	2514.545182
931.947866	2511.386900
932.251309	2513.693227
932.554714	2511.339009
932.858080	2509.042763
933.161407	2506.590242
933.464694	2511.404544
933.767943	2506.439007
934.071153	2511.991838
934.374323	2511.744822
934.677455	2509.761128
934.980548	2510.144255
935.283602	2509.188957
935.586617	2507.590911
935.889593	2510.298010
936.192530	2507.716940
936.495428	2510.313134
936.798287	2510.897908
937.101108	2512.465707
937.403890	2510.108967
937.706632	2513.282373
938.009336	2519.034330
938.312002	2518.817560
938.614628	2521.012983
938.917216	2521.144053
939.219765	2524.811492
939.522275	2524.776204
939.824747	2527.478263
940.127179	2524.312418
940.429573	2522.973992
940.731929	2523.079856
941.034246	2527.324507
941.336524	2527.458098
941.638763	2523.684794
941.940964	2523.319311
942.243126	2523.306708
942.545250	2523.765453
942.847335	2520.334948
943.149381	2522.285874
943.451389	2515.112312
943.753359	2517.234638
944.055290	2520.095493
944.357182	2518.323527
944.659036	2515.364370
944.960851	2517.988291
945.262628	2513.042919
945.564367	2514.313289
945.866067	2514.724143
946.167729	2514.756911
946.469352	2510.930675
946.770937	2511.588546
947.072484	2512.710203
947.373992	2513.153824
947.675462	2513.501664
947.976893	2511.127280
948.278286	2510.111488
948.579641	2510.305572
948.880958	2505.728204
949.182236	2512.742970
949.483476	2511.764986
949.784678	2511.596108
950.085841	2509.448576
950.386967	2511.316323
950.688054	2511.102074
950.989103	2511.921262
951.290114	2511.240706
951.591087	2514.925790
951.892021	2513.597446
952.192917	2515.119874
952.493776	2516.788496
952.794596	2515.021572
953.095378	2517.406037
953.396122	2515.913856
953.696828	2517.874865
953.997496	2515.737415
954.298126	2516.733043
954.598718	2517.118692
954.899272	2515.079545
955.199788	2511.628875
955.500266	2511.911180
955.800706	2507.908503
956.101108	2508.092506
956.401472	2509.410767
956.701798	2508.873884
957.002087	2506.118894
957.302337	2506.612927
957.602550	2506.025633
957.902724	2502.504387
958.202861	2499.819972
958.502960	2501.468429
958.803022	2503.167298
959.103045	2499.371309
959.403031	2499.547750
959.702979	2498.952894
960.002889	2499.739314
960.302762	2496.873418
960.602596	2496.858294
960.902393	2497.717811
961.202153	2496.495331
961.501875	2493.190855
961.801559	2496.724704
962.101205	2495.497183
962.400814	2496.906185
962.700385	2494.375526
962.999918	2493.329487
963.299414	2490.090545
963.598873	2492.888386
963.898293	2487.995946
964.197677	2491.827223
964.497022	2493.843684
964.796331	2495.328304
965.095601	2492.941318
965.394835	2490.685401
965.694030	2493.006853
965.993189	2491.287819
966.292309	2491.549959
966.591393	2491.902840
966.890439	2491.416369
967.189447	2493.205978
967.488419	2492.653972
967.787353	2492.457367
968.086249	2493.720176
968.385108	2490.269506
968.683930	2491.686070
968.982714	2493.117758
969.281462	2492.195227
969.580172	2492.472490
969.878844	2491.171873
970.177480	2492.916112
970.476078	2492.114568
970.774639	2491.411328
971.073162	2491.945690
971.371649	2494.294868
971.670098	2493.722697
971.968510	2493.271513
972.266885	2496.124806
972.565223	2491.912922
972.863524	2494.244456
973.161788	2493.505927
973.460014	2492.096924
973.758204	2495.867707
974.056356	2494.090701
974.354471	2493.654641
974.652550	2493.994919
974.950591	2493.662203
975.248595	2494.957779
975.546563	2493.493324
975.844493	2493.223622
976.142386	2490.662716
976.440243	2491.333190
976.738062	2493.410145
977.035845	2491.413848
977.333590	2492.611122
977.631299	2492.172542
977.928971	2489.596512
978.226606	2487.751450
978.524204	2488.832777
978.821765	2484.900677
979.119290	2492.835453
979.416777	2491.207161
979.714228	2491.436533
980.011642	2489.077273
980.309020	2493.581544
980.606360	2492.008704
980.903664	2491.388642
981.200931	2493.649600
981.498162	2494.564569
981.795356	2497.858963
982.092513	2504.735097
982.389633	2505.771054
982.686717	2508.074862
982.983764	2513.305059
983.280775	2516.912004
983.577749	2515.591222
983.874686	2514.766993
984.171587	2513.153824
984.468451	2511.102074
984.765279	2510.499657
985.062070	2509.927486
985.358824	2507.815242
985.655543	2502.592607
985.952224	2502.307782
986.248869	2499.598161
986.545478	2497.959786
986.842050	2494.277223
987.138586	2494.819147
987.435086	2492.595999
987.731549	2491.612974
988.027975	2485.359422
988.324366	2487.378404
988.620719	2487.990905
988.917037	2484.204998
989.213318	2486.586943
989.509563	2485.172900
989.805772	2486.770945
990.101944	2485.132570
990.398080	2485.732468
990.694180	2483.254741
990.990244	2483.269864
991.286271	2487.196923
991.582262	2484.184833
991.878217	2485.490492
992.174136	2485.472848
992.470019	2485.049391
992.765865	2482.707775
993.061676	2479.728453
993.357450	2481.074442
993.653188	2480.076293
993.948890	2483.589977
994.244556	2485.835811
994.540186	2489.626759
994.835780	2489.982160
995.131337	2492.338900
995.426859	2492.341420
995.722345	2491.882675
996.017795	2495.149343
996.313208	2497.266628
996.608586	2496.044148
996.903928	2501.531444
997.199234	2500.470281
997.494504	2497.107831
997.789738	2498.302585
998.084936	2496.795280
998.380099	2495.993736
998.675225	2496.197903
998.970316	2494.183962
999.265371	2492.991729
999.560390	2489.813282
999.855373	2488.976450
1000.150320	2486.292036
1000.445232	2486.544093
1000.740108	2487.312869
1001.034948	2485.689618
1001.329752	2483.574854
1001.624521	2482.808598
1001.919254	2484.928404
1002.213951	2483.055615
1002.508613	2481.414719
1002.803239	2483.544607
1003.097829	2481.142497
1003.392384	2481.296252
1003.686903	2478.097640
1003.981386	2481.951602
1004.275834	2476.575212
1004.570246	2483.337920
1004.864623	2476.602938
1005.158964	2481.576036
1005.453270	2479.380614
1005.747540	2479.327682
1006.041775	2477.462455
1006.335974	2478.629482
1006.630138	2479.022692
1006.924266	2482.105357
1007.218359	2476.744090
1007.512416	2478.415233
1007.806438	2472.811990
1008.100425	2475.173771
1008.394376	2472.892649
1008.688292	2477.969091
1008.982172	2482.624596
1009.276017	2478.208546
1009.569827	2476.827269
1009.863602	2477.785089
1010.157341	2477.038998
1010.451045	2478.652167
1010.744714	2477.578401
1011.038347	2477.089409
1011.331945	2476.108905
1011.625508	2478.206025
1011.919036	2476.300469
1012.212528	2477.815336
1012.505986	2475.075468
1012.799408	2476.739049
1013.092795	2478.778196
1013.386147	2477.883391
1013.679464	2478.120325
1013.972745	2473.994141
1014.265992	2478.379945
1014.559204	2476.187043
1014.852380	2476.665953
1015.145521	2475.836683
1015.438628	2473.573205
1015.731699	2478.722743
1016.024736	2475.768627
1016.317737	2478.004379
1016.610703	2473.699233
1016.903635	2479.693165
1017.196531	2476.567650
1017.489393	2478.614358
1017.782219	2473.842906
1018.075011	2474.760396
1018.367768	2476.197125
1018.660490	2475.743421
1018.953177	2475.743421
1019.245829	2475.743421
