Dividing Wavelength (nm)	Counts (n)	Blue Motor Position (mm): 0.000000	Red Motor Position (mm): 11.500000	
326.493990	2053.791283
326.888308	2053.791283
327.282561	2053.791283
327.676750	2028.749351
328.070874	2028.071316
328.464933	2033.422501
328.858929	2044.971784
329.252859	2055.961499
329.646726	2064.942315
330.040528	2082.457804
330.434265	2099.144023
330.827938	2124.609412
331.221547	2142.424850
331.615091	2159.532005
332.008571	2182.466735
332.401986	2204.627647
332.795338	2223.161449
333.188625	2243.356311
333.581847	2262.779877
333.975006	2278.082300
334.368100	2298.196503
334.761129	2314.512198
335.154095	2327.788077
335.546996	2343.695438
335.939833	2359.229753
336.332606	2370.801722
336.725315	2381.357898
337.117960	2393.943138
337.510540	2405.310940
337.903056	2410.813360
338.295508	2421.742581
338.687896	2425.425144
339.080220	2432.664241
339.472480	2433.838830
339.864676	2441.357711
340.256807	2442.675973
340.648875	2444.037084
341.040879	2446.431632
341.432818	2447.253340
341.824694	2447.679318
342.216506	2448.072528
342.608253	2450.184771
342.999937	2447.976746
343.391557	2448.004472
343.783113	2443.734615
344.174605	2440.415015
344.566033	2441.513987
344.957397	2439.018616
345.348697	2439.026177
345.739934	2435.699016
346.131106	2435.877977
346.522215	2434.801690
346.913260	2430.892276
347.304241	2432.104673
347.695159	2427.665937
348.086012	2427.509661
348.476802	2424.681574
348.867528	2421.150246
349.258191	2418.881727
349.648789	2418.491037
350.039324	2415.453742
350.429796	2420.683939
350.820203	2418.395255
351.210548	2418.269226
351.600828	2418.579257
351.991045	2419.201840
352.381198	2417.326531
352.771288	2420.323497
353.161314	2416.847621
353.551276	2418.969947
353.941175	2414.190933
354.331010	2415.602456
354.720782	2416.729154
355.110490	2417.944072
355.500135	2417.523136
355.889717	2416.474576
356.279235	2417.679411
356.668689	2419.577406
357.058080	2418.339803
357.447408	2421.792993
357.836672	2418.284350
358.225873	2420.772159
358.615010	2421.210740
359.004084	2423.476738
359.393095	2423.847263
359.782043	2420.421799
360.170927	2422.609660
360.559748	2424.028745
360.948505	2424.280802
361.337199	2425.536050
361.725830	2424.058992
362.114398	2425.283992
362.502903	2423.436409
362.891344	2425.510844
363.279722	2426.289702
363.668037	2427.176945
364.056289	2429.241298
364.444478	2430.216761
364.832603	2427.570155
365.220665	2430.236926
365.608665	2427.819692
365.996601	2430.799014
366.384474	2431.356062
366.772284	2432.434869
367.160031	2432.449992
367.547715	2431.504776
367.935336	2431.136772
368.322893	2430.060485
368.710388	2430.063006
369.097820	2431.807245
369.485189	2428.517892
369.872495	2433.024684
370.259738	2435.008378
370.646918	2433.430497
371.034035	2435.419232
371.421090	2437.649942
371.808081	2438.751434
372.195010	2438.017947
372.581875	2441.229162
372.968678	2440.810746
373.355418	2439.152206
373.742096	2445.380552
374.128710	2444.755449
374.515262	2449.206787
374.901751	2450.772066
375.288177	2454.736933
375.674540	2459.445371
376.060841	2461.698767
376.447079	2464.431072
376.833254	2469.147072
377.219367	2476.169399
377.605417	2478.911787
377.991404	2484.336068
378.377329	2494.486431
378.763191	2497.231340
379.148991	2507.124604
379.534727	2516.654905
379.920402	2525.567665
380.306013	2535.723070
380.691563	2546.375028
381.077049	2557.558828
381.462474	2566.206927
381.847835	2579.276118
382.233134	2596.317739
382.618371	2607.690582
383.003545	2623.449229
383.388657	2636.485653
383.773706	2658.265958
384.158693	2667.072854
384.543618	2686.292253
384.928480	2700.369675
385.313280	2724.519322
385.698017	2744.028588
386.082692	2767.152361
386.467305	2779.384720
386.851856	2804.608134
387.236344	2833.622495
387.620770	2847.291583
388.005133	2867.173894
388.389435	2901.622619
388.773674	2914.044022
389.157851	2946.183898
389.541965	2972.365131
389.926018	2983.964826
390.310008	3018.247193
390.693936	3039.783002
391.077802	3065.591189
391.461606	3094.156887
391.845348	3108.289762
392.229027	3134.975110
392.612645	3170.812672
392.996200	3195.501723
393.379694	3228.117989
393.763125	3265.172990
394.146494	3281.967594
394.529801	3307.211172
394.913047	3342.156451
395.296230	3343.716688
395.679351	3357.083307
396.062410	3393.848442
396.445408	3364.783670
396.828343	3392.681415
397.211217	3408.689599
397.594028	3375.133158
397.976778	3404.094587
398.359466	3415.507760
398.742092	3415.467430
399.124656	3407.862850
399.507158	3445.396761
399.889598	3434.996860
400.271977	3467.716469
400.654294	3440.499280
401.036549	3467.920636
401.418742	3448.829787
401.800874	3477.652584
402.182944	3479.167450
402.564952	3518.216228
402.946898	3492.680263
403.328783	3464.260758
403.710606	3471.772078
404.092367	3491.810664
404.474067	3507.271883
404.855705	3470.657983
405.237282	3426.676436
405.618797	3457.520736
406.000250	3470.491625
406.381642	3488.922083
406.762972	3456.509984
407.144240	3405.047365
407.525447	3406.254722
407.906593	3386.889129
408.287677	3395.564955
408.668700	3375.168447
409.049661	3358.625900
409.430560	3340.964218
409.811399	3302.291006
410.192176	3291.102165
410.572891	3290.033440
410.953545	3295.760191
411.334138	3224.034654
411.714669	3225.395766
412.095139	3166.827640
412.475547	3169.592713
412.855894	3135.446458
413.236180	3128.630818
413.616405	3083.414188
413.996568	3074.408167
414.376670	3046.555792
414.756711	3015.469517
415.136691	2998.974861
415.516609	2989.005980
415.896466	2966.061168
416.276262	2950.731019
416.655997	2943.328085
417.035670	2930.515992
417.415283	2926.286464
417.794834	2905.907600
418.174324	2875.648074
418.553753	2848.098168
418.933121	2841.426201
419.312428	2820.245793
419.691674	2791.241514
420.070859	2788.680608
420.449983	2754.441091
420.829045	2752.921183
421.208047	2726.629045
421.586988	2716.289639
421.965867	2703.868236
422.344686	2693.307018
422.723444	2685.886440
423.102141	2648.546613
423.480777	2654.200268
423.859352	2630.232102
424.237866	2630.746299
424.616319	2617.538476
424.994712	2614.700307
425.373044	2596.259766
425.751314	2591.319435
426.129524	2573.660273
426.507673	2569.798749
426.885762	2559.237532
427.263789	2553.551110
427.641756	2547.899977
428.019662	2541.096940
428.397508	2539.198945
428.775292	2532.688295
429.153016	2526.638911
429.530679	2521.514578
429.908282	2519.437622
430.285824	2514.585512
430.663305	2513.650378
431.040726	2505.599655
431.418086	2504.566218
431.795385	2503.278204
432.172624	2502.499345
432.549802	2500.432472
432.926920	2499.588079
433.303977	2496.656648
433.680974	2494.478870
434.057910	2493.934425
434.434786	2492.674137
434.811601	2492.427120
435.188355	2492.109527
435.565050	2491.181955
435.941683	2488.984012
436.318257	2491.048364
436.694770	2490.561893
437.071222	2488.195071
437.447614	2487.743888
437.823946	2485.707262
438.200218	2488.517705
438.576429	2486.281953
438.952580	2487.461583
439.328670	2488.474855
439.704700	2486.970071
440.080670	2485.220791
440.456580	2485.495533
440.832429	2485.994608
441.208218	2483.494195
441.583947	2484.351192
441.959616	2484.578043
442.335224	2488.336224
442.710773	2483.403455
443.086261	2484.416727
443.461689	2483.136273
443.837057	2482.929586
444.212365	2484.386480
444.587612	2483.693321
444.962800	2477.762403
445.337927	2483.532004
445.712995	2477.134780
446.088002	2486.564258
446.462949	2484.204998
446.837837	2483.186685
447.212664	2486.685246
447.587431	2485.513178
447.962139	2490.640031
448.336786	2492.258241
448.711374	2489.760350
449.085901	2489.586430
449.460369	2487.227170
449.834776	2487.542242
450.209124	2490.425782
450.583412	2489.248672
450.957640	2490.703045
451.331808	2488.731954
451.705917	2485.366984
452.079965	2487.179279
452.453954	2489.054588
452.827883	2488.825216
453.201752	2488.767242
453.575562	2489.717500
453.949311	2489.714979
454.323001	2488.414362
454.696632	2491.693632
455.070202	2490.322438
455.443713	2490.985350
455.817164	2489.213384
456.190556	2492.837974
456.563888	2495.771926
456.937160	2492.444764
457.310373	2487.814464
457.683526	2489.740185
458.056619	2491.045844
458.429653	2490.952582
458.802628	2492.628766
459.175542	2490.566934
459.548398	2495.623212
459.921194	2496.455002
460.293930	2494.630104
460.666607	2499.247801
461.039224	2498.693274
461.411782	2500.866012
461.784280	2502.320384
462.156719	2501.412977
462.529099	2500.573625
462.901419	2498.032883
463.273680	2495.847543
463.645882	2494.171359
464.018024	2496.475167
464.390106	2493.132882
464.762130	2503.288286
465.134094	2504.878770
465.505999	2509.730881
465.877845	2516.107940
466.249631	2518.920904
466.621358	2515.281191
466.993026	2514.058711
467.364634	2515.646675
467.736184	2513.163906
468.107674	2510.988648
468.479105	2511.018895
468.850477	2506.527227
469.221790	2504.909017
469.593043	2505.140910
469.964238	2502.819459
470.335373	2504.135200
470.706449	2509.042763
471.077467	2505.677793
471.448425	2515.122395
471.819324	2515.712210
472.190164	2516.785975
472.560945	2512.115346
472.931667	2506.983452
473.302330	2511.719616
473.672934	2506.912876
474.043479	2507.968997
474.413965	2505.324912
474.784393	2505.801301
475.154761	2507.638802
475.525070	2504.972031
475.895321	2507.091837
476.265513	2508.195849
476.635645	2506.602845
477.005719	2507.427073
477.375734	2509.355315
477.745691	2509.133504
478.115588	2513.446211
478.485427	2512.236334
478.855207	2516.745646
479.224928	2522.618590
479.594591	2524.118334
479.964194	2524.156142
480.333739	2523.049609
480.703226	2523.024403
481.072653	2526.583458
481.442022	2522.114475
481.811333	2526.187727
482.180584	2518.764628
482.549777	2523.911646
482.918912	2520.639938
483.287988	2524.193951
483.657005	2521.897705
484.025964	2522.895854
484.394864	2520.811337
484.763706	2522.444671
485.132489	2518.502488
485.501213	2520.662623
485.869879	2519.845956
486.238487	2520.692870
486.607036	2521.421316
486.975527	2520.970133
487.343959	2520.821419
487.712333	2523.389887
488.080648	2521.716224
488.448905	2520.075328
488.817104	2522.169928
489.185244	2524.597243
489.553326	2522.948786
489.921350	2527.803417
490.289315	2531.889272
490.657222	2532.365661
491.025070	2534.150230
491.392861	2534.611495
491.760593	2529.477080
492.128267	2532.224509
492.495883	2531.112935
492.863440	2527.652182
493.230939	2524.385515
493.598380	2528.378109
493.965763	2524.894671
494.333088	2525.847449
494.700354	2521.224711
495.067563	2522.346368
495.434713	2523.004239
495.801805	2524.758560
496.168839	2520.713034
496.535815	2521.101203
496.902733	2522.905936
497.269593	2522.973992
497.636395	2521.716224
498.003139	2522.999198
498.369825	2522.207736
498.736453	2523.702438
499.103023	2522.311080
499.469535	2524.186389
499.835989	2519.477952
500.202385	2519.971985
500.568723	2521.196985
500.935003	2520.350071
501.301226	2518.021058
501.667390	2525.252593
502.033497	2525.633200
502.399546	2524.937521
502.765537	2522.416944
503.131470	2523.891482
503.497345	2526.107069
503.863163	2521.519619
504.228923	2522.759743
504.594625	2522.464835
504.960269	2523.599095
505.325856	2525.534898
505.691385	2520.556758
506.056856	2520.962571
506.422270	2522.921060
506.787625	2523.873838
507.152924	2522.560617
507.518164	2522.656399
507.883347	2524.695546
508.248472	2520.975174
508.613540	2522.467356
508.978550	2521.373425
509.343503	2523.677233
509.708398	2522.071625
510.073236	2523.752850
510.438016	2520.733199
510.802738	2521.920391
511.167403	2524.209074
511.532010	2521.796882
511.896561	2522.931142
512.261053	2523.523478
512.625488	2522.227901
512.989866	2523.871317
513.354186	2521.809485
513.718449	2519.722447
514.082655	2522.709331
514.446803	2524.521626
514.810894	2523.793179
515.174927	2521.504495
515.538904	2522.051461
515.902822	2522.537932
516.266684	2522.122037
516.630488	2522.893333
516.994235	2523.142870
517.357925	2522.018693
517.721558	2523.926770
518.085133	2524.347706
518.448651	2522.658920
518.812112	2517.804288
519.175516	2518.089114
519.538863	2517.653054
519.902152	2523.316790
520.265385	2523.571368
520.628560	2523.276461
520.991678	2522.535411
521.354739	2521.196985
521.717743	2523.868797
522.080690	2525.030783
522.443580	2522.764784
522.806413	2524.274609
523.169189	2522.623632
523.531908	2522.502644
523.894569	2523.964578
524.257174	2522.116996
524.619722	2522.361492
524.982213	2521.338137
525.344647	2524.935001
525.707025	2524.700587
526.069345	2524.211595
526.431608	2524.317459
526.793815	2522.283354
527.155964	2521.370905
527.518057	2522.205216
527.880093	2520.917201
528.242072	2521.456604
528.603995	2522.389218
528.965860	2521.081038
529.327669	2520.234125
529.689421	2523.190761
530.051117	2522.134640
530.412755	2523.440298
530.774337	2521.910308
531.135862	2521.617921
531.497331	2523.223529
531.858743	2521.244876
532.220098	2524.138498
532.581396	2523.415093
532.942638	2523.914167
533.303824	2521.731347
533.664953	2521.912829
534.026025	2522.502644
534.387040	2519.964423
534.747999	2520.498785
535.108902	2520.080369
535.469748	2519.372087
535.830537	2519.805627
536.191270	2520.324865
536.551947	2518.961233
536.912567	2515.810512
537.273131	2521.063394
537.633638	2513.761283
537.994089	2519.356964
538.354483	2519.372087
538.714821	2519.039371
539.075103	2517.504340
539.435328	2521.232273
539.795497	2519.246058
540.155609	2521.514578
540.515665	2520.173631
540.875665	2519.142715
541.235609	2520.619773
541.595496	2520.304701
541.955328	2518.540297
542.315102	2515.976870
542.674821	2518.406706
543.034483	2519.082221
543.394090	2518.048784
543.753640	2520.786131
544.113134	2516.299504
544.472571	2519.480472
544.831953	2520.614732
545.191278	2520.181193
545.550548	2518.492406
545.909761	2520.140863
546.268918	2519.566172
546.628019	2519.583816
546.987064	2516.143228
547.346053	2518.978877
547.704986	2519.135153
548.063863	2520.463497
548.422684	2518.741943
548.781449	2517.090965
549.140158	2515.523166
549.498811	2517.274967
549.857408	2518.179854
550.215949	2517.022910
550.574434	2517.816891
550.932864	2520.009793
551.291237	2517.587519
551.649555	2516.891840
552.007817	2517.758918
552.366022	2518.348733
552.724173	2515.434946
553.082267	2518.106758
553.440305	2518.409227
553.798288	2516.629700
554.156215	2518.172293
554.514086	2516.511233
554.871902	2513.836900
555.229661	2517.504340
555.587365	2512.884122
555.945014	2518.142046
556.302606	2517.108609
556.660143	2520.186234
557.017625	2516.428053
557.375050	2520.198837
557.732421	2516.695235
558.089735	2520.549197
558.446994	2518.058867
558.804197	2519.387211
559.161345	2520.985257
559.518437	2519.107427
559.875474	2519.359484
560.232455	2518.862931
560.589381	2520.108096
560.946251	2519.351923
561.303065	2518.772190
561.659825	2519.830832
562.016528	2517.990811
562.373177	2516.072652
562.729770	2519.210770
563.086307	2517.882426
563.442789	2516.309586
563.799216	2517.698424
564.155587	2516.279339
564.511904	2518.568023
564.868164	2518.162210
565.224370	2517.537107
565.580520	2516.702796
565.936615	2517.600122
566.292654	2516.536438
566.648638	2516.816222
567.004567	2518.920904
567.360441	2519.230935
567.716260	2517.741274
568.072023	2517.622807
568.427732	2520.715555
568.783385	2519.208250
569.138982	2518.731861
569.494525	2519.281347
569.850013	2519.498116
570.205445	2518.608352
570.560823	2518.807478
570.916145	2517.711027
571.271412	2518.358815
571.626625	2521.373425
571.981782	2518.257992
572.336884	2514.572909
572.691931	2511.235665
573.046923	2517.464011
573.401860	2514.668691
573.756743	2517.892509
574.111570	2518.341171
574.466342	2518.396624
574.821059	2515.455111
575.175722	2519.021727
575.530330	2515.840759
575.884882	2517.978208
576.239380	2514.525018
576.593823	2517.950482
576.948211	2514.915707
577.302544	2518.406706
577.656823	2512.821108
578.011047	2517.418640
578.365216	2514.804802
578.719330	2515.936541
579.073389	2516.833866
579.427394	2515.238341
579.781344	2515.503002
580.135239	2515.263547
580.489080	2514.986283
580.842866	2517.060718
581.196597	2518.898219
581.550273	2514.620800
581.903895	2515.021572
582.257463	2518.502488
582.610975	2514.787158
582.964434	2516.291942
583.317837	2517.547190
583.671186	2514.600635
584.024481	2516.473424
584.377721	2515.538290
584.730906	2513.950326
585.084037	2514.416633
585.437113	2513.708351
585.790135	2515.371932
586.143103	2512.453104
586.496016	2514.613238
586.848874	2515.061901
587.201679	2516.982580
587.554428	2515.611387
587.907124	2515.044257
588.259765	2512.425377
588.612352	2514.739267
588.964884	2514.315810
589.317362	2513.955368
589.669786	2513.224400
590.022155	2510.063597
590.374470	2510.247599
590.726731	2511.835562
591.078937	2507.452279
591.431090	2515.792868
591.783188	2516.836387
592.135232	2514.439318
592.487222	2512.420336
592.839157	2511.709533
593.191038	2513.715913
593.542866	2511.407064
593.894639	2512.841272
594.246358	2513.269771
594.598022	2514.751870
594.949633	2509.967815
595.301190	2511.275994
595.652692	2510.824811
596.004141	2515.117353
596.355535	2510.529903
596.706876	2511.273474
597.058162	2509.378000
597.409395	2511.454955
597.760573	2512.014523
598.111698	2511.253309
598.462768	2512.059894
598.813785	2509.829183
599.164748	2512.314472
599.515657	2512.178361
599.866511	2511.533093
600.217312	2508.347084
600.568060	2509.587208
600.918753	2513.799092
601.269392	2510.353463
601.619978	2511.132321
601.970510	2511.086951
602.320988	2509.594769
602.671412	2510.585356
603.021783	2511.122239
603.372100	2510.227434
603.722363	2509.468741
604.072572	2511.462517
604.422728	2509.950171
604.772830	2509.700634
605.122878	2508.384893
605.472872	2511.291118
605.822813	2511.573422
606.172701	2508.452948
606.522534	2513.310100
606.872314	2509.665346
607.222041	2511.091992
607.571714	2508.387413
607.921333	2506.718791
608.270899	2510.096364
608.620411	2507.028822
608.969870	2509.395644
609.319276	2513.294976
609.668627	2510.706344
610.017926	2510.945799
610.367171	2510.930675
610.716362	2510.993690
611.065500	2511.863289
611.414585	2509.594769
611.763616	2512.473268
612.112594	2512.637106
612.461518	2512.440501
612.810389	2510.658453
613.159207	2512.697600
613.507971	2509.554440
613.856682	2514.474606
614.205340	2510.562671
614.553945	2513.254647
614.902496	2512.720285
615.250994	2511.631396
615.599439	2509.176354
615.947830	2511.207939
616.296169	2513.274812
616.644454	2510.948319
616.992686	2510.270284
617.340864	2513.063083
617.688990	2511.248268
618.037063	2511.281035
618.385082	2512.455624
618.733048	2512.969822
619.080961	2509.380520
619.428821	2510.804646
619.776628	2512.296828
620.124382	2513.315141
620.472083	2511.578463
620.819731	2512.919410
621.167326	2508.672238
621.514868	2511.381858
621.862357	2511.646519
622.209793	2509.279697
622.557176	2510.605521
622.904506	2510.550068
623.251783	2511.467558
623.599007	2509.400685
623.946179	2508.493277
624.293297	2511.893536
624.640363	2507.953874
624.987376	2505.135869
625.334336	2506.318019
625.681243	2505.718122
626.028097	2504.679644
626.374899	2508.863802
626.721647	2507.313647
627.068343	2508.657115
627.414987	2505.627381
627.761577	2502.849706
628.108115	2507.931189
628.454600	2507.048987
628.801032	2505.448420
629.147412	2507.167454
629.493739	2505.556805
629.840014	2507.613596
630.186236	2506.375993
630.532405	2510.396313
630.878521	2507.258195
631.224585	2509.763648
631.570597	2506.043277
631.916556	2505.395488
632.262462	2506.381034
632.608316	2506.562515
632.954117	2506.774244
633.299866	2507.048987
633.645562	2507.880777
633.991206	2505.735766
634.336797	2507.064110
634.682336	2504.752741
635.027823	2506.214676
635.373257	2503.111846
635.718639	2507.580828
636.063968	2503.764675
636.409245	2504.800632
636.754470	2505.440859
637.099642	2501.329798
637.444762	2503.353821
637.789829	2502.877432
638.134845	2503.321053
638.479808	2505.214007
638.824719	2503.628564
639.169577	2500.198059
639.514383	2502.587566
639.859137	2501.198728
640.203839	2505.675272
640.548489	2501.942298
640.893086	2505.138389
641.237632	2499.678820
641.582125	2503.245436
641.926566	2499.711587
642.270955	2499.406597
642.615292	2497.574138
642.959576	2498.118583
643.303809	2496.727224
643.647990	2501.425580
643.992118	2499.958604
644.336195	2502.900117
644.680219	2500.003974
645.024192	2501.284427
645.368112	2501.896927
645.711981	2502.811897
646.055797	2501.591938
646.399562	2501.818790
646.743274	2501.539006
647.086935	2503.416835
647.430544	2502.640498
647.774101	2503.933554
648.117606	2506.033194
648.461059	2504.861126
648.804460	2507.633761
649.147810	2503.772237
649.491108	2502.678306
649.834354	2503.789881
650.177548	2502.453975
650.520690	2501.208810
650.863781	2502.900117
651.206820	2502.121259
651.549807	2500.956752
651.892742	2503.247957
652.235626	2500.704695
652.578458	2500.588748
652.921238	2499.328460
653.263967	2502.438852
653.606644	2500.860970
653.949269	2498.403408
654.291843	2502.965652
654.634365	2501.818790
654.976836	2497.947183
655.319255	2500.452637
655.661622	2498.673110
656.003938	2502.658142
656.346203	2500.588748
656.688416	2500.777791
657.030577	2499.383912
657.372687	2500.263594
657.714746	2500.102277
658.056753	2497.939622
658.398708	2495.061123
658.740612	2500.508090
659.082465	2500.986999
659.424266	2495.058602
659.766016	2494.680516
660.107715	2496.641525
660.449362	2493.367295
660.790958	2498.768892
661.132503	2498.945332
661.473996	2500.777791
661.815438	2500.636639
662.156829	2497.937101
662.498168	2499.013388
662.839456	2499.421721
663.180693	2499.978768
663.521879	2496.991885
663.863013	2498.128665
664.204097	2500.293841
664.545129	2499.552791
664.886110	2502.486743
665.227040	2498.930208
665.567918	2499.139416
665.908746	2497.533809
666.249522	2501.352483
666.590248	2498.650424
666.930922	2501.896927
667.271545	2498.597492
667.612118	2500.069509
667.952639	2500.203100
668.293109	2499.136896
668.633528	2499.661176
668.973896	2499.146978
669.314213	2498.852071
669.654480	2499.434324
669.994695	2498.405928
670.334859	2499.338542
670.674973	2498.229488
671.015035	2498.375682
671.355047	2498.499190
671.695008	2500.384581
672.034918	2497.654797
672.374777	2499.043634
672.714585	2499.023470
673.054342	2499.590600
673.394049	2500.263594
673.733705	2501.065137
674.073310	2501.355003
674.412864	2500.102277
674.752368	2499.391474
675.091820	2499.068840
675.431223	2498.925167
675.770574	2499.283089
676.109875	2500.094715
676.449125	2497.203613
676.788324	2494.395691
677.127473	2496.732265
677.466571	2493.203458
677.805619	2497.082626
678.144616	2496.444920
678.483562	2496.475167
678.822458	2497.052379
679.161303	2497.042296
679.500098	2495.512306
679.838842	2498.239570
680.177535	2494.962820
680.516179	2499.010867
680.854771	2497.982472
681.193314	2500.054386
681.531805	2496.560866
681.870247	2500.568583
682.208638	2497.987513
682.546978	2500.581186
682.885268	2498.836947
683.223508	2500.596310
683.561697	2500.586228
683.899836	2497.269148
684.237925	2498.433655
684.575963	2499.615805
684.913951	2501.871722
685.251889	2498.053048
685.589776	2498.486587
685.927614	2500.387102
686.265401	2498.516834
686.603137	2498.877276
686.940824	2499.232678
687.278460	2498.781494
687.616046	2501.644870
687.953582	2503.895745
688.291068	2499.872904
688.628504	2499.691423
688.965889	2501.365086
689.303224	2501.924654
689.640510	2503.321053
689.977745	2500.263594
690.314930	2501.433141
690.652065	2500.984479
690.989150	2497.296875
691.326185	2495.598006
691.663170	2496.964158
692.000105	2495.610609
692.336990	2498.032883
692.673825	2498.715959
693.010610	2495.179590
693.347345	2491.481904
693.684030	2489.694815
694.020665	2492.464929
694.357251	2488.525267
694.693786	2495.832419
695.030272	2493.808396
695.366707	2493.052223
695.703093	2491.446616
696.039429	2491.471821
696.375716	2492.522902
696.711952	2493.878972
697.048139	2491.066008
697.384276	2494.471308
697.720363	2493.538694
698.056400	2491.688591
698.392388	2493.846205
698.728326	2492.525423
699.064214	2491.698673
699.400053	2494.430979
699.735842	2491.802017
700.071581	2491.986019
700.407270	2487.806903
700.742910	2491.401245
701.078501	2492.510299
701.414042	2491.129023
701.749533	2489.833446
702.084974	2488.376553
702.420366	2491.688591
702.755709	2485.964361
703.091002	2488.484938
703.426246	2490.846718
703.761440	2490.914774
704.096584	2489.883858
704.431679	2488.805051
704.766725	2486.334886
705.101721	2489.374701
705.436668	2490.176245
705.771565	2488.943683
706.106413	2489.760350
706.441212	2487.955617
706.775961	2487.950575
707.110661	2490.695484
707.445311	2487.698518
707.779913	2491.010556
708.114465	2491.184476
708.448967	2489.664568
708.783421	2493.732779
709.117825	2487.940493
709.452180	2489.009218
709.786485	2491.423930
710.120742	2491.451657
710.454949	2487.902684
710.789107	2490.627428
711.123216	2485.213229
711.457275	2490.095586
711.791286	2491.761688
712.125247	2493.815958
712.459159	2495.235043
712.793023	2496.792759
713.126837	2494.677995
713.460602	2494.506596
713.794318	2493.205978
714.127985	2492.785042
714.461602	2492.434682
714.795171	2493.309322
715.128691	2490.808910
715.462162	2492.301091
715.795584	2488.641213
716.128957	2491.822182
716.462281	2489.606594
716.795556	2490.955103
717.128782	2490.148518
717.461960	2491.471821
717.795088	2490.377891
718.128167	2491.368478
718.461198	2486.229021
718.794180	2489.145329
719.127113	2489.674650
719.459997	2489.253714
719.792833	2487.217088
720.125619	2488.081645
720.458357	2487.224649
720.791046	2487.751450
721.123686	2487.126347
721.456278	2486.551655
721.788821	2485.908908
722.121315	2486.954948
722.453761	2490.017448
722.786158	2486.521408
723.118506	2484.280615
723.450805	2484.925883
723.783056	2486.803713
724.115259	2486.281953
724.447412	2489.079794
724.779518	2485.767756
725.111574	2485.493013
725.443582	2484.855307
725.775542	2486.357571
726.107453	2489.722541
726.439315	2486.251707
726.771129	2490.652634
727.102895	2486.375215
727.434612	2487.955617
727.766281	2484.711634
728.097901	2489.130205
728.429473	2490.342603
728.760996	2488.018631
729.092471	2489.551142
729.423897	2487.335555
729.755276	2488.552993
730.086606	2489.344454
730.417887	2489.127685
730.749120	2493.168170
731.080305	2487.285143
731.411442	2492.089363
731.742530	2488.706748
732.073570	2490.453508
732.404562	2490.675319
732.735506	2490.955103
733.066401	2487.708600
733.397249	2489.578868
733.728048	2487.350678
734.058798	2486.110554
734.389501	2487.169197
734.720156	2488.520226
735.050762	2487.096100
735.381320	2487.741368
735.711831	2484.908239
736.042293	2486.649958
736.372707	2484.857828
736.703073	2486.486120
737.033391	2485.813126
737.363661	2486.871768
737.693883	2487.867396
738.024056	2486.773466
738.354182	2486.738178
738.684260	2483.804226
739.014290	2484.850266
739.344272	2489.475524
739.674207	2488.477376
740.004093	2489.180617
740.333931	2488.840339
740.663722	2488.764722
740.993464	2488.691625
741.323159	2487.441419
741.652806	2487.113744
741.982405	2487.552324
742.311956	2486.874289
742.641460	2491.411328
742.970915	2486.778507
743.300323	2483.486634
743.629683	2481.780203
743.958996	2485.429998
744.288260	2479.461272
744.617477	2482.206181
744.946647	2485.591315
745.275768	2486.869248
745.604842	2484.691469
745.933869	2485.556027
746.262847	2485.800523
746.591778	2483.307673
746.920662	2482.632158
747.249498	2485.112406
747.578286	2484.941007
747.907027	2485.792962
748.235720	2484.351192
748.564365	2484.898157
748.892963	2484.283136
749.221514	2485.717344
749.550017	2483.456387
749.878473	2482.070069
750.206881	2484.646099
750.535242	2484.567961
750.863555	2485.145173
751.191821	2484.499906
751.520039	2486.899495
751.848210	2483.849597
752.176334	2486.544093
752.504411	2482.115440
752.832440	2484.920842
753.160421	2485.480410
753.488356	2483.811788
753.816243	2486.939824
754.144082	2483.227014
754.471875	2484.464618
754.799620	2482.874133
755.127318	2486.080307
755.454969	2484.512508
755.782572	2484.857828
756.110129	2480.683752
756.437638	2485.268682
756.765100	2483.479072
757.092515	2481.674339
757.419882	2482.881695
757.747203	2483.925214
758.074477	2482.143166
758.401703	2485.480410
758.728882	2486.385297
759.056014	2481.129894
759.383099	2482.846407
759.710138	2481.361787
760.037129	2480.819863
760.364073	2482.833804
760.690970	2478.954636
761.017820	2482.186016
761.344623	2483.887405
761.671379	2486.481079
761.998088	2486.481079
762.324751	2485.661892
762.651366	2490.917294
762.977935	2496.487769
763.304456	2500.147647
763.630931	2501.319715
763.957359	2499.845178
764.283740	2499.325939
764.610074	2494.017604
764.936362	2493.286637
765.262602	2490.067860
765.588796	2489.803199
765.914943	2486.337406
766.241044	2485.208188
766.567097	2485.170379
766.893104	2484.973774
767.219064	2485.765235
767.544978	2484.605770
767.870845	2482.412868
768.196665	2482.990080
768.522438	2482.924545
768.848165	2480.343474
769.173846	2483.544607
769.499479	2483.721047
769.825066	2481.548310
770.150607	2482.077631
770.476101	2480.572847
770.801548	2479.393217
771.126949	2481.291211
771.452303	2477.656539
771.777611	2479.045377
772.102872	2481.255923
772.428087	2478.596714
772.753256	2480.449338
773.078378	2477.396920
773.403453	2480.726602
773.728482	2480.111581
774.053465	2478.077476
774.378401	2478.016982
774.703291	2477.470017
775.028135	2477.414564
775.352932	2478.868937
775.677683	2476.534883
776.002388	2473.958853
776.327046	2475.987917
776.651658	2477.288535
776.976224	2472.171764
777.300743	2477.727115
777.625216	2477.386838
777.949643	2479.720892
778.274024	2475.100674
778.598359	2477.830459
778.922647	2478.437918
779.246889	2478.503453
779.571086	2478.339616
779.895236	2477.386837
780.219339	2478.536221
780.543397	2477.487661
780.867409	2477.964050
781.191374	2478.286683
781.515294	2476.313072
781.839167	2477.913638
782.162995	2476.499594
782.486776	2475.509008
782.810511	2477.401961
783.134201	2475.168730
783.457844	2478.732826
783.781441	2479.257106
784.104993	2477.785089
784.428498	2477.066724
784.751958	2475.425829
785.075372	2479.181488
785.398739	2477.616210
785.722061	2475.917341
786.045337	2476.418936
786.368568	2478.054790
786.691752	2476.819708
787.014891	2477.124697
787.337983	2478.470686
787.661030	2478.871457
787.984031	2478.435398
788.306987	2478.465644
788.629897	2481.497898
788.952760	2478.548823
789.275579	2481.838176
789.598351	2478.637044
789.921078	2478.107723
790.243759	2479.335243
790.566395	2480.522435
790.888984	2478.417753
791.211529	2479.118474
791.534027	2478.107723
791.856480	2476.325675
792.178888	2476.391210
792.501249	2473.371558
792.823566	2477.472537
793.145836	2473.048925
793.468062	2478.967239
793.790241	2475.705613
794.112375	2476.194605
794.434464	2474.442804
794.756507	2478.901704
795.078505	2477.248206
795.400457	2477.928762
795.722364	2476.360963
796.044226	2479.075624
796.366042	2479.763742
796.687812	2477.628813
797.009538	2480.144349
797.331218	2479.609986
797.652852	2480.711478
797.974442	2479.388176
798.295986	2474.142855
798.617484	2479.728453
798.938938	2476.613020
799.260346	2478.992445
799.581709	2479.569657
799.903026	2479.766262
800.224299	2477.893473
800.545526	2478.216107
800.866708	2476.187043
801.187845	2479.204173
801.508936	2474.659573
801.829983	2475.957670
802.150984	2474.273925
802.471940	2481.460090
802.792851	2478.276601
803.113717	2475.612351
803.434538	2475.095633
803.755314	2473.641260
804.076045	2474.702423
804.396731	2478.939513
804.717372	2475.108236
805.037967	2478.473206
805.358518	2474.563791
805.679024	2478.997486
805.999485	2476.822228
806.319901	2477.530510
806.640272	2475.607310
806.960598	2480.875316
807.280879	2477.248206
807.601115	2477.684266
807.921306	2478.448000
808.241453	2473.502628
808.561554	2474.205869
808.881611	2474.568832
809.201623	2471.561784
809.521590	2475.725777
809.841513	2475.574543
810.161390	2475.788792
810.481223	2473.928606
810.801011	2476.802064
811.120755	2477.265850
811.440453	2476.222331
811.760107	2474.949440
812.079716	2477.979173
812.399281	2476.613020
812.718801	2476.776858
813.038276	2474.876343
813.357707	2474.962042
813.677093	2474.871302
813.996434	2478.049749
814.315731	2477.858185
814.634983	2475.952629
814.954191	2474.422639
815.273354	2475.796353
815.592473	2477.328864
815.911547	2477.936323
816.230577	2476.330716
816.549562	2478.319451
816.868502	2475.879532
817.187399	2476.297948
817.506250	2479.262147
817.825058	2477.195274
818.143821	2476.345839
818.462539	2479.047898
818.781213	2480.023361
819.099843	2477.659060
819.418429	2479.085706
819.736970	2482.992601
820.055466	2484.862869
820.373919	2487.887561
820.692327	2488.631131
821.010691	2496.210506
821.329011	2510.633247
821.647286	2529.966072
821.965517	2558.529250
822.283704	2577.002558
822.601847	2589.731472
822.919945	2579.679411
823.237999	2570.015519
823.556010	2556.623694
823.873976	2545.495347
824.191897	2531.004550
824.509775	2518.837725
824.827609	2510.907990
825.145398	2504.861126
825.463144	2504.543533
825.780845	2504.420025
826.098502	2506.428925
826.416116	2513.229441
826.733685	2519.074659
827.051210	2520.269413
827.368692	2521.610360
827.686129	2516.934689
828.003522	2508.825993
828.320872	2499.283089
828.638177	2496.482728
828.955439	2492.885865
829.272656	2490.145998
829.589830	2488.522746
829.906960	2485.503095
830.224046	2482.163331
830.541088	2482.680049
830.858086	2481.931438
831.175041	2477.669142
831.491952	2479.680563
831.808819	2479.859523
832.125642	2479.728453
832.442421	2482.533856
832.759157	2480.620738
833.075849	2489.175576
833.392497	2492.996770
833.709101	2496.449961
834.025662	2497.007008
834.342179	2496.533140
834.658653	2491.552480
834.975083	2490.430823
835.291469	2487.900164
835.607811	2483.973105
835.924110	2484.255410
836.240366	2479.630151
836.556578	2481.467652
836.872746	2478.707620
837.188871	2478.344657
837.504952	2477.137300
837.820990	2474.709985
838.136984	2474.079841
838.452935	2473.230406
838.768842	2476.003041
839.084706	2471.735704
839.400526	2476.360963
839.716303	2480.918166
840.032037	2479.768783
840.347727	2476.499594
840.663373	2481.437405
840.978977	2472.512042
841.294537	2480.088896
841.610054	2475.168730
841.925527	2476.141673
842.240957	2478.042187
842.556344	2475.788792
842.871687	2475.408185
843.186987	2471.498770
843.502244	2472.680920
843.817458	2472.280149
844.132629	2471.995323
844.447756	2469.807463
844.762840	2473.220324
845.077881	2468.970631
845.392879	2471.269397
845.707833	2472.194449
846.022745	2473.704275
846.337613	2471.839048
846.652438	2471.007257
846.967221	2473.389202
847.281960	2471.135807
847.596656	2471.697895
847.911309	2473.369038
848.225919	2471.193780
848.540485	2472.406178
848.855009	2472.731332
849.169490	2470.523307
849.483928	2468.935343
849.798323	2470.001547
850.112675	2473.003554
850.426984	2471.619757
850.741251	2471.181177
851.055474	2470.167905
851.369654	2471.420632
851.683792	2469.517596
851.997887	2471.511373
852.311938	2469.000878
852.625947	2471.705457
852.939914	2471.818883
853.253837	2471.183698
853.567718	2470.127576
853.881555	2470.712350
854.195350	2471.317288
854.509103	2472.247381
854.822812	2469.464664
855.136479	2469.341156
855.450103	2472.466671
855.763685	2469.618419
856.077224	2465.799745
856.390720	2468.635394
856.704173	2468.771506
857.017584	2471.218986
857.330953	2469.638584
857.644278	2471.924747
857.957561	2470.198152
858.270802	2471.307206
858.584000	2468.557257
858.897155	2472.673359
859.210268	2472.035653
859.523339	2473.013637
859.836367	2469.136989
860.149352	2470.024232
860.462295	2467.932153
860.775195	2471.902062
861.088054	2471.967597
861.400869	2470.571198
861.713642	2472.476754
862.026373	2471.652525
862.339062	2472.582618
862.651708	2473.505149
862.964312	2472.436424
863.276873	2470.462813
863.589392	2469.711681
863.901869	2471.365179
864.214303	2469.711681
864.526696	2470.813173
864.839045	2472.012968
865.151353	2472.675879
865.463619	2469.066413
865.775842	2472.630509
866.088023	2474.311734
866.400162	2473.482464
866.712258	2472.607824
867.024313	2470.261167
867.336325	2471.929788
867.648296	2470.666979
867.960224	2470.616568
868.272110	2473.641260
868.583954	2472.817032
868.895755	2472.330560
869.207515	2473.472382
869.519233	2470.447689
869.830909	2473.071610
870.142542	2471.408029
870.454134	2470.636733
870.765684	2472.401136
871.077191	2470.175467
871.388657	2471.539099
871.700081	2465.504838
872.011463	2472.166723
872.322803	2467.612040
872.634101	2473.006075
872.945357	2469.769654
873.256571	2474.445324
873.567744	2472.653194
873.878874	2470.238481
874.189963	2476.839872
874.501010	2473.815180
874.812015	2472.844758
875.122979	2474.563791
875.433900	2472.043214
875.744780	2474.974645
876.055618	2475.874491
876.366415	2474.228555
876.677169	2473.038842
876.987882	2475.254429
877.298554	2473.631178
877.609183	2474.536065
877.919771	2474.059676
878.230317	2476.371045
878.540822	2473.880715
878.851285	2477.228041
879.161707	2478.684935
879.472087	2478.120325
879.782425	2481.586119
880.092722	2487.060812
880.402977	2495.204796
880.713191	2504.853564
881.023363	2513.196674
881.333494	2524.309897
881.643583	2530.064375
881.953631	2530.354241
882.263637	2525.161853
882.573602	2522.404341
882.883526	2518.641120
883.193408	2515.150121
883.503248	2508.513442
883.813048	2505.932371
884.122806	2501.085302
884.432522	2499.953563
884.742197	2492.749754
885.051831	2491.335710
885.361424	2487.824547
885.670975	2485.901346
885.980485	2480.862713
886.289954	2482.768269
886.599382	2480.184678
886.908768	2478.248875
887.218113	2472.610344
887.527417	2474.735191
887.836680	2471.962556
888.145901	2478.551344
888.455082	2471.697895
888.764221	2475.405664
889.073319	2472.751497
889.382376	2472.174284
889.691392	2472.925416
890.000366	2472.691003
890.309300	2473.202680
890.618193	2472.857361
890.927044	2472.474233
891.235855	2474.001703
891.544625	2473.356435
891.853353	2474.757876
892.162041	2473.205200
892.470687	2474.810808
892.779293	2476.822228
893.087858	2475.670325
893.396381	2477.480099
893.704864	2479.660398
894.013306	2481.598722
894.321707	2487.164155
894.630068	2488.903353
894.938387	2489.374701
895.246665	2488.684063
895.554903	2487.673312
895.863100	2485.170379
896.171256	2483.930255
896.479371	2482.853969
896.787446	2480.877837
897.095480	2481.492857
897.403473	2482.695173
897.711425	2476.562609
898.019336	2479.378093
898.327207	2475.725777
898.635038	2475.292238
898.942827	2477.172588
899.250576	2476.665952
899.558284	2473.732001
899.865952	2474.531024
900.173579	2473.807618
900.481165	2469.772175
900.788711	2473.447176
901.096216	2472.832155
901.403681	2474.256281
901.711105	2471.715539
902.018489	2472.028091
902.325832	2469.792339
902.633135	2470.251084
902.940397	2472.070941
903.247619	2470.861064
903.554800	2478.122846
903.861941	2485.694659
904.169041	2489.112561
904.476101	2491.570124
904.783121	2490.559372
905.090100	2490.347644
905.397039	2488.404279
905.703938	2484.857828
906.010796	2483.975626
906.317614	2480.895481
906.624391	2482.848928
906.931129	2478.906745
907.237826	2477.775006
907.544483	2475.866930
907.851099	2477.331385
908.157675	2476.202166
908.464211	2473.757207
908.770707	2472.683441
909.077163	2473.409367
909.383578	2471.629840
909.689954	2471.337453
909.996289	2467.750672
910.302584	2468.524489
910.608839	2469.426856
910.915054	2467.062554
911.221229	2470.576239
911.527363	2468.627833
911.833458	2471.526496
912.139513	2472.413739
912.445527	2470.215796
912.751502	2470.220837
913.057436	2471.231589
913.363331	2474.024388
913.669186	2469.658749
913.975000	2474.838534
914.280775	2474.011785
914.586510	2475.279635
914.892205	2476.431539
915.197859	2481.833135
915.503475	2482.738022
915.809050	2490.153560
916.114585	2490.788745
916.420081	2491.590288
916.725536	2491.335710
917.030952	2494.735968
917.336328	2489.583909
917.641665	2487.569968
917.946961	2482.304483
918.252218	2485.235914
918.557435	2478.924389
918.862612	2484.147025
919.167750	2481.901191
919.472848	2481.129894
919.777906	2477.659060
920.082925	2479.736015
920.387904	2473.752166
920.692843	2474.730149
920.997743	2475.304841
921.302603	2475.942547
921.607423	2471.748307
921.912204	2473.752166
922.216946	2470.394757
922.521647	2473.482464
922.826310	2470.757720
923.130932	2472.005406
923.435516	2468.590024
923.740059	2471.602113
924.044564	2470.235961
924.349028	2467.745631
924.653454	2469.404170
924.957840	2468.519448
925.262186	2468.864767
925.566493	2469.683954
925.870761	2468.660600
926.174989	2469.063892
926.479178	2469.131948
926.783328	2469.573049
927.087438	2466.301340
927.391509	2467.906948
927.695541	2467.150775
927.999533	2466.775209
928.303486	2467.959880
928.607400	2467.604478
928.911275	2467.778398
929.215110	2470.044397
929.518906	2470.866105
929.822663	2466.755044
930.126381	2467.854016
930.430060	2467.884262
930.733699	2467.675055
931.037299	2466.755044
931.340861	2467.664972
931.644383	2469.361321
931.947866	2470.714870
932.251309	2468.902576
932.554714	2463.536267
932.858080	2464.758747
933.161407	2462.248253
933.464694	2465.043572
933.767943	2459.377315
934.071153	2467.211268
934.374323	2466.462657
934.677455	2468.138841
934.980548	2466.739921
935.283602	2465.376288
935.586617	2466.011474
935.889593	2466.941567
936.192530	2467.599437
936.495428	2466.994499
936.798287	2464.415949
937.101108	2470.132617
937.403890	2465.227574
937.706632	2467.680096
938.009336	2467.470888
938.312002	2469.205045
938.614628	2468.867287
938.917216	2469.391567
939.219765	2467.531382
939.522275	2467.848974
939.824747	2468.476598
940.127179	2468.093470
940.429573	2470.112453
940.731929	2467.586834
941.034246	2466.644139
941.336524	2469.353759
941.638763	2468.136320
941.940964	2466.578604
942.243126	2466.893676
942.545250	2469.333594
942.847335	2468.285034
943.149381	2468.607668
943.451389	2468.809314
943.753359	2467.753193
944.055290	2467.627164
944.357182	2468.095991
944.659036	2467.075157
944.960851	2468.269911
945.262628	2468.963069
945.564367	2470.402319
945.866067	2469.999027
946.167729	2468.063223
946.469352	2465.313274
946.770937	2469.008440
947.072484	2467.876701
947.373992	2471.105560
947.675462	2466.019036
947.976893	2464.869653
948.278286	2465.900568
948.579641	2465.376288
948.880958	2462.860753
949.182236	2465.857719
949.483476	2468.615230
949.784678	2469.484829
950.085841	2467.654890
950.386967	2465.585496
950.688054	2466.381999
950.989103	2467.516258
951.290114	2466.180353
951.591087	2468.302678
951.892021	2462.543160
952.192917	2465.900568
952.493776	2466.989458
952.794596	2468.660600
953.095378	2469.910806
953.396122	2468.247226
953.696828	2467.271762
953.997496	2468.723615
954.298126	2467.906948
954.598718	2469.240333
954.899272	2467.002061
955.199788	2467.566670
955.500266	2467.934674
955.800706	2466.225723
956.101108	2468.680765
956.401472	2465.567852
956.701798	2468.156485
957.002087	2465.482153
957.302337	2464.960393
957.602550	2468.358131
957.902724	2466.949128
958.202861	2465.663634
958.502960	2464.254632
958.803022	2465.998871
959.103045	2468.131279
959.403031	2463.397636
959.702979	2465.167081
960.002889	2467.430559
960.302762	2465.343521
960.602596	2464.763788
960.902393	2464.920064
961.202153	2464.864611
961.501875	2465.605661
961.801559	2467.264201
962.101205	2465.467029
962.400814	2465.325877
962.700385	2464.841926
962.999918	2463.357306
963.299414	2461.227419
963.598873	2464.668006
963.898293	2457.191975
964.197677	2465.865280
964.497022	2462.825465
964.796331	2464.889817
965.095601	2464.499128
965.394835	2465.096504
965.694030	2464.294961
965.993189	2462.553242
966.292309	2465.915692
966.591393	2468.426187
966.890439	2464.075671
967.189447	2467.533902
967.488419	2462.412090
967.787353	2466.772688
968.086249	2464.574745
968.385108	2466.389560
968.683930	2464.012656
968.982714	2465.363686
969.281462	2467.128089
969.580172	2467.324694
969.878844	2465.048613
970.177480	2466.225723
970.476078	2463.364868
970.774639	2467.196145
971.073162	2465.202369
971.371649	2463.889148
971.670098	2466.177832
971.968510	2462.621298
972.266885	2465.517441
972.565223	2464.907461
972.863524	2467.455764
973.161788	2463.291771
973.460014	2464.171453
973.758204	2466.429890
974.056356	2465.416618
974.354471	2465.940898
974.652550	2465.875363
974.950591	2463.808490
975.248595	2465.111628
975.546563	2463.448047
975.844493	2462.807821
976.142386	2466.782770
976.440243	2465.953501
976.738062	2462.891000
977.035845	2464.602471
977.333590	2465.038531
977.631299	2464.030300
977.928971	2460.461163
978.226606	2462.780094
978.524204	2463.475773
978.821765	2460.929991
979.119290	2465.739252
979.416777	2464.262193
979.714228	2461.537450
980.011642	2462.770012
980.309020	2463.563994
980.606360	2464.380661
980.903664	2465.734210
981.200931	2463.747996
981.498162	2464.403346
981.795356	2466.008953
982.092513	2465.015846
982.389633	2465.156998
982.686717	2467.344859
982.983764	2468.073306
983.280775	2467.833851
983.577749	2468.474077
983.874686	2467.964921
984.171587	2465.976186
984.468451	2469.310909
984.765279	2467.095322
985.062070	2468.809314
985.358824	2467.473408
985.655543	2469.575570
985.952224	2466.278655
986.248869	2465.525003
986.545478	2467.075157
986.842050	2465.923254
987.138586	2468.980713
987.435086	2466.596248
987.731549	2464.703294
988.027975	2462.757409
988.324366	2461.950824
988.620719	2465.550208
988.917037	2462.782615
989.213318	2464.020218
989.509563	2464.123562
989.805772	2462.366720
990.101944	2464.252111
990.398080	2465.267904
990.694180	2463.049796
990.990244	2463.712708
991.286271	2462.328911
991.582262	2465.285548
991.878217	2462.112141
992.174136	2462.865794
992.470019	2462.608695
992.765865	2461.245063
993.061676	2460.526698
993.357450	2461.310598
993.653188	2459.929322
993.948890	2464.720938
994.244556	2465.850157
994.540186	2464.209261
994.835780	2463.311936
995.131337	2464.327728
995.426859	2465.013325
995.722345	2466.447534
996.017795	2464.504169
996.313208	2465.877883
996.608586	2463.092646
996.903928	2467.428038
997.199234	2464.577266
997.494504	2466.450054
997.789738	2465.346042
998.084936	2464.975517
998.380099	2466.780250
998.675225	2464.168932
998.970316	2466.354272
999.265371	2461.177007
999.560390	2465.855198
999.855373	2464.834364
1000.150320	2465.300671
1000.445232	2463.511062
1000.740108	2464.481484
1001.034948	2460.682974
1001.329752	2462.490228
1001.624521	2464.494087
1001.919254	2466.508028
1002.213951	2463.783284
1002.508613	2465.119190
1002.803239	2461.799590
1003.097829	2464.128603
1003.392384	2461.807152
1003.686903	2464.060547
1003.981386	2462.422172
1004.275834	2464.725980
1004.570246	2464.625157
1004.864623	2463.190948
1005.158964	2463.337142
1005.453270	2463.740434
1005.747540	2463.039714
1006.041775	2463.105249
1006.335974	2460.398149
1006.630138	2464.438634
1006.924266	2465.688840
1007.218359	2463.647173
1007.512416	2461.071143
1007.806438	2458.043930
1008.100425	2461.784466
1008.394376	2459.944445
1008.688292	2466.069447
1008.982172	2461.424024
1009.276017	2462.573407
1009.569827	2466.311422
1009.863602	2462.361678
1010.157341	2462.913685
1010.451045	2464.300002
1010.744714	2463.143057
1011.038347	2465.623305
1011.331945	2463.004426
1011.625508	2463.972327
1011.919036	2464.108438
1012.212528	2465.230095
1012.505986	2463.531226
1012.799408	2465.038531
1013.092795	2461.718931
1013.386147	2461.562656
1013.679464	2464.476442
1013.972745	2464.226905
1014.265992	2460.705659
1014.559204	2461.275310
1014.852380	2460.357820
1015.145521	2465.436782
1015.438628	2464.294961
1015.731699	2461.804631
1016.024736	2462.623818
1016.317737	2462.891000
1016.610703	2462.238170
1016.903635	2462.613736
1017.196531	2461.091308
1017.489393	2461.683643
1017.782219	2464.080712
1018.075011	2465.111628
1018.367768	2462.954014
1018.660490	2462.747327
1018.953177	2462.747327
1019.245829	2462.747327
