Dividing Wavelength (nm)	Counts (n)	Blue Motor Position (mm): 0.000000	Red Motor Position (mm): 46.500000	
326.493990	2055.754812
326.888308	2055.754812
327.282561	2055.754812
327.676750	2028.623322
328.070874	2029.518127
328.464933	2035.199507
328.858929	2045.372556
329.252859	2052.871272
329.646726	2069.411298
330.040528	2083.319841
330.434265	2101.639394
330.827938	2124.730400
331.221547	2143.753194
331.615091	2165.195742
332.008571	2184.289112
332.401986	2204.700744
332.795338	2224.857797
333.188625	2243.230283
333.581847	2264.287182
333.975006	2282.437857
334.368100	2299.565177
334.761129	2314.020685
335.154095	2331.006853
335.546996	2379.827908
335.939833	2484.121819
336.332606	2495.542553
336.725315	2508.566374
337.117960	2519.757736
337.510540	2531.296937
337.903056	2536.731301
338.295508	2545.296221
338.687896	2553.276367
339.080220	2557.145453
339.472480	2562.547049
339.864676	2565.322205
340.256807	2567.013512
340.648875	2571.903431
341.040879	2569.894531
341.432818	2576.407702
341.824694	2573.730849
342.216506	2577.017682
342.608253	2575.591035
342.999937	2572.273956
343.391557	2571.369069
343.783113	2573.440983
344.174605	2567.991496
344.566033	2568.515776
344.957397	2566.932853
345.348697	2564.911351
345.739934	2564.243398
346.131106	2563.525033
346.522215	2560.996895
346.913260	2557.221070
347.304241	2559.292985
347.695159	2556.457336
348.086012	2555.819630
348.476802	2553.689742
348.867528	2550.130688
349.258191	2544.688762
349.648789	2548.323434
350.039324	2544.363607
350.429796	2549.394679
350.820203	2545.898639
351.210548	2545.823022
351.600828	2544.290511
351.991045	2544.000644
352.381198	2542.785726
352.771288	2541.837989
353.161314	2544.093906
353.551276	2541.618699
353.941175	2540.338246
354.331010	2541.308668
354.720782	2545.318906
355.110490	2547.726057
355.500135	2544.668597
355.889717	2543.657846
356.279235	2544.121632
356.668689	2542.808412
357.058080	2542.977290
357.447408	2543.942671
357.836672	2547.940306
358.225873	2546.128011
358.615010	2548.227652
359.004084	2545.659184
359.393095	2549.382076
359.782043	2547.232024
360.170927	2550.564227
360.559748	2549.520708
360.948505	2551.476676
361.337199	2550.982642
361.725830	2553.488096
362.114398	2553.442726
362.502903	2554.914743
362.891344	2553.760318
363.279722	2552.900802
363.668037	2554.002294
364.056289	2551.199412
364.444478	2558.423386
364.832603	2555.643189
365.220665	2556.016235
365.608665	2556.711914
365.996601	2557.606719
366.384474	2556.691749
366.772284	2557.674774
367.160031	2558.415824
367.547715	2560.767522
367.935336	2557.657130
368.322893	2556.583364
368.710388	2557.780638
369.097820	2559.708880
369.485189	2557.452963
369.872495	2564.243398
370.259738	2561.551422
370.646918	2564.208110
371.034035	2565.115517
371.421090	2566.839592
371.808081	2568.747669
372.195010	2566.516958
372.581875	2569.077864
372.968678	2571.787484
373.355418	2573.607341
373.742096	2572.462999
374.128710	2574.313103
374.515262	2579.268557
374.901751	2579.553382
375.288177	2586.726944
375.674540	2587.959506
376.060841	2592.930084
376.447079	2594.618870
376.833254	2602.402412
377.219367	2604.570108
377.605417	2612.320882
377.991404	2620.006121
378.377329	2622.982922
378.763191	2631.777215
379.148991	2638.020684
379.534727	2647.271202
379.920402	2655.735299
380.306013	2662.336690
380.691563	2675.819256
381.077049	2684.495082
381.462474	2693.090249
381.847835	2710.777137
382.233134	2720.194012
382.618371	2730.818244
383.003545	2752.137284
383.388657	2762.847215
383.773706	2786.202881
384.158693	2795.662606
384.543618	2814.443425
384.928480	2831.643842
385.313280	2851.059846
385.698017	2872.293186
386.082692	2896.992319
386.467305	2912.123342
386.851856	2934.775767
387.236344	2961.766105
387.620770	2979.284114
388.005133	2999.854543
388.389435	3034.424255
388.773674	3046.452448
389.157851	3080.124835
389.541965	3106.152313
389.926018	3120.875002
390.310008	3152.588901
390.693936	3177.567819
391.077802	3207.298023
391.461606	3239.790781
391.845348	3256.131681
392.229027	3286.300466
392.612645	3326.551559
392.996200	3353.728419
393.379694	3392.918349
393.763125	3437.270421
394.146494	3463.265131
394.529801	3499.528671
394.913047	3544.994837
395.296230	3552.029767
395.679351	3571.733117
396.062410	3624.577012
396.445408	3602.521964
396.828343	3648.570384
397.211217	3682.154551
397.594028	3651.685817
397.976778	3699.352447
398.359466	3734.638004
398.742092	3744.359869
399.124656	3757.391252
399.507158	3823.410203
399.889598	3827.662416
400.271977	3893.089031
400.654294	3876.357441
401.036549	3937.521761
401.418742	3938.603088
401.800874	4008.602030
402.182944	4034.763098
402.564952	4120.742498
402.946898	4114.715798
403.328783	4109.720015
403.710606	4162.989887
404.092367	4234.402873
404.474067	4298.917039
404.855705	4280.892393
405.237282	4251.331067
405.618797	4347.629709
406.000250	4427.627779
406.381642	4515.263197
406.762972	4514.892673
407.144240	4479.627281
407.525447	4547.907189
407.906593	4563.007966
408.287677	4648.606758
408.668700	4674.475439
409.049661	4714.436665
409.430560	4750.342284
409.811399	4731.518615
410.192176	4783.268580
410.572891	4866.939131
410.953545	4972.349658
411.334138	4869.983988
411.714669	4975.714628
412.095139	4891.086258
412.475547	5000.769163
412.855894	5007.557076
413.236180	5107.273620
413.616405	5033.980284
413.996568	5142.460874
414.376670	5142.302078
414.756711	5141.717304
415.136691	5212.056523
415.516609	5296.276560
415.896466	5329.424667
416.276262	5408.142284
416.655997	5522.392475
417.035670	5618.991065
417.415283	5760.176140
417.794834	5836.839487
418.174324	5791.466582
418.553753	5796.656450
418.933121	5960.564526
419.312428	5975.007432
419.691674	5898.792747
420.070859	6127.474609
420.449983	6003.575650
420.829045	6200.324323
421.208047	6123.603003
421.586988	6286.225585
421.965867	6359.748293
422.344686	6448.459998
422.723444	6609.524863
423.102141	6224.587397
423.480777	6621.573221
423.859352	6431.032729
424.237866	6802.895963
424.616319	6795.566125
424.994712	6960.800025
425.373044	6868.609924
425.751314	7197.744338
426.129524	6913.715648
426.507673	7176.286667
426.885762	7219.968265
427.263789	7264.771520
427.641756	7343.632810
428.019662	7434.776871
428.397508	7476.074004
428.775292	7449.852442
429.153016	7630.960935
429.530679	7553.422948
429.908282	7612.623738
430.285824	7549.548821
430.663305	7839.997420
431.040726	7724.610450
431.418086	7725.943835
431.795385	7857.591047
432.172624	8052.371150
432.549802	7931.154085
432.926920	8071.832524
433.303977	8005.485898
433.680974	8049.636324
434.057910	8254.682736
434.434786	8306.435221
434.811601	8261.412676
435.188355	8596.692257
435.565050	8491.087645
435.941683	8502.092484
436.318257	8837.127569
436.694770	8788.709807
437.071222	9020.789406
437.447614	8792.531001
437.823946	8763.856918
438.200218	8911.663549
438.576429	8789.597050
438.952580	8964.915778
439.328670	8967.418711
439.704700	9042.262201
440.080670	8936.040048
440.456580	9214.422646
440.832429	9184.458028
441.208218	8918.358201
441.583947	9034.677785
441.959616	9156.136825
442.335224	9182.197070
442.710773	9274.707284
443.086261	9456.466086
443.461689	9171.025873
443.837057	9341.192542
444.212365	9559.202281
444.587612	9542.024549
444.962800	9436.704763
445.337927	9566.484228
445.712995	9107.043549
446.088002	9783.342063
446.462949	9842.031177
446.837837	9820.318927
447.212664	9852.095840
447.587431	10677.491521
447.962139	11698.756194
448.336786	12656.330928
448.711374	12438.328751
449.085901	11217.812473
449.460369	11136.712910
449.834776	10911.196893
450.209124	11829.823673
450.583412	11649.259625
450.957640	11973.047895
451.331808	11562.181254
451.705917	10990.718574
452.079965	10858.970539
452.453954	11067.064329
452.827883	11015.067347
453.201752	10981.238684
453.575562	10982.806483
453.949311	11329.106026
454.323001	11396.937272
454.696632	11316.616568
455.070202	11907.873337
455.443713	11967.500105
455.817164	12139.582412
456.190556	12452.998509
456.563888	12325.608551
456.937160	12601.379831
457.310373	12074.367526
457.683526	12094.708581
458.056619	12104.233842
458.429653	12173.726147
458.802628	12317.230153
459.175542	12370.157228
459.548398	12929.669852
459.921194	13496.030883
460.293930	13784.941931
460.666607	14641.345749
461.039224	15453.213494
461.411782	15815.894266
461.784280	15486.172558
462.156719	15439.955259
462.529099	15359.080028
462.901419	14703.417477
463.273680	14303.601044
463.645882	14512.352705
464.018024	14392.940373
464.390106	14762.862763
464.762130	15830.669888
465.134094	17349.743462
465.505999	19650.573968
465.877845	21943.199997
466.249631	23237.448191
466.621358	22789.334984
466.993026	21985.066779
467.364634	21248.450859
467.736184	20434.092784
468.107674	19821.708538
468.479105	19670.098357
468.850477	19402.768489
469.221790	18963.550398
469.593043	18288.602913
469.964238	17890.651708
470.335373	17952.052962
470.706449	18673.885698
471.077467	19519.251910
471.448425	22005.440602
471.819324	23911.579010
472.190164	23832.667308
472.560945	22082.348446
472.931667	20487.365177
473.302330	20152.667850
473.672934	19584.378577
474.043479	20009.060500
474.413965	19799.988727
474.784393	19599.560012
475.154761	20286.540732
475.525070	20415.301883
475.895321	20235.932588
476.265513	20770.367993
476.635645	21376.586907
477.005719	21440.657452
477.375734	21793.938993
477.745691	22447.524589
478.115588	23091.632816
478.485427	24285.859477
478.855207	26099.850633
479.224928	27925.738912
479.594591	29393.659898
479.964194	29058.173630
480.333739	29521.392654
480.703226	29747.556459
481.072653	30187.618943
481.442022	30701.234382
481.811333	31126.319598
482.180584	30693.070233
482.549777	30473.981687
482.918912	30228.757279
483.287988	30168.472641
483.657005	30036.671673
484.025964	29660.815846
484.394864	29865.738749
484.763706	29782.574834
485.132489	29247.847043
485.501213	29321.422683
485.869879	29507.007721
486.238487	29428.055690
486.607036	29703.146414
486.975527	29373.008811
487.343959	29739.709903
487.712333	30108.167838
488.080648	30053.667924
488.448905	30499.799957
488.817104	30365.206190
489.185244	31225.668137
489.553326	32173.057221
489.921350	34073.776388
490.289315	36618.976827
490.657222	37556.437357
491.025070	38153.695621
491.392861	37895.785149
491.760593	37133.900445
492.128267	36118.007122
492.495883	35149.235984
492.863440	34237.865945
493.230939	33241.718822
493.598380	32674.926771
493.965763	32506.627850
494.333088	31983.945896
494.700354	31804.092650
495.067563	31748.844125
495.434713	31622.880813
495.801805	31927.553028
496.168839	31743.301376
496.535815	31607.550665
496.902733	31735.722001
497.269593	31545.325182
497.636395	31702.755376
498.003139	31991.716835
498.369825	31744.649885
498.736453	32159.912412
499.103023	31983.426657
499.469535	32073.353280
499.835989	32192.316949
500.202385	32078.475092
500.568723	32115.535135
500.935003	32426.428134
501.301226	32286.878913
501.667390	33042.439490
502.033497	33240.526589
502.399546	33052.496592
502.765537	32641.022491
503.131470	33132.381236
503.497345	33586.029629
503.863163	32482.541217
504.228923	33292.775628
504.594625	33693.262533
504.960269	33159.903415
505.325856	33838.967003
505.691385	33489.209229
506.056856	33832.020293
506.422270	34320.631609
506.787625	33838.251159
507.152924	34311.950742
507.518164	34475.216071
507.883347	34060.293822
508.248472	34192.843400
508.613540	34902.169034
508.978550	35125.484588
509.343503	34972.094879
509.708398	35339.534501
510.073236	35925.029232
510.438016	36025.877515
510.802738	35698.194953
511.167403	36261.153206
511.532010	36506.410382
511.896561	37037.521145
512.261053	37793.878224
512.625488	37576.642302
512.989866	37500.783019
513.354186	37536.857516
513.718449	37507.679318
514.082655	38413.496526
514.446803	38091.379398
514.810894	38748.100592
515.174927	38728.969413
515.538904	38744.788554
515.902822	39371.981189
516.266684	39068.856608
516.630488	39425.510681
516.994235	39433.367319
517.357925	40020.722236
517.721558	40263.050502
518.085133	40671.361278
518.448651	40853.732580
518.812112	40744.745354
519.175516	40899.591957
519.538863	41359.587163
519.902152	41407.042064
520.265385	41954.067751
520.628560	41993.028308
520.991678	41937.343723
521.354739	42156.913699
521.717743	42533.374465
522.080690	42444.380456
522.443580	43138.433915
522.806413	43138.131445
523.169189	43275.540696
523.531908	43490.997091
523.894569	43358.376936
524.257174	43541.668249
524.619722	43902.516562
524.982213	44056.291919
525.344647	44100.754896
525.707025	44221.664450
526.069345	44680.696796
526.431608	44601.170073
526.793815	44970.603471
527.155964	44495.131923
527.518057	44760.621770
527.880093	44620.880985
528.242072	45248.728970
528.603995	44964.445702
528.965860	44884.535852
529.327669	45108.017763
529.689421	45170.548236
530.051117	45151.031409
530.412755	45410.408856
530.774337	45453.830835
531.135862	45409.035142
531.497331	45562.946610
531.858743	45557.489561
532.220098	45971.219578
532.581396	45687.261464
532.942638	45441.734586
533.303824	45711.648046
533.664953	45771.093332
534.026025	45419.069559
534.387040	46011.125352
534.747999	46060.992445
535.108902	46420.093998
535.469748	45726.259830
535.830537	45995.379308
536.191270	46248.840961
536.551947	45996.183372
536.912567	46253.909841
537.273131	46404.650424
537.633638	46020.653132
537.994089	46197.542180
538.354483	45946.076823
538.714821	46607.977802
539.075103	46912.208916
539.435328	46762.486647
539.795497	46511.417021
540.155609	46636.641803
540.515665	47245.129237
540.875665	46526.361522
541.235609	46801.369067
541.595496	46929.318592
541.955328	47532.550623
542.315102	46946.448433
542.674821	46854.281017
543.034483	46741.747340
543.394090	46772.263965
543.753640	46754.123373
544.113134	47818.545363
544.472571	46896.714930
544.831953	48057.420438
545.191278	47304.899678
545.550548	46993.958788
545.909761	47637.822519
546.268918	47772.217160
546.628019	48178.342596
546.987064	47623.273749
547.346053	46934.669777
547.704986	47851.002833
548.063863	47487.581011
548.422684	47699.143114
548.781449	47261.142462
549.140158	47808.258889
549.498811	47533.021971
549.857408	46935.209181
550.215949	47782.470867
550.574434	47613.093138
550.932864	47588.867874
551.291237	48286.155233
551.649555	48031.750883
552.007817	48211.737719
552.366022	47913.848377
552.724173	47999.424484
553.082267	48363.138693
553.440305	48742.689687
553.798288	47973.739805
554.156215	48378.302484
554.514086	48575.807330
554.871902	48168.073765
555.229661	48343.389973
555.587365	48037.631389
555.945014	48138.522522
556.302606	48180.643882
556.660143	48278.696845
557.017625	48489.527982
557.375050	48185.158236
557.732421	48589.098332
558.089735	48671.677473
558.446994	48502.990383
558.804197	48980.170882
559.161345	48853.809320
559.518437	48188.808031
559.875474	48441.495868
560.232455	48672.398358
560.589381	48706.511846
560.946251	48538.412050
561.303065	49181.007931
561.659825	48875.488802
562.016528	48661.748920
562.373177	48236.018437
562.729770	48897.032173
563.086307	48388.460409
563.442789	48943.441036
563.799216	48803.359973
564.155587	48702.110919
564.511904	48675.458338
564.868164	48700.737204
565.224370	49035.663904
565.580520	48748.106406
565.936615	48949.505544
566.292654	48590.787118
566.648638	48964.591197
567.004567	48898.622657
567.360441	48977.226849
567.716260	48680.645686
568.072023	49070.344522
568.427732	48997.502369
568.783385	48514.088483
569.138982	48947.100913
569.494525	49098.925344
569.850013	48686.253969
570.205445	48809.898350
570.560823	48588.473229
570.916145	48454.227302
571.271412	48699.454231
571.626625	48329.695678
571.981782	48407.876413
572.336884	48014.273203
572.691931	48336.624744
573.046923	47983.759098
573.401860	47807.500195
573.756743	47831.740584
574.111570	47972.799630
574.466342	47881.491731
574.821059	48041.019044
575.175722	47518.057306
575.530330	47623.697206
575.884882	47271.912887
576.239380	47160.669745
576.593823	47254.331863
576.948211	47200.174748
577.302544	46726.621358
577.656823	46720.602220
578.011047	47000.590426
578.365216	46824.455031
578.719330	46511.734614
579.073389	46508.856115
579.427394	46560.096923
579.781344	46453.181612
580.135239	46210.555918
580.489080	46286.989893
580.842866	45788.760055
581.196597	46263.893847
581.550273	46241.221257
581.903895	46178.204313
582.257463	46601.981350
582.610975	46042.380505
582.964434	46363.043260
583.317837	45857.914604
583.671186	45839.647983
584.024481	46111.247708
584.377721	45639.975441
584.730906	45849.957142
585.084037	45995.422157
585.437113	45720.560806
585.790135	45849.647112
586.143103	45397.027113
586.496016	45541.806531
586.848874	45665.564338
587.201679	45703.347786
587.554428	45175.881777
587.907124	45446.500997
588.259765	45239.271766
588.612352	45379.602365
588.964884	44846.308782
589.317362	45116.355832
589.669786	45134.191434
590.022155	45009.228792
590.374470	45484.468447
590.726731	45073.763123
591.078937	44401.679013
591.431090	44760.684784
591.783188	44252.544038
592.135232	44060.637393
592.487222	44329.325852
592.839157	44488.656561
593.191038	44127.954441
593.542866	43942.419815
593.894639	43305.447342
594.246358	43629.124707
594.598022	43622.470383
594.949633	43168.186805
595.301190	43158.706915
595.652692	43109.764873
596.004141	43624.595230
596.355535	42490.532219
596.706876	42484.109789
597.058162	42204.683673
597.409395	42722.717683
597.760573	42946.779328
598.111698	42543.277812
598.462768	42442.321145
598.813785	42460.126500
599.164748	42071.705596
599.515657	42346.352699
599.866511	41848.279137
600.217312	42531.007644
600.568060	41482.908909
600.918753	42306.373828
601.269392	42222.489028
601.619978	41923.097422
601.970510	42141.931390
602.320988	42278.496247
602.671412	42546.940210
603.021783	42402.221286
603.372100	41961.677372
603.722363	42066.056983
604.072572	42113.612708
604.422728	42112.238994
604.772830	41878.301729
605.122878	42053.441496
605.472872	41917.907554
605.822813	42176.591843
606.172701	41917.131216
606.522534	42233.239289
606.872314	42438.885598
607.222041	42280.570682
607.571714	42615.245324
607.921333	42079.078284
608.270899	42282.153605
608.620411	42676.971733
608.969870	42431.235647
609.319276	42443.581433
609.668627	42469.442552
610.017926	42873.556568
610.367171	43008.649409
610.716362	43049.245821
611.065500	42953.405924
611.414585	43175.987990
611.763616	43330.317874
612.112594	43232.373296
612.461518	43358.780229
612.810389	43736.768465
613.159207	43517.064898
613.507971	43484.559538
613.856682	44006.155123
614.205340	43828.933360
614.553945	44527.475966
614.902496	43851.306001
615.250994	44276.734015
615.599439	44363.867838
615.947830	44458.838136
616.296169	44457.534997
616.644454	44495.187376
616.992686	44634.119055
617.340864	45081.103043
617.688990	44562.000308
618.037063	45267.106497
618.385082	45060.131843
618.733048	45402.065747
619.080961	45285.892356
619.428821	45322.748232
619.776628	45354.394075
620.124382	45180.247416
620.472083	45319.048025
620.819731	45425.970898
621.167326	45016.175502
621.514868	45020.828487
621.862357	44449.196929
622.209793	44570.451803
622.557176	44129.136592
622.904506	43895.665634
623.251783	43557.406731
623.599007	43216.251686
623.946179	43137.597083
624.293297	42864.923592
624.640363	42307.656802
624.987376	42161.107939
625.334336	41971.671460
625.681243	41553.495145
626.028097	41457.637605
626.374899	41290.420011
626.721647	41242.811354
627.068343	41002.313028
627.414987	40700.070649
627.761577	40435.788159
628.108115	40772.559921
628.454600	39994.576292
628.801032	40240.272048
629.147412	40100.054874
629.493739	39994.977063
629.840014	39553.014065
630.186236	39951.842431
630.532405	39389.652954
630.878521	39629.906784
631.224585	39405.683823
631.570597	39058.033251
631.916556	39245.982590
632.262462	39132.019745
632.608316	39067.326618
632.954117	38944.461096
633.299866	38886.639061
633.645562	38811.931682
633.991206	38288.964902
634.336797	37874.503918
634.682336	37755.956144
635.027823	37526.424848
635.373257	37410.019565
635.718639	37065.655825
636.063968	36988.453074
636.409245	36298.767775
636.754470	36256.170025
637.099642	36046.218571
637.444762	35463.007482
637.789829	35598.377586
638.134845	35202.410075
638.479808	35109.504130
638.824719	35064.627779
639.169577	34534.603384
639.514383	34646.171680
639.859137	34225.447063
640.203839	34413.388840
640.548489	34118.377996
640.893086	34104.940801
641.237632	33806.108762
641.582125	33903.055192
641.926566	33688.314641
642.270955	33719.985690
642.615292	33643.304699
642.959576	33507.075078
643.303809	33521.984290
643.647990	33616.158085
643.992118	33583.778754
644.336195	33392.262799
644.680219	33468.711897
645.024192	33648.282838
645.368112	34173.747509
645.711981	34184.351577
646.055797	34879.584665
646.399562	34643.366278
646.743274	35526.362183
647.086935	35924.431855
647.430544	35893.726187
647.774101	35953.715918
648.117606	36273.919928
648.461059	36436.071162
648.804460	36052.061268
649.147810	35558.045835
649.491108	35271.400786
649.834354	35170.078635
650.177548	34331.875903
650.520690	33825.688604
650.863781	33786.780978
651.206820	33618.633292
651.549807	33190.041954
651.892742	32584.927052
652.235626	32494.846674
652.578458	32348.754035
652.921238	31612.319596
653.263967	31932.591662
653.606644	31591.484507
653.949269	31501.726763
654.291843	31099.271287
654.634365	31446.241303
654.976836	30965.542078
655.319255	31063.716029
655.661622	30925.689237
656.003938	30791.133279
656.346203	30600.905338
656.688416	30855.097959
657.030577	30631.222838
657.372687	30429.536354
657.714746	30580.919684
658.056753	30779.732709
658.398708	30127.830858
658.740612	30199.551354
659.082465	30415.385836
659.424266	30316.029734
659.766016	30302.756376
660.107715	30126.011002
660.449362	30225.208307
660.790958	30186.913182
661.132503	30124.768358
661.473996	30195.422649
661.815438	30287.451433
662.156829	30399.990152
662.498168	30183.361689
662.839456	30159.343111
663.180693	30295.451744
663.521879	30353.059530
663.863013	30312.909260
664.204097	30298.000048
664.545129	30697.450996
664.886110	30632.798198
665.227040	30749.304305
665.567918	30715.964634
665.908746	30777.990991
666.249522	30851.135612
666.590248	30902.683931
666.930922	30987.531591
667.271545	31007.948264
667.612118	31068.003530
667.952639	30863.138600
668.293109	30903.414898
668.633528	30762.025656
668.973896	30716.735930
669.314213	30696.707426
669.654480	30515.057009
669.994695	30493.241416
670.334859	30403.962581
670.674973	30213.419568
671.015035	30396.542003
671.355047	30323.808235
671.695008	30243.366543
672.034918	30145.429527
672.374777	30229.357176
672.714585	30095.315416
673.054342	30224.119417
673.394049	30080.048282
673.733705	30305.884412
674.073310	30015.045123
674.412864	30070.044112
674.752368	29789.506421
675.091820	30044.929083
675.431223	29662.302986
675.770574	29447.426324
676.109875	29276.385015
676.449125	29048.260201
676.788324	28950.827300
677.127473	28445.922974
677.466571	28360.966929
677.805619	28070.631756
678.144616	28006.231015
678.483562	27957.709910
678.822458	27617.815153
679.161303	27545.169605
679.500098	27466.961144
679.838842	27369.926495
680.177535	27420.764011
680.516179	27634.917267
680.854771	27686.702520
681.193314	28352.013840
681.531805	29264.903787
681.870247	30010.208136
682.208638	30839.251092
682.546978	31207.308255
682.885268	31414.411458
683.223508	31020.122651
683.561697	30753.780849
683.899836	30609.966812
684.237925	30189.746310
684.575963	30001.058442
684.913951	29601.652864
685.251889	29740.463556
685.589776	29698.901763
685.927614	29670.663740
686.265401	29845.112868
686.603137	29918.106256
686.940824	30378.363602
687.278460	30695.706757
687.616046	30874.410620
687.953582	31531.333460
688.291068	31448.870265
688.628504	31810.741932
688.965889	31853.755577
689.303224	31630.223254
689.640510	31370.109798
689.977745	30791.108073
690.314930	30067.952033
690.652065	29683.125472
690.989150	29022.341108
691.326185	28183.399847
691.663170	27558.155617
692.000105	26830.999422
692.336990	26216.674332
692.673825	25796.224457
693.010610	25282.641786
693.347345	24772.655977
693.684030	24130.249140
694.020665	23918.979423
694.357251	23233.521132
694.693786	23230.246903
695.030272	22992.438032
695.366707	22481.360814
695.703093	22181.853261
696.039429	22234.339234
696.375716	21979.425728
696.711952	21961.416206
697.048139	21814.080923
697.384276	21637.083491
697.720363	21759.517994
698.056400	21644.776292
698.392388	21472.872946
698.728326	21483.474492
699.064214	21327.284423
699.400053	21348.643791
699.735842	20949.437339
700.071581	20765.886407
700.407270	20533.781601
700.742910	20360.171825
701.078501	20090.051678
701.414042	19894.747296
701.749533	19584.882692
702.084974	19280.034037
702.420366	19499.750207
702.755709	19087.275437
703.091002	18787.215878
703.426246	18848.264251
703.761440	18761.861395
704.096584	18523.581176
704.431679	18454.119117
704.766725	18401.227331
705.101721	18307.343402
705.436668	18425.596269
705.771565	18128.342112
706.106413	18413.253003
706.441212	18487.105907
706.775961	18578.562520
707.110661	18644.563827
707.445311	18994.271190
707.779913	18866.946767
708.114465	19140.872985
708.448967	19428.226316
708.783421	20026.676812
709.117825	20350.714620
709.452180	20558.410158
709.786485	20985.257258
710.120742	21708.226775
710.454949	21783.163527
710.789107	22292.942647
711.123216	22976.407162
711.457275	23201.650957
711.791286	23763.472430
712.125247	23940.122023
712.459159	23715.334452
712.793023	24500.441232
713.126837	23520.019987
713.460602	23819.794722
713.794318	23518.996633
714.127985	23270.147635
714.461602	22403.994226
714.795171	22412.964959
715.128691	21445.295313
715.462162	20929.154256
715.795584	20496.260293
716.128957	20230.475539
716.462281	19858.435865
716.795556	19570.260826
717.128782	19080.595908
717.461960	18482.760433
717.795088	18453.874621
718.128167	18107.325541
718.461198	17659.925658
718.794180	17521.949277
719.127113	17185.202721
719.459997	16997.795306
719.792833	16602.127743
720.125619	16639.732231
720.458357	16296.848069
720.791046	16158.080227
721.123686	15986.585215
721.456278	15762.566420
721.788821	15760.489465
722.121315	15492.456356
722.453761	15588.533187
722.786158	15465.740761
723.118506	15536.168201
723.450805	15414.560447
723.783056	15579.567494
724.115259	15463.084073
724.447412	15436.857470
724.779518	15638.077647
725.111574	15683.470716
725.443582	15925.267140
725.775542	15874.117072
726.107453	16364.510436
726.439315	16257.297697
726.771129	16637.214174
727.102895	17032.276798
727.434612	17305.865259
727.766281	17481.224316
728.097901	17817.708732
728.429473	17908.618380
728.760996	17943.578782
729.092471	18066.451866
729.423897	17954.084547
729.755276	17807.923853
730.086606	17884.962766
730.417887	18406.356705
730.749120	18942.259085
731.080305	19165.163785
731.411442	19563.152799
731.742530	19689.234577
732.073570	19841.419450
732.404562	20156.350413
732.735506	20075.258412
733.066401	19956.569486
733.397249	19547.215191
733.728048	18968.309248
734.058798	18141.134039
734.389501	17381.691774
734.720156	16859.813884
735.050762	16272.895027
735.381320	15852.482961
735.711831	15555.717796
736.042293	15187.101065
736.372707	15194.398135
736.703073	14965.406242
737.033391	15134.897396
737.363661	15106.470329
737.693883	15200.112283
738.024056	15367.382808
738.354182	15556.693259
738.684260	15876.385592
739.014290	16140.547094
739.344272	16348.950915
739.674207	16697.728185
740.004093	16874.075308
740.333931	16948.676823
740.663722	17038.240483
740.993464	17109.986185
741.323159	16994.208525
741.652806	16721.552678
741.982405	16567.956282
742.311956	16228.505147
742.641460	16132.055271
742.970915	15819.670090
743.300323	15492.040461
743.629683	15273.776143
743.958996	14973.484691
744.288260	14667.073278
744.617477	14350.461090
744.946647	14317.829701
745.275768	14003.501156
745.604842	13806.099654
745.933869	13616.799286
746.262847	13580.981888
746.591778	13482.636538
746.920662	13348.680477
747.249498	13338.232686
747.578286	13471.631699
747.907027	13612.473976
748.235720	13864.181308
748.564365	13949.321355
748.892963	13877.926014
749.221514	13994.999250
749.550017	13873.893091
749.878473	13854.981202
750.206881	13640.548161
750.535242	13571.524683
750.863555	13490.800686
751.191821	13386.796641
751.520039	13387.386456
751.848210	13304.948467
752.176334	13341.421216
752.504411	13258.582455
752.832440	13088.153646
753.160421	13204.498436
753.488356	13104.061007
753.816243	13008.644568
754.144082	12837.661232
754.471875	12786.536371
754.799620	12744.808220
755.127318	12713.028786
755.454969	12697.562526
755.782572	12659.804283
756.110129	12677.191223
756.437638	12583.420720
756.765100	12577.676326
757.092515	12598.007299
757.419882	12618.731482
757.747203	12616.848612
758.074477	12689.549612
758.401703	12668.712002
758.728882	12853.656813
759.056014	12875.661450
759.383099	13033.479812
759.710138	13159.480932
760.037129	13287.513637
760.364073	13360.363351
760.690970	13380.946382
761.017820	13389.360068
761.344623	13571.660794
761.671379	13879.972722
761.998088	14391.130599
762.324751	15712.444748
762.651366	18483.226739
762.977935	22633.419658
763.304456	25872.875202
763.630931	27531.238377
763.957359	26863.146860
764.283740	24937.007675
764.610074	22875.332028
764.936362	20330.486990
765.262602	18482.720103
765.588796	16528.070673
765.914943	15218.361260
766.241044	14081.331530
766.567097	13270.156944
766.893104	12523.120959
767.219064	12050.732076
767.544978	11570.431102
767.870845	11171.270020
768.196665	10940.135637
768.522438	10709.575945
768.848165	10506.346869
769.173846	10309.716663
769.499479	10172.017546
769.825066	10013.551395
770.150607	9791.980081
770.476101	9702.179487
770.801548	9589.774359
771.126949	9430.932642
771.452303	9323.404831
771.777611	9134.926171
772.102872	9119.144838
772.428087	8982.305238
772.753256	8834.768309
773.078378	8755.977595
773.403453	8583.544927
773.728482	8467.099315
774.053465	8382.508753
774.378401	8290.053992
774.703291	8167.808532
775.028135	8044.280098
775.352932	8011.673915
775.677683	7910.505519
776.002388	7808.646485
776.327046	7809.208573
776.651658	7718.858493
776.976224	7617.957279
777.300743	7607.040660
777.625216	7527.377826
777.949643	7480.232956
778.274024	7497.309864
778.598359	7407.897439
778.922647	7419.938235
779.246889	7371.031481
779.571086	7374.507357
779.895236	7381.602781
780.219339	7379.833336
780.543397	7381.257462
780.867409	7452.713297
781.191374	7463.372817
781.515294	7431.416942
781.839167	7529.248094
782.162995	7503.044177
782.486776	7450.298584
782.810511	7404.645895
783.134201	7329.555388
783.457844	7321.113976
783.781441	7267.057683
784.104993	7206.589042
784.428498	7186.777308
784.751958	7167.555388
785.075372	7138.934237
785.398739	7083.920125
785.722061	7121.895137
786.045337	7114.814837
786.368568	7246.106647
786.691752	7239.270843
787.014891	7519.811054
787.337983	7803.655742
787.661030	8322.617325
787.984031	8915.341071
788.306987	9338.059465
788.629897	9595.917005
788.952760	9612.971228
789.275579	9453.401065
789.598351	9098.932332
789.921078	8785.450701
790.243759	8390.307418
790.566395	8103.180939
790.888984	7867.421297
791.211529	7659.934967
791.534027	7434.532375
791.856480	7236.253712
792.178888	7155.522154
792.501249	7058.994140
792.823566	6908.077118
793.145836	6898.604789
793.468062	6865.020623
793.790241	6806.744884
794.112375	6855.838161
794.434464	6987.823130
794.756507	7006.898856
795.078505	7129.671117
795.400457	7391.468319
795.722364	7706.346350
796.044226	7986.291705
796.366042	8272.054552
796.687812	8248.620748
797.009538	8345.589863
797.331218	8258.645083
797.652852	8190.924743
797.974442	8058.496152
798.295986	7982.697362
798.617484	7800.021070
798.938938	7669.566091
799.260346	7577.731392
799.581709	7384.239304
799.903026	7298.827034
800.224299	7208.532407
800.545526	7047.104579
800.866708	6949.028931
801.187845	6881.096862
801.508936	6787.177645
801.829983	6745.910760
802.150984	6600.102947
802.471940	6553.943622
802.792851	6541.106323
803.113717	6504.971332
803.434538	6472.148380
803.755314	6415.954638
804.076045	6416.874648
804.396731	6352.801583
804.717372	6378.612291
805.037967	6372.119285
805.358518	6405.244707
805.679024	6481.514844
805.999485	6484.587427
806.319901	6516.825606
806.640272	6532.198604
806.960598	6606.812722
807.280879	6615.198682
807.601115	6684.653179
807.921306	6635.935468
808.241453	6648.513147
808.561554	6677.154463
808.881611	6642.375542
809.201623	6658.063613
809.521590	6611.256500
809.841513	6592.611792
810.161390	6631.224510
810.481223	6506.382856
810.801011	6492.033211
811.120755	6470.731816
811.440453	6403.966774
811.760107	6370.634665
812.079716	6341.171641
812.399281	6276.367608
812.718801	6269.917452
813.038276	6233.457307
813.357707	6173.664181
813.677093	6206.275405
813.996434	6117.835923
814.315731	6154.079298
814.634983	6145.469008
814.954191	6146.089070
815.273354	6240.542649
815.592473	6292.627850
815.911547	6401.385703
816.230577	6470.535211
816.549562	6607.420182
816.868502	6700.724378
817.187399	6789.743593
817.506250	6924.652431
817.825058	6947.912315
818.143821	7175.918662
818.462539	7397.237919
818.781213	7695.490225
819.099843	8141.097978
819.418429	8994.131785
819.736970	9823.938475
820.055466	10867.532939
820.373919	12137.041671
820.692327	14042.529769
821.010691	17100.483610
821.329011	24029.980590
821.647286	34982.346066
821.965517	48350.097228
822.283704	56347.232455
822.601847	59899.567212
822.919945	57699.557262
823.237999	53668.290204
823.556010	47703.317189
823.873976	41347.498476
824.191897	35169.456052
824.509775	30541.424764
824.827609	26108.281963
825.145398	23379.336507
825.463144	21733.167883
825.780845	21571.021690
826.098502	22654.794150
826.416116	25686.168507
826.733685	29114.087588
827.051210	30834.330926
827.368692	30029.551044
827.686129	26757.191889
828.003522	23019.675386
828.320872	19528.426810
828.638177	16791.465920
828.955439	14737.989710
829.272656	12980.101555
829.589830	11568.860782
829.906960	10339.320839
830.224046	9408.958252
830.541088	8658.257348
830.858086	8179.476282
831.175041	7786.160418
831.491952	7623.918443
831.808819	7601.293745
832.125642	7875.260292
832.442421	8516.621090
832.759157	9869.893634
833.075849	12213.992364
833.392497	15120.154542
833.709101	17434.434846
834.025662	17849.462960
834.342179	16675.526943
834.658653	14779.307007
834.975083	12980.396462
835.291469	11433.626789
835.607811	10174.505355
835.924110	9308.054517
836.240366	8491.841298
836.556578	7723.143474
836.872746	7106.081038
837.188871	6618.692202
837.504952	6204.599222
837.820990	5896.418364
838.136984	5674.413510
838.452935	5559.268515
838.768842	5537.503333
839.084706	5786.062465
839.400526	6663.523183
839.716303	8044.461579
840.032037	9211.158499
840.347727	9457.199574
840.663373	8753.663705
840.978977	7789.233001
841.294537	7001.023392
841.610054	6421.303302
841.925527	6002.106154
842.240957	5662.060162
842.556344	5352.893759
842.871687	5087.666052
843.186987	4820.946164
843.502244	4600.541877
843.817458	4439.711425
844.132629	4305.873831
844.447756	4216.479050
844.762840	4137.222029
845.077881	4069.768870
845.392879	4010.749562
845.707833	3961.479845
846.022745	3919.590377
846.337613	3881.940519
846.652438	3846.644881
846.967221	3831.786080
847.281960	3803.031338
847.596656	3782.773461
847.911309	3765.109258
848.225919	3740.813417
848.540485	3723.365984
848.855009	3710.599262
849.169490	3693.545038
849.483928	3681.678162
849.798323	3673.766071
850.112675	3655.998524
850.426984	3658.143535
850.741251	3645.661638
851.055474	3640.169301
851.369654	3643.788850
851.683792	3638.125113
851.997887	3644.227430
852.311938	3643.635095
852.625947	3646.995024
852.939914	3641.540495
853.253837	3644.398829
853.567718	3648.300682
853.881555	3635.163436
854.195350	3649.387051
854.509103	3645.328922
854.822812	3645.754900
855.136479	3634.339207
855.450103	3641.732059
855.763685	3629.852580
856.077224	3632.274854
856.390720	3645.664159
856.704173	3661.110254
857.017584	3671.507634
857.330953	3681.098429
857.644278	3701.956203
857.957561	3704.012994
858.270802	3705.790001
858.584000	3714.861557
858.897155	3705.192624
859.210268	3693.449256
859.523339	3674.963345
859.836367	3672.006708
860.149352	3666.902540
860.462295	3659.766787
860.775195	3646.513593
861.088054	3638.384733
861.400869	3636.569917
861.713642	3635.367602
862.026373	3648.373779
862.339062	3647.715909
862.651708	3667.552849
862.964312	3692.153680
863.276873	3699.783466
863.589392	3751.074686
863.901869	3789.004328
864.214303	3824.854493
864.526696	3854.836756
864.839045	3898.490627
865.151353	3922.410902
865.463619	3929.786110
865.775842	3941.416052
866.088023	3962.331800
866.400162	3949.605407
866.712258	3958.137560
867.024313	3962.367088
867.336325	3954.928865
867.648296	3962.689722
867.960224	3965.054023
868.272110	3972.603151
868.583954	3974.047441
868.895755	3982.720746
869.207515	3979.708657
869.519233	4013.542361
869.830909	4025.721789
870.142542	4043.224675
870.454134	4056.757652
870.765684	4079.513421
871.077191	4113.843678
871.388657	4129.441008
871.700081	4161.167510
872.011463	4199.301318
872.322803	4226.178230
872.634101	4261.035288
872.945357	4294.316986
873.256571	4342.023946
873.567744	4368.351372
873.878874	4391.354157
874.189963	4424.540072
874.501010	4429.782872
874.812015	4431.743881
875.122979	4472.768791
875.433900	4468.403152
875.744780	4478.861026
876.055618	4501.868852
876.366415	4499.081094
876.677169	4519.923744
876.987882	4555.748704
877.298554	4597.318059
877.609183	4655.124970
877.919771	4744.061006
878.230317	4860.680538
878.540822	5025.231362
878.851285	5276.227891
879.161707	5634.091841
879.472087	6217.917950
879.782425	7139.604711
880.092722	8802.857805
880.402977	11417.154819
880.713191	14685.380228
881.023363	18150.409762
881.333494	20514.355515
881.643583	21919.783837
881.953631	22118.934620
882.263637	21520.670646
882.573602	20309.384720
882.883526	18983.601588
883.193408	17501.507398
883.503248	16042.093360
883.813048	14683.424260
884.122806	13410.311103
884.432522	12059.990155
884.742197	10932.755387
885.051831	9918.568495
885.361424	8982.368252
885.670975	8211.210346
885.980485	7555.104173
886.289954	7023.416197
886.599382	6583.177273
886.908768	6228.736266
887.218113	5885.826899
887.527417	5619.117093
887.836680	5374.815216
888.145901	5168.140512
888.455082	5015.751472
888.764221	4870.467939
889.073319	4749.381944
889.382376	4677.472405
889.691392	4615.385554
890.000366	4585.098302
890.309300	4565.914191
890.618193	4564.782452
890.927044	4554.251481
891.235855	4564.885795
891.544625	4583.664093
891.853353	4632.349037
892.162041	4712.987334
892.470687	4859.276577
892.779293	5049.607861
893.087858	5339.569989
893.396381	5788.683865
893.704864	6400.969808
894.013306	7326.976838
894.321707	8360.859518
894.630068	9175.877984
894.938387	9501.090380
895.246665	9397.350996
895.554903	8936.881921
895.863100	8347.011468
896.171256	7871.073613
896.479371	7414.009838
896.787446	6975.981460
897.095480	6595.923830
897.403473	6307.133770
897.711425	6022.636253
898.019336	5788.666221
898.327207	5548.548501
898.635038	5341.102500
898.942827	5118.648984
899.250576	4937.984112
899.558284	4764.815436
899.865952	4648.057272
900.173579	4514.680944
900.481165	4420.940688
900.788711	4333.670754
901.096216	4262.857666
901.403681	4205.723748
901.711105	4172.547915
902.018489	4154.535872
902.325832	4200.753171
902.633135	4275.425262
902.940397	4500.785004
903.247619	5050.600968
903.554800	6122.811542
903.861941	7724.802014
904.169041	9181.710599
904.476101	9990.016768
904.783121	9889.823836
905.090100	9325.466663
905.397039	8610.396633
905.703938	7940.525590
906.010796	7321.620612
906.317614	6840.818043
906.624391	6369.165168
906.931129	5986.075285
907.237826	5639.334641
907.544483	5305.154032
907.851099	4972.490810
908.157675	4652.344773
908.464211	4352.872509
908.770707	4125.042602
909.077163	3936.193417
909.383578	3794.035399
909.689954	3681.169006
909.996289	3614.537555
910.302584	3549.415929
910.608839	3517.331506
910.915054	3489.668174
911.221229	3472.261070
911.527363	3476.236019
911.833458	3485.778924
912.139513	3503.695184
912.445527	3524.381559
912.751502	3584.152000
913.057436	3665.299453
913.363331	3771.803911
913.669186	3925.780914
913.975000	4123.316007
914.280775	4444.724852
914.586510	4895.983739
914.892205	5521.351476
915.197859	6359.876842
915.503475	7385.260138
915.809050	8349.254782
916.114585	9003.677210
916.420081	9335.193569
916.725536	9397.658506
917.030952	9070.964011
917.336328	8740.801201
917.641665	8408.982373
917.946961	8003.713933
918.252218	7631.691902
918.557435	7195.004471
918.862612	6827.458985
919.167750	6500.267936
919.472848	6132.084744
919.777906	5804.525691
920.082925	5484.309078
920.387904	5153.032173
920.692843	4907.490173
920.997743	4680.446686
921.302603	4469.141681
921.607423	4321.536696
921.912204	4173.225950
922.216946	4066.900454
922.521647	3958.094710
922.826310	3862.741285
923.130932	3776.605610
923.435516	3690.497661
923.740059	3631.745533
924.044564	3563.848753
924.349028	3509.989065
924.653454	3455.284984
924.957840	3393.160325
925.262186	3350.560054
925.566493	3299.231026
925.870761	3247.322264
926.174989	3217.110629
926.479178	3183.723067
926.783328	3146.799136
927.087438	3123.564458
927.391509	3091.036413
927.695541	3063.337793
927.999533	3041.386089
928.303486	3020.538397
928.607400	3004.235305
928.911275	2995.834223
929.215110	2977.602890
929.518906	2968.664924
929.822663	2966.240129
930.126381	2966.222485
930.430060	2969.113587
930.733699	2972.859164
931.037299	2978.006182
931.340861	2977.164309
931.644383	2985.825012
931.947866	2983.538848
932.251309	2978.575832
932.554714	2982.359218
932.858080	2974.850420
933.161407	2967.989409
933.464694	2961.105714
933.767943	2955.661267
934.071153	2953.400310
934.374323	2943.756583
934.677455	2938.954884
934.980548	2930.919284
935.283602	2926.803182
935.586617	2921.323448
935.889593	2927.513985
936.192530	2930.614295
936.495428	2942.342539
936.798287	2957.183696
937.101108	2978.202787
937.403890	3015.477078
937.706632	3064.524985
938.009336	3126.856332
938.312002	3190.994932
938.614628	3247.478540
938.917216	3295.341775
939.219765	3324.159531
939.522275	3355.374356
939.824747	3361.103627
940.127179	3361.159080
940.429573	3359.629090
940.731929	3360.488607
941.034246	3348.765403
941.336524	3342.103518
941.638763	3328.535253
941.940964	3318.410095
942.243126	3283.215280
942.545250	3267.819596
942.847335	3235.926736
943.149381	3207.093857
943.451389	3179.473375
943.753359	3147.146976
944.055290	3130.372536
944.357182	3105.895214
944.659036	3091.054057
944.960851	3079.872778
945.262628	3068.197465
945.564367	3072.164853
945.866067	3061.858214
946.167729	3057.807647
946.469352	3056.577606
946.770937	3052.718602
947.072484	3042.064124
947.373992	3039.810728
947.675462	3036.607075
947.976893	3024.503264
948.278286	3013.755524
948.579641	3009.304186
948.880958	3002.463340
949.182236	3008.535410
949.483476	3000.041065
949.784678	2998.916888
950.085841	2996.280365
950.386967	3004.905779
950.688054	3016.641585
950.989103	3029.801517
951.290114	3046.802808
951.591087	3069.535892
951.892021	3091.255703
952.192917	3117.777213
952.493776	3140.964001
952.794596	3150.408602
953.095378	3156.810868
953.396122	3155.328768
953.696828	3153.398007
953.997496	3146.627737
954.298126	3127.108389
954.598718	3112.990638
954.899272	3091.737133
955.199788	3071.590162
955.500266	3047.937068
955.800706	3017.712830
956.101108	2984.340392
956.401472	2956.765280
956.701798	2929.686722
957.002087	2896.057185
957.302337	2872.162116
957.602550	2849.640761
957.902724	2821.816112
958.202861	2798.785601
958.502960	2778.494957
958.803022	2762.002822
959.103045	2744.862899
959.403031	2730.299005
959.702979	2717.620503
960.002889	2705.383102
960.302762	2696.200641
960.602596	2687.252593
960.902393	2672.834893
961.202153	2669.631239
961.501875	2663.344921
961.801559	2655.755463
962.101205	2653.338230
962.400814	2643.490336
962.700385	2643.266005
962.999918	2632.760240
963.299414	2628.944087
963.598873	2627.033489
963.898293	2619.688528
964.197677	2621.009311
964.497022	2620.487551
964.796331	2617.122581
965.095601	2615.743825
965.394835	2613.540841
965.694030	2610.574122
965.993189	2609.838114
966.292309	2611.327775
966.591393	2609.248299
966.890439	2606.689913
967.189447	2608.045983
967.488419	2607.115891
967.787353	2609.192846
968.086249	2609.424739
968.385108	2611.670573
968.683930	2612.053701
968.982714	2617.157869
969.281462	2619.028137
969.580172	2622.645165
969.878844	2628.989457
970.177480	2632.455250
970.476078	2637.456075
970.774639	2645.794143
971.073162	2652.148518
971.371649	2657.902995
971.670098	2662.145126
971.968510	2665.505055
972.266885	2669.356497
972.565223	2672.892866
972.863524	2677.563495
973.161788	2681.515760
973.460014	2681.205729
973.758204	2682.236645
974.056356	2687.469362
974.354471	2688.182686
974.652550	2690.335258
974.950591	2688.167562
975.248595	2688.086904
975.546563	2686.995494
975.844493	2683.091120
976.142386	2678.178516
976.440243	2676.162054
976.738062	2671.083092
977.035845	2665.923471
977.333590	2660.955414
977.631299	2653.847387
977.928971	2649.020482
978.226606	2640.367341
978.524204	2643.825573
978.821765	2636.659573
979.119290	2639.669142
979.416777	2638.797022
979.714228	2641.705768
980.011642	2643.092085
980.309020	2647.427477
980.606360	2659.072543
980.903664	2676.136848
981.200931	2699.505117
981.498162	2737.898545
981.795356	2794.553552
982.092513	2866.987371
982.389633	2949.311934
982.686717	3038.779812
982.983764	3109.514762
983.280775	3162.376302
983.577749	3175.407684
983.874686	3175.102694
984.171587	3145.916934
984.468451	3118.321658
984.765279	3083.643561
985.062070	3046.092006
985.358824	3004.905779
985.655543	2962.597895
985.952224	2913.214752
986.248869	2862.891434
986.545478	2812.540389
986.842050	2761.110538
987.138586	2721.930690
987.435086	2686.526667
987.731549	2655.319404
988.027975	2632.689664
988.324366	2616.585698
988.620719	2602.601537
988.917037	2592.612491
989.213318	2583.735019
989.509563	2580.569174
989.805772	2573.892166
990.101944	2568.989644
990.398080	2566.655590
990.694180	2564.540826
990.990244	2564.137533
991.286271	2564.195507
991.582262	2568.195662
991.878217	2565.811197
992.174136	2572.261353
992.470019	2572.074830
992.765865	2574.779409
993.061676	2576.410222
993.357450	2584.380287
993.653188	2589.202150
993.948890	2603.589603
994.244556	2617.898919
994.540186	2635.497587
994.835780	2662.026659
995.131337	2690.859538
995.426859	2722.651575
995.722345	2763.870569
996.017795	2808.479740
996.313208	2844.186232
996.608586	2868.557691
996.903928	2883.958416
997.199234	2888.308932
997.494504	2884.344064
997.789738	2876.981459
998.084936	2855.349868
998.380099	2833.183914
998.675225	2811.113743
998.970316	2784.655247
999.265371	2753.306832
999.560390	2723.876575
999.855373	2695.182328
1000.150320	2671.463699
1000.445232	2646.603249
1000.740108	2627.247738
1001.034948	2612.832559
1001.329752	2597.535178
1001.624521	2586.459763
1001.919254	2576.062383
1002.213951	2571.011147
1002.508613	2564.510579
1002.803239	2557.188303
1003.097829	2551.491799
1003.392384	2549.989535
1003.686903	2543.118442
1003.981386	2541.167516
1004.275834	2537.792463
1004.570246	2534.601413
1004.864623	2531.952287
1005.158964	2529.111597
1005.453270	2533.141999
1005.747540	2528.017666
1006.041775	2524.554393
1006.335974	2524.597243
1006.630138	2524.115813
1006.924266	2523.795700
1007.218359	2520.904598
1007.512416	2520.145904
1007.806438	2517.413599
1008.100425	2516.423012
1008.394376	2517.254803
1008.688292	2523.578930
1008.982172	2520.506347
1009.276017	2522.931142
1009.569827	2517.411078
1009.863602	2517.252282
1010.157341	2519.185565
1010.451045	2515.616428
1010.744714	2515.689524
1011.038347	2517.000224
1011.331945	2512.163237
1011.625508	2513.685666
1011.919036	2513.279853
1012.212528	2513.829339
1012.505986	2508.513442
1012.799408	2510.666015
1013.092795	2510.711385
1013.386147	2509.756086
1013.679464	2509.685510
1013.972745	2509.635099
1014.265992	2510.207270
1014.559204	2508.140397
1014.852380	2511.036539
1015.145521	2507.842968
1015.438628	2511.996879
1015.731699	2508.720129
1016.024736	2511.762466
1016.317737	2511.167609
1016.610703	2509.930006
1016.903635	2512.652229
1017.196531	2511.724657
1017.489393	2513.471417
1017.782219	2515.944103
1018.075011	2516.112981
1018.367768	2515.853362
1018.660490	2518.613394
1018.953177	2518.613394
1019.245829	2518.613394
