Dividing Wavelength (nm)	Counts (n)	Blue Motor Position (mm): 0.000000	Red Motor Position (mm): 38.000000	
326.493990	2053.695501
326.888308	2053.695501
327.282561	2053.695501
327.676750	2025.946469
328.070874	2031.153981
328.464933	2033.213293
328.858929	2045.725437
329.252859	2053.977805
329.646726	2066.003478
330.040528	2083.415623
330.434265	2098.544126
330.827938	2122.368619
331.221547	2141.714047
331.615091	2162.407983
332.008571	2182.126457
332.401986	2203.543799
332.795338	2222.654813
333.188625	2243.351270
333.581847	2261.479259
333.975006	2280.892743
334.368100	2297.440330
334.761129	2315.351550
335.154095	2329.265135
335.546996	2355.637931
335.939833	2397.101421
336.332606	2409.921076
336.725315	2420.099165
337.117960	2436.067020
337.510540	2443.626230
337.903056	2451.636624
338.295508	2462.560804
338.687896	2464.809159
339.080220	2471.584469
339.472480	2477.162506
339.864676	2481.263485
340.256807	2484.872951
340.648875	2485.858497
341.040879	2489.956955
341.432818	2488.137098
341.824694	2491.217243
342.216506	2487.569968
342.608253	2490.327479
342.999937	2489.646924
343.391557	2489.959475
343.783113	2484.610811
344.174605	2483.733650
344.566033	2484.646099
344.957397	2483.884885
345.348697	2481.109730
345.739934	2479.675521
346.131106	2476.139152
346.522215	2474.838534
346.913260	2475.834162
347.304241	2475.201497
347.695159	2469.772175
348.086012	2470.051959
348.476802	2466.787812
348.867528	2466.117338
349.258191	2461.983592
349.648789	2465.817389
350.039324	2459.475618
350.429796	2462.437296
350.820203	2461.749178
351.210548	2462.681792
351.600828	2462.621298
351.991045	2460.249435
352.381198	2459.543673
352.771288	2460.809003
353.161314	2459.377315
353.551276	2462.971658
353.941175	2457.494444
354.331010	2460.244394
354.720782	2460.897223
355.110490	2462.543160
355.500135	2459.997377
355.889717	2462.996864
356.279235	2459.684826
356.668689	2461.303036
357.058080	2461.615588
357.447408	2464.831844
357.836672	2464.572224
358.225873	2462.520475
358.615010	2463.785804
359.004084	2461.308077
359.393095	2466.399643
359.782043	2467.241515
360.170927	2467.869139
360.559748	2467.465847
360.948505	2470.208234
361.337199	2470.248564
361.725830	2468.108594
362.114398	2469.842751
362.502903	2469.794860
362.891344	2470.533389
363.279722	2471.357618
363.668037	2474.639409
364.056289	2469.883080
364.444478	2474.825931
364.832603	2472.338122
365.220665	2475.519090
365.608665	2475.125880
365.996601	2477.021354
366.384474	2473.686631
366.772284	2477.321303
367.160031	2474.326857
367.547715	2476.292907
367.935336	2478.672332
368.322893	2475.037660
368.710388	2471.397947
369.097820	2475.985397
369.485189	2473.772330
369.872495	2480.756849
370.259738	2478.309369
370.646918	2482.201139
371.034035	2481.881026
371.421090	2483.665595
371.808081	2484.187354
372.195010	2485.707262
372.581875	2485.455204
372.968678	2488.192551
373.355418	2489.193220
373.742096	2490.536687
374.128710	2492.530464
374.515262	2496.868377
374.901751	2499.411639
375.288177	2506.348266
375.674540	2504.407422
376.060841	2509.037722
376.447079	2514.502333
376.833254	2520.849145
377.219367	2523.415093
377.605417	2530.054292
377.991404	2534.566125
378.377329	2542.674821
378.763191	2550.037426
379.148991	2557.110165
379.534727	2567.263049
379.920402	2574.459296
380.306013	2585.118816
380.691563	2599.470981
381.077049	2607.057917
381.462474	2614.919597
381.847835	2631.550363
382.233134	2643.717188
382.618371	2656.690597
383.003545	2673.749862
383.388657	2687.325689
383.773706	2708.748073
384.158693	2719.730226
384.543618	2738.785788
384.928480	2754.035278
385.313280	2772.712753
385.698017	2793.106741
386.082692	2819.537511
386.467305	2833.874552
386.851856	2856.668129
387.236344	2885.284239
387.620770	2901.909965
388.005133	2925.142122
388.389435	2953.846452
388.773674	2970.817497
389.157851	3003.882425
389.541965	3027.235570
389.926018	3040.776109
390.310008	3076.064186
390.693936	3103.369596
391.077802	3129.482773
391.461606	3157.919922
391.845348	3178.772654
392.229027	3206.993034
392.612645	3247.193715
392.996200	3279.638581
393.379694	3316.436484
393.763125	3358.149511
394.146494	3385.142369
394.529801	3422.194850
394.913047	3468.749906
395.296230	3472.450113
395.679351	3498.076818
396.062410	3546.678583
396.445408	3526.619832
396.828343	3566.961665
397.211217	3602.388374
397.594028	3574.765371
397.976778	3624.952578
398.359466	3659.371056
398.742092	3670.078467
399.124656	3678.482071
399.507158	3743.134869
399.889598	3749.365735
400.271977	3812.793533
400.654294	3800.014208
401.036549	3859.845142
401.418742	3858.123588
401.800874	3928.500616
402.182944	3957.542703
402.564952	4043.270045
402.946898	4037.833161
403.328783	4031.478786
403.710606	4081.660952
404.092367	4154.256088
404.474067	4217.381417
404.855705	4201.688305
405.237282	4172.878111
405.618797	4271.747740
406.000250	4350.029298
406.381642	4435.633131
406.762972	4433.974592
407.144240	4402.585847
407.525447	4466.953820
407.906593	4483.335050
408.287677	4563.590219
408.668700	4595.566258
409.049661	4632.170076
409.430560	4669.860262
409.811399	4654.583046
410.192176	4703.394018
410.572891	4786.384013
410.953545	4894.345364
411.334138	4791.828459
411.714669	4897.659923
412.095139	4810.841171
412.475547	4928.441208
412.855894	4929.704017
413.236180	5029.838976
413.616405	4954.077996
413.996568	5066.483124
414.376670	5067.629986
414.756711	5062.871137
415.136691	5130.883864
415.516609	5216.099529
415.896466	5256.340539
416.276262	5329.833001
416.655997	5443.639569
417.035670	5543.507347
417.415283	5683.674110
417.794834	5755.069451
418.174324	5713.613522
418.553753	5717.588472
418.933121	5881.814141
419.312428	5898.205453
419.691674	5820.019677
420.070859	6049.583741
420.449983	5921.432569
420.829045	6122.952694
421.208047	6047.723555
421.586988	6206.169541
421.965867	6277.327948
422.344686	6367.317586
422.723444	6533.363111
423.102141	6143.805427
423.480777	6541.587753
423.859352	6351.901737
424.237866	6722.545012
424.616319	6713.067643
424.994712	6879.836574
425.373044	6796.879346
425.751314	7118.888089
426.129524	6832.313616
426.507673	7097.503514
426.885762	7142.082438
427.263789	7184.465939
427.641756	7273.800226
428.019662	7351.181938
428.397508	7397.832775
428.775292	7372.160699
429.153016	7552.858338
429.530679	7481.475600
429.908282	7529.626181
430.285824	7469.996893
430.663305	7759.344000
431.040726	7641.968294
431.418086	7646.006259
431.795385	7777.706403
432.172624	7971.087585
432.549802	7855.761108
432.926920	7988.650965
433.303977	7932.880680
433.680974	7973.872822
434.057910	8174.848503
434.434786	8226.472439
434.811601	8183.194133
435.188355	8525.770784
435.565050	8416.652488
435.941683	8423.402593
436.318257	8761.215354
436.694770	8713.856234
437.071222	8948.035474
437.447614	8719.724137
437.823946	8687.843880
438.200218	8839.844751
438.576429	8716.835556
438.952580	8884.509374
439.328670	8887.801247
439.704700	8966.783525
440.080670	8853.261782
440.456580	9131.614133
440.832429	9113.002193
441.208218	8845.120318
441.583947	8963.978123
441.959616	9079.609589
442.335224	9116.248696
442.710773	9196.808855
443.086261	9377.859374
443.461689	9091.068132
443.837057	9261.867466
444.212365	9485.518256
444.587612	9462.752405
444.962800	9356.958751
445.337927	9494.599895
445.712995	9025.442391
446.088002	9706.373727
446.462949	9763.169886
446.837837	9746.571887
447.212664	9773.582390
447.587431	10605.191293
447.962139	11620.376334
448.336786	12572.776324
448.711374	12355.608458
449.085901	11136.619649
449.460369	11054.766434
449.834776	10818.192646
450.209124	11750.465829
450.583412	11572.876062
450.957640	11892.233158
451.331808	11473.378808
451.705917	10894.906404
452.079965	10775.680595
452.453954	10981.140382
452.827883	10925.183574
453.201752	10892.385827
453.575562	10902.551314
453.949311	11247.041083
454.323001	11308.817902
454.696632	11230.488454
455.070202	11824.406953
455.443713	11878.163297
455.817164	12052.383054
456.190556	12380.300029
456.563888	12244.980336
456.937160	12507.831139
457.310373	11985.497024
457.683526	11997.555464
458.056619	12013.830830
458.429653	12079.975809
458.802628	12218.773898
459.175542	12276.270778
459.548398	12838.225842
459.921194	13409.252461
460.293930	13688.303012
460.666607	14556.311566
461.039224	15363.712848
461.411782	15727.283384
461.784280	15394.542025
462.156719	15341.501525
462.529099	15253.304017
462.901419	14604.263022
463.273680	14195.720352
463.645882	14418.035237
464.018024	14305.534327
464.390106	14672.384133
464.762130	15743.389871
465.134094	17286.716436
465.505999	19585.109544
465.877845	21875.966128
466.249631	23153.492815
466.621358	22701.250903
466.993026	21896.632338
467.364634	21129.635904
467.736184	20329.813996
468.107674	19706.092195
468.479105	19573.771989
468.850477	19293.992992
469.221790	18861.794708
469.593043	18191.250670
469.964238	17798.557389
470.335373	17845.714862
470.706449	18572.447601
471.077467	19423.220450
471.448425	21914.684710
471.819324	23838.860365
472.190164	23754.511779
472.560945	21980.018064
472.931667	20387.757018
473.302330	20054.214115
473.672934	19485.597167
474.043479	19923.554969
474.413965	19706.820642
474.784393	19517.999184
475.154761	20199.220385
475.525070	20319.454425
475.895321	20149.731378
476.265513	20692.572906
476.635645	21288.396962
477.005719	21349.629337
477.375734	21709.300540
477.745691	22361.378832
478.115588	23002.505216
478.485427	24213.221491
478.855207	26039.747476
479.224928	27866.480148
479.594591	29322.751028
479.964194	28963.208373
480.333739	29449.989751
480.703226	29654.083385
481.072653	30100.432187
481.442022	30628.800563
481.811333	31053.943752
482.180584	30620.575921
482.549777	30375.520391
482.918912	30139.896860
483.287988	30091.111094
483.657005	29935.563771
484.025964	29564.169365
484.394864	29762.770662
484.763706	29682.795276
485.132489	29144.153029
485.501213	29223.767972
485.869879	29394.859692
486.238487	29340.213584
486.607036	29601.584808
486.975527	29283.004050
487.343959	29639.390942
487.712333	30000.498874
488.080648	29956.381216
488.448905	30389.282741
488.817104	30269.303279
489.185244	31108.723450
489.553326	32071.752714
489.921350	33978.513703
490.289315	36515.882710
490.657222	37453.461708
491.025070	38042.749907
491.392861	37781.660988
491.760593	36998.363983
492.128267	35993.563719
492.495883	35008.575189
492.863440	34092.930252
493.230939	33111.707464
493.598380	32523.757691
493.965763	32361.586292
494.333088	31848.195185
494.700354	31654.602274
495.067563	31616.087859
495.434713	31480.740440
495.801805	31774.218773
496.168839	31613.761366
496.535815	31452.288167
496.902733	31581.553434
497.269593	31394.667779
497.636395	31545.282332
498.003139	31828.459067
498.369825	31584.983939
498.736453	31993.566938
499.103023	31823.526298
499.469535	31922.370722
499.835989	32037.251057
500.202385	31909.462848
500.568723	31955.322224
500.935003	32255.197782
501.301226	32125.594757
501.667390	32857.189689
502.033497	33082.178905
502.399546	32866.964486
502.765537	32471.160812
503.131470	32957.564103
503.497345	33390.274064
503.863163	32317.173727
504.228923	33112.438431
504.594625	33506.361755
504.960269	32979.538493
505.325856	33657.223325
505.691385	33323.488858
506.056856	33639.770850
506.422270	34124.999552
506.787625	33650.110257
507.152924	34121.259016
507.518164	34275.029331
507.883347	33848.845144
508.248472	34010.976213
508.613540	34702.625042
508.978550	34929.179537
509.343503	34763.784320
509.708398	35121.708764
510.073236	35716.953087
510.438016	35824.196073
510.802738	35481.039689
511.167403	36035.037291
511.532010	36307.405792
511.896561	36825.286048
512.261053	37587.795855
512.625488	37374.474389
512.989866	37272.902701
513.354186	37321.852304
513.718449	37296.432286
514.082655	38185.215436
514.446803	37879.928200
514.810894	38513.457565
515.174927	38518.602063
515.538904	38526.136067
515.902822	39151.206377
516.266684	38824.474072
516.630488	39201.408707
516.994235	39207.382475
517.357925	39787.677256
517.721558	40038.444413
518.085133	40423.880953
518.448651	40626.164813
518.812112	40511.712977
519.175516	40658.113126
519.538863	41121.624537
519.902152	41181.515965
520.265385	41736.279822
520.628560	41750.813469
520.991678	41682.989785
521.354739	41923.689758
521.717743	42295.633650
522.080690	42166.136490
522.443580	42886.703897
522.806413	42873.188564
523.169189	43016.488403
523.531908	43241.512908
523.894569	43084.430554
524.257174	43272.130356
524.619722	43636.086540
524.982213	43791.275941
525.344647	43829.364378
525.707025	43949.553048
526.069345	44383.087238
526.431608	44306.330629
526.793815	44692.062077
527.155964	44220.265530
527.518057	44473.719622
527.880093	44329.376264
528.242072	44986.878837
528.603995	44692.896388
528.965860	44596.769146
529.327669	44821.201315
529.689421	44887.424433
530.051117	44838.973903
530.412755	45119.559485
530.774337	45155.107182
531.135862	45104.730931
531.497331	45263.403769
531.858743	45244.711171
532.220098	45650.380382
532.581396	45375.846706
532.942638	45132.280837
533.303824	45382.821142
533.664953	45435.831395
534.026025	45111.516324
534.387040	45675.921388
534.747999	45728.525829
535.108902	46049.082719
535.469748	45363.576537
535.830537	45645.480381
536.191270	45882.152472
536.551947	45617.040711
536.912567	45881.068623
537.273131	46005.605288
537.633638	45636.542415
537.994089	45807.823179
538.354483	45553.169292
538.714821	46193.118567
539.075103	46488.172261
539.435328	46331.556213
539.795497	46064.548979
540.155609	46206.409569
540.515665	46763.739374
540.875665	46060.279122
541.235609	46309.047462
541.595496	46460.675287
541.955328	47019.134310
542.315102	46436.999508
542.674821	46332.045205
543.034483	46218.999851
543.394090	46220.832310
543.753640	46198.986470
544.113134	47247.183507
544.472571	46321.589852
544.831953	47442.107282
545.191278	46698.869806
545.550548	46366.846811
545.909761	47006.307094
546.268918	47128.741598
546.628019	47497.028133
546.987064	46921.466995
547.346053	46223.078144
547.704986	47121.116852
548.063863	46735.324910
548.422684	46921.446831
548.781449	46473.615929
549.140158	46987.057448
549.498811	46718.736993
549.857408	46096.101561
550.215949	46910.802434
550.574434	46711.553349
550.932864	46671.634972
551.291237	47323.194025
551.649555	47024.934158
552.007817	47176.372940
552.366022	46864.829632
552.724173	46892.886174
553.082267	47256.489477
553.440305	47595.612938
553.798288	46808.104048
554.156215	47156.135228
554.514086	47324.512287
554.871902	46866.495733
555.229661	47007.413627
555.587365	46667.617173
555.945014	46735.158552
556.302606	46721.542396
556.660143	46763.139477
557.017625	46962.504508
557.375050	46582.278000
557.732421	46926.772810
558.089735	46966.149262
558.446994	46766.506967
558.804197	47183.370061
559.161345	46998.097575
559.518437	46312.261197
559.875474	46499.232552
560.232455	46643.691857
560.589381	46624.593445
560.946251	46409.772236
561.303065	46986.117273
561.659825	46618.241592
562.016528	46356.373814
562.373177	45878.278345
562.729770	46446.615509
563.086307	45895.171251
563.442789	46366.851852
563.799216	46146.994530
564.155587	45988.039387
564.511904	45884.297482
564.868164	45849.122832
565.224370	46072.357727
565.580520	45739.142499
565.936615	45866.908022
566.292654	45434.119923
566.648638	45709.828189
567.004567	45555.160548
567.360441	45566.447691
567.716260	45195.595209
568.072023	45482.215052
568.427732	45322.057594
568.783385	44777.640705
569.138982	45082.973311
569.494525	45125.939065
569.850013	44631.661493
570.205445	44673.540878
570.560823	44361.856418
570.916145	44146.652081
571.271412	44284.772135
571.626625	43850.995970
571.981782	43801.360769
572.336884	43334.645705
572.691931	43531.195252
573.046923	43109.633803
573.401860	42853.714587
573.756743	42755.402004
574.111570	42791.852067
574.466342	42600.910803
574.821059	42626.618167
575.175722	42054.195148
575.530330	42030.705892
575.884882	41605.817281
576.239380	41406.837898
576.593823	41378.594833
576.948211	41204.417927
577.302544	40664.666626
577.656823	40555.646632
578.011047	40678.975941
578.365216	40416.553636
578.719330	40037.973065
579.073389	39914.893293
579.427394	39824.061783
579.781344	39615.627716
580.135239	39281.316037
580.489080	39231.761495
580.842866	38648.116867
581.196597	38954.351840
581.550273	38824.960544
581.903895	38650.090479
582.257463	38878.497598
582.610975	38269.871532
582.964434	38434.316491
583.317837	37846.800257
583.671186	37696.208389
584.024481	37804.905748
584.377721	37281.815461
584.730906	37336.401074
585.084037	37333.300765
585.437113	36968.157389
585.790135	36936.798891
586.143103	36426.034225
586.496016	36435.314989
586.848874	36403.775010
587.201679	36300.073434
587.554428	35721.643880
587.907124	35812.261141
588.259765	35484.918857
588.612352	35486.463971
588.964884	34914.361065
589.317362	35015.219430
589.669786	34887.418618
590.022155	34650.048328
590.374470	34877.396804
590.726731	34395.371756
591.078937	33738.758947
591.431090	33885.234713
591.783188	33354.312993
592.135232	33078.864347
592.487222	33139.310302
592.839157	33129.782521
593.191038	32715.074521
593.542866	32420.411517
593.894639	31830.873780
594.246358	31925.604622
594.598022	31776.446963
594.949633	31309.147124
595.301190	31163.036842
595.652692	30988.617960
596.004141	31226.101677
596.355535	30265.020819
596.706876	30137.822425
597.058162	29793.506577
597.409395	30024.532575
597.760573	30063.732587
598.111698	29639.033020
598.462768	29422.250802
598.813785	29301.772266
599.164748	28902.394414
599.515657	28942.242215
599.866511	28472.051275
600.217312	28798.816347
600.568060	27942.089894
600.918753	28361.662608
601.269392	28166.166662
601.619978	27842.766561
601.970510	27850.822325
602.320988	27796.677812
602.671412	27833.095107
603.021783	27598.121885
603.372100	27180.195108
603.722363	27111.564839
604.072572	26988.427095
604.422728	26855.305345
604.772830	26577.018530
605.122878	26564.612250
605.472872	26336.187487
605.822813	26352.800609
606.172701	26063.748410
606.522534	26125.114375
606.872314	26109.930420
607.222041	25878.480965
607.571714	25941.301303
607.921333	25486.811037
608.270899	25466.348994
608.620411	25559.393570
608.969870	25297.669465
609.319276	25167.549723
609.668627	25059.636263
610.017926	25145.716486
610.367171	25093.565749
610.716362	24990.832075
611.065500	24799.800070
611.414585	24778.470948
611.763616	24728.354317
612.112594	24546.746750
612.461518	24482.658561
612.810389	24557.668410
613.159207	24303.488392
613.507971	24143.424196
613.856682	24301.305572
614.205340	24063.786568
614.553945	24310.362005
614.902496	23806.400376
615.250994	23903.722371
615.599439	23806.463390
615.947830	23733.265836
616.296169	23589.479526
616.644454	23486.279545
616.992686	23421.462909
617.340864	23514.636035
617.688990	23126.129432
618.037063	23346.944573
618.385082	23121.683134
618.733048	23149.540550
619.080961	22954.044604
619.428821	22841.962110
619.776628	22725.892063
620.124382	22499.534173
620.472083	22438.732817
620.819731	22357.539993
621.167326	22012.092405
621.514868	21877.302033
621.862357	21472.588120
622.209793	21417.034605
622.557176	21080.598080
622.904506	20822.281795
623.251783	20549.562933
623.599007	20258.292626
623.946179	20104.124059
624.293297	19852.608291
624.640363	19496.397839
624.987376	19285.107958
625.334336	19078.115661
625.681243	18792.035221
626.028097	18622.894427
626.374899	18436.991797
626.721647	18306.867013
627.068343	18082.444926
627.414987	17835.249427
627.761577	17622.280842
628.108115	17649.515675
628.454600	17224.311992
628.801032	17212.266155
629.147412	17044.350362
629.493739	16906.479845
629.840014	16627.015920
630.186236	16689.798450
630.532405	16360.195209
630.878521	16354.360073
631.224585	16163.675908
631.570597	15937.683502
631.916556	15904.800055
632.262462	15771.698470
632.608316	15653.014585
632.954117	15506.100239
633.299866	15394.547066
633.645562	15272.581390
633.991206	14988.918183
634.336797	14738.103136
634.682336	14609.543630
635.027823	14431.608543
635.373257	14299.800014
635.718639	14090.357716
636.063968	13965.145537
636.409245	13663.692099
636.754470	13546.512998
637.099642	13390.673289
637.444762	13109.502933
637.789829	13060.583576
638.134845	12848.439219
638.479808	12739.751942
638.824719	12627.961835
639.169577	12384.065771
639.514383	12330.667349
639.859137	12133.691824
640.203839	12103.034047
640.548489	11930.843355
640.893086	11855.586490
641.237632	11696.840555
641.582125	11647.984213
641.926566	11507.008345
642.270955	11444.674478
642.615292	11348.690909
642.959576	11241.339538
643.303809	11170.851604
643.647990	11121.773451
643.992118	11043.610360
644.336195	10930.325551
644.680219	10866.093689
645.024192	10845.790442
645.368112	10910.823848
645.711981	10848.736997
646.055797	10965.444749
646.399562	10849.939312
646.743274	10995.298463
647.086935	11030.074862
647.430544	10964.292846
647.774101	10904.693804
648.117606	10912.323591
648.461059	10879.218333
648.804460	10713.845802
649.147810	10517.076965
649.491108	10370.119768
649.834354	10274.751220
650.177548	10018.310244
650.520690	9822.839504
650.863781	9748.207742
651.206820	9651.979677
651.549807	9487.759049
651.892742	9297.397518
652.235626	9212.968273
652.578458	9120.309345
652.921238	8904.439576
653.263967	8899.955469
653.606644	8785.609497
653.949269	8709.039411
654.291843	8562.727483
654.634365	8583.232376
654.976836	8430.371988
655.319255	8384.810040
655.661622	8303.062689
656.003938	8223.074701
656.346203	8128.427038
656.688416	8127.000391
657.030577	8026.073971
657.372687	7934.100639
657.714746	7906.459993
658.056753	7889.236891
658.398708	7719.886889
658.740612	7679.477000
659.082465	7667.680700
659.424266	7601.560926
659.766016	7546.786269
660.107715	7465.122097
660.449362	7431.653877
660.790958	7380.705455
661.132503	7322.827968
661.473996	7290.879655
661.815438	7256.393122
662.156829	7227.270376
662.498168	7149.331617
662.839456	7088.250477
663.180693	7061.791981
663.521879	7028.033894
663.863013	6968.533155
664.204097	6925.879952
664.545129	6940.017868
664.886110	6885.026442
665.227040	6856.392688
665.567918	6813.215205
665.908746	6775.860255
666.249522	6749.116934
666.590248	6712.838270
666.930922	6686.137799
667.271545	6647.177241
667.612118	6611.498475
667.952639	6545.726541
668.293109	6504.026116
668.633528	6433.931392
668.973896	6387.585545
669.314213	6342.988977
669.654480	6272.866527
669.994695	6228.731225
670.334859	6175.025293
670.674973	6105.187668
671.015035	6085.012970
671.355047	6044.711466
671.695008	5995.028374
672.034918	5943.966527
672.374777	5914.080046
672.714585	5867.343509
673.054342	5848.855077
673.394049	5797.891532
673.733705	5787.673113
674.073310	5721.938988
674.412864	5687.016395
674.752368	5620.843689
675.091820	5611.910764
675.431223	5533.719947
675.770574	5472.346420
676.109875	5417.881794
676.449125	5359.185119
676.788324	5310.258200
677.127473	5228.856168
677.466571	5184.557029
677.805619	5127.113081
678.144616	5086.025157
678.483562	5049.315474
678.822458	4987.949508
679.161303	4953.392399
679.500098	4917.811935
679.838842	4878.465729
680.177535	4855.904045
680.516179	4845.249567
680.854771	4827.272812
681.193314	4855.558726
681.531805	4913.733642
681.870247	4955.519766
682.208638	5001.205223
682.546978	5002.568855
682.885268	4993.056197
683.223508	4930.777783
683.561697	4886.007295
683.899836	4847.936502
684.237925	4790.129590
684.575963	4745.245677
684.913951	4693.750291
685.251889	4678.100028
685.589776	4656.332326
685.927614	4630.624962
686.265401	4619.398312
686.603137	4608.461529
686.940824	4625.127584
687.278460	4634.811640
687.616046	4631.613028
687.953582	4666.318852
688.291068	4642.121313
688.628504	4647.956449
688.965889	4630.884582
689.303224	4591.855968
689.640510	4547.077919
689.977745	4479.690295
690.314930	4399.692225
690.652065	4350.558619
690.989150	4275.639511
691.326185	4195.822922
691.663170	4132.601812
692.000105	4060.994742
692.336990	4001.982995
692.673825	3954.916262
693.010610	3905.838109
693.347345	3856.195347
693.684030	3799.736944
694.020665	3769.553035
694.357251	3714.884242
694.693786	3702.094835
695.030272	3674.207172
695.366707	3636.557315
695.703093	3601.274279
696.039429	3591.665840
696.375716	3567.911923
696.711952	3552.818708
697.048139	3536.555946
697.384276	3518.680014
697.720363	3512.867564
698.056400	3498.394411
698.392388	3476.661997
698.728326	3466.720842
699.064214	3447.728294
699.400053	3436.441151
699.735842	3405.851429
700.071581	3382.649519
700.407270	3358.804861
700.742910	3342.181656
701.078501	3315.927327
701.414042	3298.822692
701.749533	3275.376286
702.084974	3250.455342
702.420366	3248.678335
702.755709	3226.991291
703.091002	3200.847867
703.426246	3195.136240
703.761440	3185.242975
704.096584	3170.285872
704.431679	3154.602842
704.766725	3145.690082
705.101721	3136.600882
705.436668	3128.479583
705.771565	3114.197994
706.106413	3117.414250
706.441212	3114.029116
706.775961	3109.658435
707.110661	3105.444031
707.445311	3113.313272
707.779913	3097.952876
708.114465	3097.748709
708.448967	3104.420676
708.783421	3116.952985
709.117825	3121.517750
709.452180	3126.354737
709.786485	3131.514358
710.120742	3150.670742
710.454949	3151.172337
710.789107	3166.278155
711.123216	3186.747760
711.457275	3199.310315
711.791286	3215.678942
712.125247	3219.114488
712.459159	3208.961604
712.793023	3229.458936
713.126837	3195.310160
713.460602	3189.033923
713.794318	3170.449709
714.127985	3155.230466
714.461602	3120.350723
714.795171	3109.454268
715.128691	3074.957653
715.462162	3052.663150
715.795584	3031.618853
716.128957	3017.261647
716.462281	3002.677589
716.795556	2989.298367
717.128782	2972.755820
717.461960	2948.560802
717.795088	2943.544854
718.128167	2933.538164
718.461198	2917.136770
718.794180	2909.980852
719.127113	2901.257135
719.459997	2892.344375
719.792833	2877.745194
720.125619	2878.526573
720.458357	2866.117772
720.791046	2861.016125
721.123686	2852.100844
721.456278	2845.532221
721.788821	2841.151458
722.121315	2836.211127
722.453761	2834.875221
722.786158	2828.142760
723.118506	2828.762822
723.450805	2825.733089
723.783056	2826.673264
724.115259	2819.799651
724.447412	2818.879640
724.779518	2823.106648
725.111574	2821.014569
725.443582	2822.726041
725.775542	2820.835608
726.107453	2829.937411
726.439315	2826.814416
726.771129	2835.487722
727.102895	2834.769357
727.434612	2842.832683
727.766281	2841.595079
728.097901	2850.986749
728.429473	2851.080010
728.760996	2850.981708
729.092471	2851.329547
729.423897	2846.149762
729.755276	2841.920234
730.086606	2840.218844
730.417887	2847.841069
730.749120	2853.608149
731.080305	2857.404138
731.411442	2863.682895
731.742530	2863.559387
732.073570	2861.593337
732.404562	2864.781867
732.735506	2865.845550
733.066401	2861.956300
733.397249	2852.194105
733.728048	2839.576097
734.058798	2823.386432
734.389501	2807.290027
734.720156	2797.943728
735.050762	2784.856893
735.381320	2776.596962
735.711831	2768.616816
736.042293	2761.186155
736.372707	2759.245311
736.703073	2756.628952
737.033391	2754.902357
737.363661	2755.388828
737.693883	2753.188364
738.024056	2757.901843
738.354182	2757.682553
738.684260	2763.673964
739.014290	2767.134717
739.344272	2769.388112
739.674207	2775.941612
740.004093	2775.923968
740.333931	2779.898918
740.663722	2781.466717
740.993464	2780.100564
741.323159	2776.153341
741.652806	2769.037752
741.982405	2765.554315
742.311956	2758.100969
742.641460	2755.013262
742.970915	2749.946902
743.300323	2744.447004
743.629683	2733.968965
743.958996	2731.967627
744.288260	2723.334651
744.617477	2722.707028
744.946647	2718.560679
745.275768	2717.580174
745.604842	2708.576673
745.933869	2705.798998
746.262847	2704.672300
746.591778	2704.286652
746.920662	2700.588965
747.249498	2700.951928
747.578286	2702.345807
747.907027	2703.964018
748.235720	2706.356045
748.564365	2707.775130
748.892963	2705.993082
749.221514	2706.507280
749.550017	2702.834799
749.878473	2705.118442
750.206881	2700.394881
750.535242	2697.438244
750.863555	2694.554704
751.191821	2693.002029
751.520039	2692.157635
751.848210	2691.174610
752.176334	2692.881041
752.504411	2688.429702
752.832440	2685.321831
753.160421	2685.692356
753.488356	2685.147911
753.816243	2682.866789
754.144082	2681.281346
754.471875	2680.497447
754.799620	2677.709688
755.127318	2677.077024
755.454969	2674.816066
755.782572	2675.627692
756.110129	2674.546364
756.437638	2673.328926
756.765100	2671.050324
757.092515	2674.606858
757.419882	2675.398319
757.747203	2673.185253
758.074477	2674.521159
758.401703	2673.901097
758.728882	2675.075686
759.056014	2675.357990
759.383099	2675.768844
759.710138	2677.097188
760.037129	2675.935202
760.364073	2678.702796
760.690970	2679.635409
761.017820	2680.497447
761.344623	2684.031295
761.671379	2686.821574
761.998088	2695.101669
762.324751	2712.080275
762.651366	2752.107037
762.977935	2806.990079
763.304456	2851.785772
763.630931	2874.677652
763.957359	2870.427959
764.283740	2844.566840
764.610074	2816.137252
764.936362	2781.625513
765.262602	2753.810947
765.588796	2724.970506
765.914943	2704.049717
766.241044	2686.723272
766.567097	2675.821776
766.893104	2661.280568
767.219064	2655.662202
767.544978	2648.249185
767.870845	2640.805922
768.196665	2636.447844
768.522438	2632.898872
768.848165	2628.949128
769.173846	2623.703807
769.499479	2621.868827
769.825066	2619.930504
770.150607	2617.261213
770.476101	2614.463372
770.801548	2613.923969
771.126949	2612.164606
771.452303	2608.686210
771.777611	2602.634305
772.102872	2605.779985
772.428087	2603.826538
772.753256	2600.733790
773.078378	2598.808069
773.403453	2597.262955
773.728482	2593.348499
774.053465	2590.976637
774.378401	2590.722058
774.703291	2587.727613
775.028135	2587.359609
775.352932	2586.195102
775.677683	2586.631162
776.002388	2579.891139
776.327046	2581.776531
776.651658	2576.584142
776.976224	2572.596590
777.300743	2578.620768
777.625216	2575.792681
777.949643	2576.843762
778.274024	2575.545665
778.598359	2577.506673
778.922647	2577.393248
779.246889	2574.605489
779.571086	2576.629513
779.895236	2576.730336
780.219339	2577.652867
780.543397	2575.207907
780.867409	2579.437435
781.191374	2574.973494
781.515294	2574.504666
781.839167	2578.071283
782.162995	2577.806622
782.486776	2574.345870
782.810511	2575.638926
783.134201	2573.839234
783.457844	2572.140365
783.781441	2574.360993
784.104993	2570.131465
784.428498	2574.149265
784.751958	2567.752041
785.075372	2571.061558
785.398739	2567.399160
785.722061	2570.020560
786.045337	2569.254305
786.368568	2570.471743
786.691752	2571.174984
787.014891	2575.810325
787.337983	2580.357446
787.661030	2584.856676
787.984031	2594.006370
788.306987	2600.224633
788.629897	2603.405601
788.952760	2605.888370
789.275579	2603.171188
789.598351	2599.866711
789.921078	2591.770618
790.243759	2591.909250
790.566395	2583.931624
790.888984	2582.338619
791.211529	2575.704461
791.534027	2571.782443
791.856480	2570.433935
792.178888	2568.520817
792.501249	2563.346072
792.823566	2565.019735
793.145836	2561.760629
793.468062	2566.554767
793.790241	2562.932698
794.112375	2563.963614
794.434464	2565.841443
794.756507	2567.137020
795.078505	2569.256825
795.400457	2570.116342
795.722364	2576.959708
796.044226	2576.301838
796.366042	2584.390369
796.687812	2581.418609
797.009538	2582.550348
797.331218	2585.653178
797.652852	2581.247210
797.974442	2579.039184
798.295986	2578.628330
798.617484	2575.117167
798.938938	2574.242526
799.260346	2572.510890
799.581709	2568.339335
799.903026	2571.159861
800.224299	2569.708008
800.545526	2565.672565
800.866708	2564.293809
801.187845	2564.208110
801.508936	2560.833057
801.829983	2560.911195
802.150984	2558.733417
802.471940	2559.035886
802.792851	2555.312994
803.113717	2556.709393
803.434538	2556.522871
803.755314	2555.439022
804.076045	2557.702501
804.396731	2554.798796
804.717372	2555.910370
805.037967	2554.264434
805.358518	2557.531101
805.679024	2558.476318
805.999485	2556.164949
806.319901	2555.544887
806.640272	2558.020093
806.960598	2557.536142
807.280879	2558.960268
807.601115	2558.980433
807.921306	2558.294836
808.241453	2560.023952
808.561554	2554.811399
808.881611	2555.678477
809.201623	2553.656975
809.521590	2558.141081
809.841513	2558.428427
810.161390	2558.529250
810.481223	2556.648899
810.801011	2560.785166
811.120755	2554.468600
811.440453	2555.653272
811.760107	2555.554969
812.079716	2555.557490
812.399281	2553.682180
812.718801	2554.609753
813.038276	2550.072714
813.357707	2550.813764
813.677093	2551.562375
813.996434	2551.872406
814.315731	2552.958775
814.634983	2552.747046
814.954191	2548.804864
815.273354	2555.068498
815.592473	2555.315514
815.911547	2555.643189
816.230577	2557.684857
816.549562	2558.735937
816.868502	2560.666699
817.187399	2563.157029
817.506250	2566.532082
817.825058	2564.835733
818.143821	2570.219686
818.462539	2574.938206
818.781213	2577.907445
819.099843	2587.467993
819.418429	2601.104315
819.736970	2612.666201
820.055466	2628.286216
820.373919	2649.474186
820.692327	2676.709019
821.010691	2722.318859
821.329011	2823.361226
821.647286	3000.746827
821.965517	3231.583782
822.283704	3400.603588
822.601847	3494.873165
822.919945	3426.273144
823.237999	3330.513906
823.556010	3223.291084
823.873976	3117.492388
824.191897	3019.361288
824.509775	2943.900256
824.827609	2876.013557
825.145398	2827.996567
825.463144	2805.586117
825.780845	2797.890796
826.098502	2808.414205
826.416116	2853.330886
826.733685	2902.116652
827.051210	2929.031372
827.368692	2920.068201
827.686129	2873.140100
828.003522	2821.256544
828.320872	2767.752258
828.638177	2728.053171
828.955439	2695.396577
829.272656	2669.971517
829.589830	2646.804895
829.906960	2626.486524
830.224046	2612.373814
830.541088	2600.101125
830.858086	2591.526122
831.175041	2585.368353
831.491952	2582.633527
831.808819	2579.621437
832.125642	2584.319793
832.442421	2594.868407
832.759157	2614.927158
833.075849	2652.264464
833.392497	2692.591175
833.709101	2728.458984
834.025662	2738.266549
834.342179	2721.852552
834.658653	2694.476566
834.975083	2667.738286
835.291469	2643.598721
835.607811	2623.550052
835.924110	2609.822990
836.240366	2595.521237
836.556578	2585.582602
836.872746	2573.289748
837.188871	2563.948490
837.504952	2559.935732
837.820990	2553.258723
838.136984	2547.839483
838.452935	2546.826211
838.768842	2546.122970
839.084706	2549.200595
839.400526	2564.440003
839.716303	2586.951275
840.032037	2604.224789
840.347727	2606.886518
840.663373	2599.849067
840.978977	2579.845769
841.294537	2571.479974
841.610054	2563.698953
841.925527	2553.180586
842.240957	2549.492982
842.556344	2545.134904
842.871687	2538.505787
843.186987	2534.072092
843.502244	2528.559590
843.817458	2527.372398
844.132629	2524.236801
844.447756	2524.042716
844.762840	2522.298477
845.077881	2523.251255
845.392879	2518.537776
845.707833	2518.084073
846.022745	2517.718589
846.337613	2518.973836
846.652438	2515.903773
846.967221	2518.994001
847.281960	2517.053157
847.596656	2514.484689
847.911309	2517.501819
848.225919	2514.721623
848.540485	2511.699451
848.855009	2513.904956
849.169490	2512.614421
849.483928	2513.511746
849.798323	2513.312620
850.112675	2513.862106
850.426984	2516.327230
850.741251	2513.264729
851.055474	2514.325892
851.369654	2512.581653
851.683792	2514.968639
851.997887	2512.175840
852.311938	2513.484020
852.625947	2514.618279
852.939914	2514.051149
853.253837	2511.434791
853.567718	2512.937054
853.881555	2516.337313
854.195350	2515.228259
854.509103	2512.271622
854.822812	2514.164575
855.136479	2515.533249
855.450103	2515.261026
855.763685	2513.723474
856.077224	2509.930006
856.390720	2513.153824
856.704173	2507.709378
857.017584	2514.933351
857.330953	2513.385717
857.644278	2514.590553
857.957561	2516.866634
858.270802	2514.386386
858.584000	2511.770027
858.897155	2515.770183
859.210268	2514.376304
859.523339	2515.770183
859.836367	2514.018382
860.149352	2512.553927
860.462295	2514.701458
860.775195	2511.480161
861.088054	2510.492095
861.400869	2515.298835
861.713642	2512.914369
862.026373	2512.846314
862.339062	2515.177847
862.651708	2514.368742
862.964312	2515.583660
863.276873	2515.455111
863.589392	2516.599453
863.901869	2515.155162
864.214303	2517.194309
864.526696	2519.034330
864.839045	2521.315452
865.151353	2518.920904
865.463619	2520.302180
865.775842	2518.784793
866.088023	2521.817047
866.400162	2520.907119
866.712258	2520.065246
867.024313	2521.088600
867.336325	2521.660771
867.648296	2519.046933
867.960224	2520.798734
868.272110	2520.529032
868.583954	2520.448374
868.895755	2520.511388
869.207515	2522.512726
869.519233	2524.239321
869.830909	2523.097500
870.142542	2524.579599
870.454134	2523.301667
870.765684	2524.544311
871.077191	2522.754702
871.388657	2523.082377
871.700081	2519.866120
872.011463	2524.728313
872.322803	2522.454753
872.634101	2528.521782
872.945357	2527.490866
873.256571	2531.722914
873.567744	2531.738038
873.878874	2531.876669
874.189963	2531.201155
874.501010	2532.000178
874.812015	2532.562266
875.122979	2533.736855
875.433900	2533.799870
875.744780	2533.870446
876.055618	2535.798687
876.366415	2535.856660
876.677169	2534.117462
876.987882	2538.160468
877.298554	2537.550488
877.609183	2538.241126
877.919771	2542.253885
878.230317	2545.558361
878.540822	2555.038251
878.851285	2553.230997
879.161707	2561.579148
879.472087	2579.810481
879.782425	2599.133223
880.092722	2633.264356
880.402977	2692.762574
880.713191	2766.071033
881.023363	2848.914835
881.333494	2906.381468
881.643583	2937.470264
881.953631	2941.372117
882.263637	2925.351330
882.573602	2896.452916
882.883526	2867.640201
883.193408	2834.776919
883.503248	2804.560243
883.813048	2774.462034
884.122806	2745.850965
884.432522	2717.474310
884.742197	2692.187882
885.051831	2668.350786
885.361424	2644.201139
885.670975	2628.066926
885.980485	2613.389607
886.289954	2601.265632
886.599382	2589.179465
886.908768	2580.339802
887.218113	2565.307081
887.527417	2564.394632
887.836680	2557.906667
888.145901	2556.565720
888.455082	2551.459032
888.764221	2547.927703
889.073319	2543.141128
889.382376	2540.648277
889.691392	2540.973432
890.000366	2539.219110
890.309300	2539.569470
890.618193	2542.493339
890.927044	2540.686086
891.235855	2540.262629
891.544625	2542.866385
891.853353	2540.950746
892.162041	2545.817980
892.470687	2548.401572
892.779293	2552.000956
893.087858	2559.146791
893.396381	2572.112639
893.704864	2582.996490
894.013306	2607.909872
894.321707	2630.219499
894.630068	2651.556182
894.938387	2657.393838
895.246665	2654.051553
895.554903	2648.100471
895.863100	2633.080353
896.171256	2624.704476
896.479371	2612.212497
896.787446	2603.881990
897.095480	2592.791452
897.403473	2586.195102
897.711425	2579.427353
898.019336	2573.007444
898.327207	2568.069633
898.635038	2561.755588
898.942827	2553.193188
899.250576	2552.069011
899.558284	2549.094730
899.865952	2543.670449
900.173579	2542.251364
900.481165	2539.236754
900.788711	2537.520241
901.096216	2534.714839
901.403681	2537.106867
901.711105	2533.280631
902.018489	2534.200641
902.325832	2533.953625
902.633135	2533.860363
902.940397	2543.945192
903.247619	2552.366439
903.554800	2585.295256
903.861941	2625.964765
904.169041	2662.036741
904.476101	2681.349402
904.783121	2683.222190
905.090100	2670.427742
905.397039	2653.348312
905.703938	2632.740076
906.010796	2621.026955
906.317614	2606.757969
906.624391	2596.133737
906.931129	2582.106726
907.237826	2581.214442
907.544483	2568.483008
907.851099	2556.888354
908.157675	2550.292004
908.464211	2543.519214
908.770707	2534.818183
909.077163	2531.095291
909.383578	2525.653365
909.689954	2522.966430
909.996289	2521.663292
910.302584	2519.447705
910.608839	2517.547190
910.915054	2515.566016
911.221229	2520.763446
911.527363	2514.764473
911.833458	2517.237159
912.139513	2517.136336
912.445527	2520.592047
912.751502	2520.871831
913.057436	2521.474248
913.363331	2525.363499
913.669186	2527.919364
913.975000	2534.772812
914.280775	2544.174564
914.586510	2558.947666
914.892205	2574.557598
915.197859	2598.694643
915.503475	2625.377470
915.809050	2646.923362
916.114585	2667.844150
916.420081	2677.140038
916.725536	2681.203208
917.030952	2674.926972
917.336328	2664.713594
917.641665	2654.588436
917.946961	2640.289203
918.252218	2636.609161
918.557435	2618.347581
918.862612	2616.149638
919.167750	2603.433328
919.472848	2597.061309
919.777906	2584.662591
920.082925	2578.346026
920.387904	2565.821279
920.692843	2560.170145
920.997743	2553.669578
921.302603	2543.872095
921.607423	2545.152548
921.912204	2536.108718
922.216946	2534.931609
922.521647	2531.743079
922.826310	2528.068078
923.130932	2523.883920
923.435516	2522.255627
923.740059	2522.558097
924.044564	2520.536594
924.349028	2517.237159
924.653454	2518.257992
924.957840	2515.712210
925.262186	2514.577950
925.566493	2512.211128
925.870761	2512.506036
926.174989	2510.774399
926.479178	2508.518483
926.783328	2507.018740
927.087438	2506.764162
927.391509	2507.391785
927.695541	2504.505725
927.999533	2505.624861
928.303486	2503.794922
928.607400	2504.140241
928.911275	2500.485404
929.215110	2501.884325
929.518906	2498.315188
929.822663	2504.573780
930.126381	2502.796773
930.430060	2500.533295
930.733699	2502.413646
931.037299	2501.155878
931.340861	2502.080930
931.644383	2501.188645
931.947866	2501.362565
932.251309	2502.345590
932.554714	2501.450785
932.858080	2500.182935
933.161407	2497.647235
933.464694	2500.445075
933.767943	2497.410301
934.071153	2501.740652
934.374323	2498.746206
934.677455	2500.729900
934.980548	2498.116062
935.283602	2502.436331
935.586617	2500.233347
935.889593	2499.509941
936.192530	2499.860301
936.495428	2501.173522
936.798287	2500.447596
937.101108	2500.629077
937.403890	2503.389109
937.706632	2505.496311
938.009336	2506.335663
938.312002	2508.089985
938.614628	2510.212311
938.917216	2511.333967
939.219765	2510.958402
939.522275	2512.989987
939.824747	2513.665501
940.127179	2514.182219
940.429573	2514.169617
940.731929	2514.356139
941.034246	2512.586694
941.336524	2514.983763
941.638763	2512.748011
941.940964	2511.346570
942.243126	2511.974194
942.545250	2512.816067
942.847335	2508.130314
943.149381	2508.258864
943.451389	2509.405726
943.753359	2508.954543
944.055290	2504.513286
944.357182	2509.423370
944.659036	2505.458503
944.960851	2508.999913
945.262628	2504.856085
945.564367	2505.697958
945.866067	2503.366424
946.167729	2504.379696
946.469352	2503.399191
946.770937	2504.236023
947.072484	2504.742659
947.373992	2504.162926
947.675462	2504.644356
947.976893	2497.712770
948.278286	2498.481546
948.579641	2503.507576
948.880958	2496.908706
949.182236	2500.898779
949.483476	2502.665703
949.784678	2502.716115
950.085841	2501.549088
950.386967	2503.479850
950.688054	2503.336177
950.989103	2505.607217
951.290114	2504.316681
951.591087	2503.457165
951.892021	2503.542864
952.192917	2504.165447
952.493776	2509.977897
952.794596	2505.702999
953.095378	2506.617968
953.396122	2507.951353
953.696828	2503.653770
953.997496	2507.054028
954.298126	2504.470437
954.598718	2504.876249
954.899272	2503.270642
955.199788	2502.784171
955.500266	2502.073368
955.800706	2501.160919
956.101108	2503.089160
956.401472	2500.487925
956.701798	2500.780312
957.002087	2497.112873
957.302337	2496.812924
957.602550	2497.800990
957.902724	2495.774446
958.202861	2495.925681
958.502960	2494.461226
958.803022	2494.383088
959.103045	2491.970896
959.403031	2493.468118
959.702979	2490.508961
960.002889	2492.351503
960.302762	2493.659682
960.602596	2489.853611
960.902393	2489.334372
961.202153	2489.218426
961.501875	2490.080463
961.801559	2487.973261
962.101205	2489.740185
962.400814	2487.937972
962.700385	2486.909577
962.999918	2484.898157
963.299414	2483.169041
963.598873	2483.768938
963.898293	2480.595532
964.197677	2485.717344
964.497022	2484.953609
964.796331	2489.946872
965.095601	2487.736326
965.394835	2484.331027
965.694030	2485.563589
965.993189	2484.734319
966.292309	2483.889926
966.591393	2489.409989
966.890439	2484.996459
967.189447	2484.719196
967.488419	2487.534680
967.787353	2486.266830
968.086249	2486.952427
968.385108	2486.458394
968.683930	2486.697849
968.982714	2487.446460
969.281462	2482.995121
969.580172	2485.694659
969.878844	2482.919504
970.177480	2488.374032
970.476078	2486.173569
970.774639	2487.207005
971.073162	2484.300780
971.371649	2486.836480
971.670098	2488.482417
971.968510	2487.877479
972.266885	2487.695997
972.565223	2488.668940
972.863524	2486.229021
973.161788	2489.049547
973.460014	2484.820019
973.758204	2489.173055
974.056356	2487.028044
974.354471	2488.918477
974.652550	2485.636686
974.950591	2489.984681
975.248595	2490.796307
975.546563	2488.429485
975.844493	2487.527118
976.142386	2487.320431
976.440243	2485.455204
976.738062	2486.715493
977.035845	2485.808085
977.333590	2489.238590
977.631299	2483.005203
977.928971	2483.335399
978.226606	2482.662405
978.524204	2481.570995
978.821765	2479.463793
979.119290	2487.698518
979.416777	2484.310862
979.714228	2485.573671
980.011642	2483.879844
980.309020	2486.181130
980.606360	2485.031747
980.903664	2486.115595
981.200931	2485.548466
981.498162	2489.888899
981.795356	2491.673467
982.092513	2494.005001
982.389633	2496.286123
982.686717	2503.721825
982.983764	2503.129490
983.280775	2505.176198
983.577749	2505.735766
983.874686	2507.200221
984.171587	2507.636281
984.468451	2505.239213
984.765279	2503.610920
985.062070	2501.952380
985.358824	2499.514982
985.655543	2495.426607
985.952224	2496.447440
986.248869	2493.541215
986.545478	2490.302274
986.842050	2488.550473
987.138586	2487.731285
987.435086	2484.958651
987.731549	2484.464618
988.027975	2483.849597
988.324366	2483.753815
988.620719	2482.992601
988.917037	2480.913125
989.213318	2481.558392
989.509563	2479.829277
989.805772	2480.310707
990.101944	2481.162662
990.398080	2481.001345
990.694180	2481.603763
990.990244	2482.554020
991.286271	2482.773310
991.582262	2479.257106
991.878217	2482.160810
992.174136	2480.598053
992.470019	2480.988742
992.765865	2476.890284
993.061676	2476.665953
993.357450	2478.188381
993.653188	2477.487661
993.948890	2482.183495
994.244556	2481.147538
994.540186	2485.087200
994.835780	2481.689462
995.131337	2484.925883
995.426859	2483.385811
995.722345	2488.331182
996.017795	2491.058447
996.313208	2491.320587
996.608586	2491.723879
996.903928	2490.786224
997.199234	2493.931904
997.494504	2491.464260
997.789738	2491.512151
998.084936	2490.594661
998.380099	2490.183807
998.675225	2488.835298
998.970316	2487.806902
999.265371	2488.830257
999.560390	2485.944196
999.855373	2484.419247
1000.150320	2485.417396
1000.445232	2482.871613
1000.740108	2483.151397
1001.034948	2478.773155
1001.329752	2482.425471
1001.624521	2480.663588
1001.919254	2477.412043
1002.213951	2475.314923
1002.508613	2479.166365
1002.803239	2475.952629
1003.097829	2477.651498
1003.392384	2476.844913
1003.686903	2476.739049
1003.981386	2474.992289
1004.275834	2477.540593
1004.570246	2476.451703
1004.864623	2473.931127
1005.158964	2476.799543
1005.453270	2476.149234
1005.747540	2474.785602
1006.041775	2475.088071
1006.335974	2470.573718
1006.630138	2474.838534
1006.924266	2477.769965
1007.218359	2472.713688
1007.512416	2473.195118
1007.806438	2473.273256
1008.100425	2473.716877
1008.394376	2470.634212
1008.688292	2473.802577
1008.982172	2472.202011
1009.276017	2475.451034
1009.569827	2474.503298
1009.863602	2476.459265
1010.157341	2472.685962
1010.451045	2475.088071
1010.744714	2473.618575
1011.038347	2473.306023
1011.331945	2472.668317
1011.625508	2473.764768
1011.919036	2472.852320
1012.212528	2473.091774
1012.505986	2473.036322
1012.799408	2474.893987
1013.092795	2474.543627
1013.386147	2473.416929
1013.679464	2475.849286
1013.972745	2473.462299
1014.265992	2472.736373
1014.559204	2474.001703
1014.852380	2472.595221
1015.145521	2472.030612
1015.438628	2471.927268
1015.731699	2470.137658
1016.024736	2472.423822
1016.317737	2471.816363
1016.610703	2472.078503
1016.903635	2472.640591
1017.196531	2472.779223
1017.489393	2472.398616
1017.782219	2472.358287
1018.075011	2473.285859
1018.367768	2472.927937
1018.660490	2470.518265
1018.953177	2470.518265
1019.245829	2470.518265
