Dividing Wavelength (nm)	Counts (n)	Blue Motor Position (mm): 0.000000	Red Motor Position (mm): 45.500000	
326.493990	2055.081818
326.888308	2055.081818
327.282561	2055.081818
327.676750	2026.478311
328.070874	2029.941584
328.464933	2037.599097
328.858929	2042.695703
329.252859	2050.736343
329.646726	2068.634960
330.040528	2084.494430
330.434265	2100.608478
330.827938	2121.151180
331.221547	2140.070631
331.615091	2161.034269
332.008571	2181.302228
332.401986	2203.624457
332.795338	2225.147664
333.188625	2244.125087
333.581847	2261.988416
333.975006	2281.192692
334.368100	2298.506534
334.761129	2316.944555
335.154095	2328.902172
335.546996	2378.255068
335.939833	2468.854685
336.332606	2481.593680
336.725315	2495.943325
337.117960	2503.555467
337.510540	2513.675583
337.903056	2521.393590
338.295508	2529.391381
338.687896	2534.215765
339.080220	2542.339584
339.472480	2546.506098
339.864676	2549.717313
340.256807	2551.839639
340.648875	2553.510781
341.040879	2555.144115
341.432818	2557.805844
341.824694	2557.553787
342.216506	2559.935732
342.608253	2559.189641
342.999937	2555.958261
343.391557	2554.168652
343.783113	2554.730740
344.174605	2553.599001
344.566033	2551.136398
344.957397	2552.880637
345.348697	2549.833259
345.739934	2545.180274
346.131106	2546.609442
346.522215	2545.321427
346.913260	2542.324461
347.304241	2539.483771
347.695159	2539.955118
348.086012	2536.088553
348.476802	2535.957483
348.867528	2532.799201
349.258191	2530.434899
349.648789	2529.633356
350.039324	2528.972965
350.429796	2528.693181
350.820203	2530.389529
351.210548	2529.698891
351.600828	2528.781401
351.991045	2528.476411
352.381198	2528.428520
352.771288	2528.042872
353.161314	2525.358457
353.551276	2525.885258
353.941175	2523.566327
354.331010	2526.336441
354.720782	2530.250897
355.110490	2531.309540
355.500135	2527.566483
355.889717	2525.348375
356.279235	2528.675537
356.668689	2527.901720
357.058080	2528.312574
357.447408	2531.014632
357.836672	2530.530681
358.225873	2529.663603
358.615010	2531.601927
359.004084	2533.595703
359.393095	2532.186700
359.782043	2534.016639
360.170927	2534.286341
360.559748	2533.494880
360.948505	2534.349355
361.337199	2539.206507
361.725830	2536.842206
362.114398	2537.149716
362.502903	2536.481763
362.891344	2538.251208
363.279722	2537.263142
363.668037	2540.620551
364.056289	2539.965201
364.444478	2541.212886
364.832603	2539.377906
365.220665	2540.335726
365.608665	2542.611807
365.996601	2543.544420
366.384474	2541.323792
366.772284	2542.631971
367.160031	2543.007537
367.547715	2544.416540
367.935336	2544.529966
368.322893	2543.645243
368.710388	2540.867567
369.097820	2540.486960
369.485189	2541.805222
369.872495	2548.499874
370.259738	2547.042981
370.646918	2548.835111
371.034035	2549.228321
371.421090	2551.234700
371.808081	2552.242931
372.195010	2550.798640
372.581875	2556.106975
372.968678	2555.529763
373.355418	2555.862479
373.742096	2559.870197
374.128710	2562.557132
374.515262	2565.909499
374.901751	2566.436300
375.288177	2569.506362
375.674540	2569.750858
376.060841	2576.027095
376.447079	2578.819894
376.833254	2587.742736
377.219367	2589.615525
377.605417	2596.698346
377.991404	2600.368306
378.377329	2608.837445
378.763191	2617.354474
379.148991	2621.397479
379.534727	2633.748306
379.920402	2641.239461
380.306013	2650.532828
380.691563	2663.707884
381.077049	2671.365396
381.462474	2679.020388
381.847835	2696.687112
382.233134	2708.120449
382.618371	2719.026985
383.003545	2739.801580
383.388657	2751.701224
383.773706	2771.296189
384.158693	2783.659619
384.543618	2800.333235
384.928480	2816.827891
385.313280	2838.431755
385.698017	2853.850124
386.082692	2879.837273
386.467305	2896.694891
386.851856	2918.974270
387.236344	2948.502829
387.620770	2965.602423
388.005133	2984.269816
388.389435	3020.150228
388.773674	3030.502237
389.157851	3064.149419
389.541965	3091.185127
389.926018	3106.268259
390.310008	3136.318577
390.693936	3161.998215
391.077802	3189.951413
391.461606	3222.550034
391.845348	3240.761203
392.229027	3270.879576
392.612645	3312.733756
392.996200	3339.028415
393.379694	3381.656412
393.763125	3422.782145
394.146494	3444.030608
394.529801	3482.096361
394.913047	3527.943134
395.296230	3534.910009
395.679351	3556.090417
396.062410	3607.701750
396.445408	3587.020416
396.828343	3629.885347
397.211217	3664.147550
397.594028	3635.440699
397.976778	3683.908873
398.359466	3713.190415
398.742092	3727.671129
399.124656	3740.052203
399.507158	3801.811379
399.889598	3806.905465
400.271977	3872.034652
400.654294	3860.815564
401.036549	3921.208587
401.418742	3918.967794
401.800874	3986.582270
402.182944	4015.163092
402.564952	4102.606947
402.946898	4098.710135
403.328783	4091.463476
403.710606	4141.007936
404.092367	4214.424780
404.474067	4278.076909
404.855705	4259.144856
405.237282	4231.572265
405.618797	4330.588088
406.000250	4410.480294
406.381642	4492.925845
406.762972	4493.848376
407.144240	4457.209270
407.525447	4525.968088
407.906593	4541.885531
408.287677	4624.605824
408.668700	4650.847551
409.049661	4693.145352
409.430560	4726.923603
409.811399	4710.096232
410.192176	4760.961474
410.572891	4844.677396
410.953545	4950.428200
411.334138	4846.794680
411.714669	4956.762410
412.095139	4865.925859
412.475547	4979.021625
412.855894	4985.413808
413.236180	5085.962142
413.616405	5019.267677
413.996568	5119.611844
414.376670	5124.000168
414.756711	5115.415083
415.136691	5189.220096
415.516609	5273.840905
415.896466	5309.350793
416.276262	5386.155292
416.655997	5498.159648
417.035670	5597.087251
417.415283	5737.967337
417.794834	5809.337472
418.174324	5770.296256
418.553753	5770.011431
418.933121	5936.515701
419.312428	5949.841992
419.691674	5871.666298
420.070859	6102.402430
420.449983	5976.754191
420.829045	6174.155694
421.208047	6101.341268
421.586988	6256.354228
421.965867	6332.826011
422.344686	6416.897334
422.723444	6582.055616
423.102141	6198.630496
423.480777	6594.706392
423.859352	6402.731691
424.237866	6776.134998
424.616319	6768.437156
424.994712	6930.616116
425.373044	6846.534711
425.751314	7160.510376
426.129524	6882.306739
426.507673	7151.002760
426.885762	7191.374840
427.263789	7233.808753
427.641756	7318.913512
428.019662	7399.168681
428.397508	7445.186854
428.775292	7423.046106
429.153016	7599.206707
429.530679	7527.962600
429.908282	7578.898419
430.285824	7521.255345
430.663305	7804.023747
431.040726	7688.024276
431.418086	7690.723814
431.795385	7826.872776
432.172624	8014.839759
432.549802	7902.517810
432.926920	8035.384982
433.303977	7974.243347
433.680974	8019.336468
434.057910	8222.684012
434.434786	8273.103112
434.811601	8226.585865
435.188355	8571.229389
435.565050	8464.800549
435.941683	8466.345662
436.318257	8800.022156
436.694770	8759.198892
437.071222	8989.756063
437.447614	8760.209643
437.823946	8724.654385
438.200218	8878.560812
438.576429	8760.219726
438.952580	8917.874251
439.328670	8929.501672
439.704700	9007.412705
440.080670	8896.041013
440.456580	9178.118777
440.832429	9153.580960
441.208218	8888.355774
441.583947	9001.106221
441.959616	9122.865210
442.335224	9154.826125
442.710773	9242.411132
443.086261	9420.134491
443.461689	9134.530440
443.837057	9307.822624
444.212365	9523.397486
444.587612	9506.446606
444.962800	9405.235360
445.337927	9534.372078
445.712995	9074.472654
446.088002	9748.071631
446.462949	9799.330083
446.837837	9787.879102
447.212664	9816.172578
447.587431	10640.186983
447.962139	11644.324335
448.336786	12605.218670
448.711374	12386.939229
449.085901	11172.855463
449.460369	11092.154151
449.834776	10868.029493
450.209124	11774.058429
450.583412	11604.872265
450.957640	11924.577201
451.331808	11513.866835
451.705917	10932.120202
452.079965	10811.205606
452.453954	11011.538540
452.827883	10954.644077
453.201752	10927.328585
453.575562	10934.756725
453.949311	11271.457911
454.323001	11342.825526
454.696632	11266.625965
455.070202	11845.736075
455.443713	11910.779563
455.817164	12079.484297
456.190556	12403.713668
456.563888	12268.245261
456.937160	12534.070345
457.310373	12017.757888
457.683526	12023.834999
458.056619	12045.186807
458.429653	12106.890530
458.802628	12242.827764
459.175542	12306.386631
459.548398	12859.365920
459.921194	13434.271708
460.293930	13711.547772
460.666607	14571.114914
461.039224	15383.161620
461.411782	15742.152268
461.784280	15416.927268
462.156719	15364.264855
462.529099	15278.149344
462.901419	14627.028872
463.273680	14230.063213
463.645882	14445.892653
464.018024	14331.665148
464.390106	14694.880282
464.762130	15759.476193
465.134094	17286.857588
465.505999	19589.172714
465.877845	21873.243905
466.249631	23144.408656
466.621358	22706.168549
466.993026	21912.252353
467.364634	21154.917290
467.736184	20347.858806
468.107674	19722.165914
468.479105	19593.392160
468.850477	19312.115940
469.221790	18885.523419
469.593043	18220.209579
469.964238	17825.235175
470.335373	17888.920071
470.706449	18600.052959
471.077467	19445.197360
471.448425	21945.828958
471.819324	23843.147867
472.190164	23760.230968
472.560945	22004.412207
472.931667	20420.479148
473.302330	20083.999773
473.672934	19520.050933
474.043479	19949.002714
474.413965	19721.747499
474.784393	19539.310662
475.154761	20220.652851
475.525070	20350.306287
475.895321	20192.772749
476.265513	20724.921991
476.635645	21318.618679
477.005719	21382.464892
477.375734	21741.949573
477.745691	22390.171382
478.115588	23022.533720
478.485427	24218.461771
478.855207	26031.573245
479.224928	27871.135654
479.594591	29323.323198
479.964194	28976.917791
480.333739	29440.335941
480.703226	29666.817339
481.072653	30103.408989
481.442022	30620.880910
481.811333	31058.387529
482.180584	30617.173142
482.549777	30388.443389
482.918912	30140.733692
483.287988	30088.174622
483.657005	29934.127042
484.025964	29559.811287
484.394864	29772.457239
484.763706	29692.892707
485.132489	29135.026020
485.501213	29231.493540
485.869879	29404.944520
486.238487	29325.909310
486.607036	29610.104358
486.975527	29281.058165
487.343959	29635.602515
487.712333	29990.749282
488.080648	29942.886047
488.448905	30382.494827
488.817104	30259.294068
489.185244	31106.117174
489.553326	32055.787379
489.921350	33953.552430
490.289315	36497.152303
490.657222	37424.447347
491.025070	38021.624952
491.392861	37756.553521
491.760593	36980.188103
492.128267	35975.433209
492.495883	34994.550699
492.863440	34090.691979
493.230939	33090.176696
493.598380	32519.422299
493.965763	32358.387680
494.333088	31849.339527
494.700354	31642.470737
495.067563	31604.505808
495.434713	31491.382315
495.801805	31771.299944
496.168839	31606.623092
496.535815	31451.078290
496.902733	31590.453591
497.269593	31403.600703
497.636395	31555.513354
498.003139	31835.511642
498.369825	31588.827819
498.736453	31999.644049
499.103023	31837.374348
499.469535	31941.743877
499.835989	32043.118960
500.202385	31923.900713
500.568723	31969.676910
500.935003	32269.774278
501.301226	32131.389564
501.667390	32871.123438
502.033497	33083.597990
502.399546	32873.780126
502.765537	32473.583087
503.131470	32969.572131
503.497345	33410.388268
503.863163	32324.218739
504.228923	33124.509474
504.594625	33527.811864
504.960269	32992.774042
505.325856	33664.164993
505.691385	33328.693849
506.056856	33664.238090
506.422270	34164.010521
506.787625	33670.476518
507.152924	34148.577028
507.518164	34336.024772
507.883347	33898.064450
508.248472	34048.502563
508.613540	34735.747943
508.978550	34977.803986
509.343503	34812.222247
509.708398	35181.832085
510.073236	35775.082632
510.438016	35876.757663
510.802738	35554.804373
511.167403	36091.515858
511.532010	36363.604576
511.896561	36884.786787
512.261053	37642.918352
512.625488	37426.080681
512.989866	37348.015893
513.354186	37391.437872
513.718449	37365.685137
514.082655	38266.282231
514.446803	37941.468085
514.810894	38592.979247
515.174927	38583.927855
515.538904	38602.403684
515.902822	39234.544212
516.266684	38930.151781
516.630488	39283.196387
516.994235	39301.999891
517.357925	39884.414477
517.721558	40140.497531
518.085133	40535.171986
518.448651	40719.910110
518.812112	40602.801586
519.175516	40764.176482
519.538863	41219.672458
519.902152	41286.984465
520.265385	41829.793226
520.628560	41844.750329
520.991678	41808.222129
521.354739	42017.283820
521.717743	42401.449990
522.080690	42299.142293
522.443580	43016.286757
522.806413	43012.339533
523.169189	43156.897141
523.531908	43375.378228
523.894569	43230.805497
524.257174	43412.075307
524.619722	43772.031336
524.982213	43922.242597
525.344647	43970.554495
525.707025	44095.539822
526.069345	44526.218198
526.431608	44456.504082
526.793815	44846.744842
527.155964	44377.806629
527.518057	44637.705836
527.880093	44487.610521
528.242072	45130.418131
528.603995	44855.834042
528.965860	44759.696718
529.327669	44980.224513
529.689421	45041.136775
530.051117	45025.632707
530.412755	45273.687723
530.774337	45345.448548
531.135862	45279.762313
531.497331	45451.002748
531.858743	45428.758656
532.220098	45850.287338
532.581396	45561.545169
532.942638	45328.792576
533.303824	45593.198574
533.664953	45637.452343
534.026025	45305.630994
534.387040	45879.483181
534.747999	45933.725996
535.108902	46280.252391
535.469748	45589.919304
535.830537	45870.983795
536.191270	46123.202804
536.551947	45859.908380
536.912567	46130.807385
537.273131	46265.645647
537.633638	45898.581592
537.994089	46072.687922
538.354483	45810.706719
538.714821	46469.101576
539.075103	46772.193389
539.435328	46640.904099
539.795497	46376.825775
540.155609	46510.554984
540.515665	47080.293588
540.875665	46387.830614
541.235609	46665.023499
541.595496	46798.283881
541.955328	47379.942294
542.315102	46818.060327
542.674821	46715.182980
543.034483	46612.217413
543.394090	46631.212480
543.753640	46598.142511
544.113134	47665.105243
544.472571	46757.357273
544.831953	47897.789781
545.191278	47159.601021
545.550548	46837.594798
545.909761	47461.964387
546.268918	47629.844893
546.628019	48005.942696
546.987064	47452.597923
547.346053	46776.004501
547.704986	47697.111529
548.063863	47339.955861
548.422684	47534.408289
548.781449	47096.732791
549.140158	47621.015312
549.498811	47373.025831
549.857408	46774.449305
550.215949	47618.424159
550.574434	47448.078529
550.932864	47414.186852
551.291237	48109.150239
551.649555	47857.231178
552.007817	48029.474802
552.366022	47726.670335
552.724173	47805.370308
553.082267	48182.695632
553.440305	48567.441535
553.798288	47806.333168
554.156215	48201.552068
554.514086	48404.559333
554.871902	47984.409407
555.229661	48167.005041
555.587365	47830.795367
555.945014	47949.738872
556.302606	47980.343717
556.660143	48073.025330
557.017625	48302.370104
557.375050	47988.467536
557.732421	48395.502901
558.089735	48451.058937
558.446994	48319.222681
558.804197	48782.489596
559.161345	48653.425975
559.518437	47986.287237
559.875474	48224.575018
560.232455	48446.675653
560.589381	48496.991410
560.946251	48328.795832
561.303065	48975.769955
561.659825	48648.606632
562.016528	48451.661354
562.373177	48027.649904
562.729770	48677.696611
563.086307	48178.145991
563.442789	48734.528058
563.799216	48580.200695
564.155587	48489.777519
564.511904	48431.128735
564.868164	48492.988734
565.224370	48819.358075
565.580520	48524.649700
565.936615	48729.612933
566.292654	48363.357983
566.648638	48725.869877
567.004567	48671.937092
567.360441	48746.941900
567.716260	48456.770564
568.072023	48859.858705
568.427732	48762.924878
568.783385	48262.671017
569.138982	48689.883600
569.494525	48849.852014
569.850013	48457.403229
570.205445	48576.099717
570.560823	48336.954940
570.916145	48206.207574
571.271412	48475.143049
571.626625	48105.230742
571.981782	48172.809929
572.336884	47774.896533
572.691931	48104.550186
573.046923	47734.579905
573.401860	47563.379800
573.756743	47580.544929
574.111570	47732.313906
574.466342	47656.827669
574.821059	47809.723344
575.175722	47275.968496
575.530330	47364.294552
575.884882	47018.531892
576.239380	46917.713856
576.593823	47010.554266
576.948211	46951.524875
577.302544	46484.149420
577.656823	46478.397463
578.011047	46752.684123
578.365216	46589.738908
578.719330	46276.647966
579.073389	46274.502955
579.427394	46309.856567
579.781344	46224.451859
580.135239	45962.947044
580.489080	46036.593261
580.842866	45536.472991
581.196597	46021.222783
581.550273	46008.163674
581.903895	45952.030426
582.257463	46385.814152
582.610975	45812.445917
582.964434	46135.167983
583.317837	45621.025743
583.671186	45591.088851
584.024481	45879.672224
584.377721	45404.006591
584.730906	45628.214429
585.084037	45763.387928
585.437113	45491.213511
585.790135	45610.330936
586.143103	45179.271952
586.496016	45324.134549
586.848874	45444.965966
587.201679	45476.417725
587.554428	44939.008040
587.907124	45229.416310
588.259765	44986.649464
588.612352	45155.578529
588.964884	44596.829640
589.317362	44897.330300
589.669786	44906.734573
590.022155	44781.960974
590.374470	45274.280058
590.726731	44838.222771
591.078937	44167.615719
591.431090	44534.515937
591.783188	44028.893248
592.135232	43842.368035
592.487222	44094.042599
592.839157	44264.350420
593.191038	43910.592490
593.542866	43721.677771
593.894639	43092.304836
594.246358	43403.008792
594.598022	43396.823296
594.949633	42938.789099
595.301190	42934.239457
595.652692	42885.373033
596.004141	43401.083071
596.355535	42263.861778
596.706876	42275.390897
597.058162	42004.890143
597.409395	42499.117304
597.760573	42734.350146
598.111698	42312.524036
598.462768	42228.876170
598.813785	42266.586522
599.164748	41867.851417
599.515657	42139.698159
599.866511	41649.571976
600.217312	42318.633914
600.568060	41276.508947
600.918753	42107.555762
601.269392	42003.438291
601.619978	41742.460277
601.970510	41954.715539
602.320988	42074.702562
602.671412	42352.570962
603.021783	42202.717623
603.372100	41763.060952
603.722363	41880.494631
604.072572	41919.412338
604.422728	41921.022987
604.772830	41678.969465
605.122878	41865.179605
605.472872	41726.031156
605.822813	41968.697179
606.172701	41715.996740
606.522534	42030.877291
606.872314	42232.127714
607.222041	42079.932759
607.571714	42429.569546
607.921333	41888.583162
608.270899	42092.880963
608.620411	42473.546052
608.969870	42230.569998
609.319276	42260.206941
609.668627	42295.096767
610.017926	42669.795650
610.367171	42809.014675
610.716362	42864.923592
611.065500	42761.146399
611.414585	42987.297602
611.763616	43130.209272
612.112594	43041.676528
612.461518	43166.508100
612.810389	43548.773755
613.159207	43324.598685
613.507971	43276.080100
613.856682	43810.898632
614.205340	43631.486487
614.553945	44342.911762
614.902496	43664.695088
615.250994	44087.489099
615.599439	44171.078992
615.947830	44276.113953
616.296169	44263.621974
616.644454	44280.033450
616.992686	44437.236792
617.340864	44876.560746
617.688990	44375.154982
618.037063	45066.350106
618.385082	44882.335388
618.733048	45219.250823
619.080961	45099.430158
619.428821	45137.579090
619.776628	45151.679197
620.124382	44988.655843
620.472083	45105.378719
620.819731	45239.937198
621.167326	44805.833358
621.514868	44817.879195
621.862357	44249.466414
622.209793	44376.508532
622.557176	43930.106797
622.904506	43700.956108
623.251783	43342.454452
623.599007	43001.705219
623.946179	42941.516363
624.293297	42658.722756
624.640363	42103.210287
624.987376	41962.060500
625.334336	41774.958075
625.681243	41359.327543
626.028097	41249.793353
626.374899	41085.000554
626.721647	41040.643441
627.068343	40790.435852
627.414987	40492.503660
627.761577	40244.635167
628.108115	40564.982849
628.454600	39803.909771
628.801032	40026.615345
629.147412	39904.526161
629.493739	39800.927928
629.840014	39339.012043
630.186236	39778.328436
630.532405	39184.629227
630.878521	39425.606463
631.224585	39182.955564
631.570597	38846.410653
631.916556	39031.234477
632.262462	38912.006147
632.608316	38861.478662
632.954117	38717.805778
633.299866	38669.531688
633.645562	38595.086449
633.991206	38081.279446
634.336797	37638.461972
634.682336	37538.258957
635.027823	37310.819739
635.373257	37198.749848
635.718639	36850.206992
636.063968	36755.760974
636.409245	36084.221309
636.754470	36038.301438
637.099642	35804.318803
637.444762	35223.837500
637.789829	35371.530704
638.134845	34998.742419
638.479808	34884.610696
638.824719	34843.116958
639.169577	34325.249306
639.514383	34420.829583
639.859137	34003.129658
640.203839	34177.414949
640.548489	33887.024323
640.893086	33865.014645
641.237632	33576.693413
641.582125	33664.739685
641.926566	33442.901189
642.270955	33480.636747
642.615292	33408.633946
642.959576	33267.010291
643.303809	33288.588950
643.647990	33373.045921
643.992118	33332.704087
644.336195	33153.201201
644.680219	33210.466188
645.024192	33394.765732
645.368112	33931.797331
645.711981	33936.372178
646.055797	34618.004233
646.399562	34390.302876
646.743274	35240.241414
647.086935	35651.443292
647.430544	35609.944514
647.774101	35663.045508
648.117606	35986.889231
648.461059	36127.073637
648.804460	35748.195637
649.147810	35269.686794
649.491108	34952.721725
649.834354	34860.080441
650.177548	34030.596384
650.520690	33511.125645
650.863781	33474.300016
651.206820	33305.363389
651.549807	32882.304717
651.892742	32264.939811
652.235626	32175.555113
652.578458	32024.781763
652.921238	31307.627217
653.263967	31602.993462
653.606644	31285.292384
653.949269	31172.012616
654.291843	30759.502559
654.634365	31107.576588
654.976836	30641.368160
655.319255	30734.430380
655.661622	30590.545767
656.003938	30449.862287
656.346203	30261.088719
656.688416	30498.610244
657.030577	30275.440884
657.372687	30084.481977
657.714746	30225.765354
658.056753	30420.810117
658.398708	29774.907239
658.740612	29836.545427
659.082465	30046.000329
659.424266	29944.441243
659.766016	29926.799725
660.107715	29753.799928
660.449362	29841.798310
660.790958	29794.048501
661.132503	29731.981814
661.473996	29813.209926
661.815438	29880.103517
662.156829	29997.259933
662.498168	29776.797672
662.839456	29730.015764
663.180693	29858.043428
663.521879	29939.647106
663.863013	29875.266530
664.204097	29846.594968
664.545129	30245.030124
664.886110	30173.654947
665.227040	30277.989187
665.567918	30251.770146
665.908746	30303.104216
666.249522	30379.069363
666.590248	30401.726829
666.930922	30488.580869
667.271545	30501.408085
667.612118	30557.175849
667.952639	30365.475892
668.293109	30395.150644
668.633528	30231.129142
668.973896	30193.179336
669.314213	30149.102007
669.654480	29969.788165
669.994695	29950.619177
670.334859	29851.517654
670.674973	29663.454890
671.015035	29829.596197
671.355047	29750.944115
671.695008	29667.996969
672.034918	29553.396419
672.374777	29631.350301
672.714585	29512.187507
673.054342	29637.986980
673.394049	29465.582039
673.733705	29672.634831
674.073310	29377.331600
674.412864	29422.429763
674.752368	29158.159875
675.091820	29397.770958
675.431223	28991.292642
675.770574	28792.772003
676.109875	28620.571229
676.449125	28392.206960
676.788324	28289.342215
677.127473	27809.744482
677.466571	27690.871554
677.805619	27416.728567
678.144616	27345.328184
678.483562	27282.195294
678.822458	26941.294827
679.161303	26875.742183
679.500098	26796.767467
679.838842	26698.593516
680.177535	26735.585503
680.516179	26930.841995
680.854771	26974.498387
681.193314	27618.367159
681.531805	28510.782460
681.870247	29227.929444
682.208638	30005.769400
682.546978	30360.583452
682.885268	30551.718800
683.223508	30145.560597
683.561697	29892.595497
683.899836	29734.056249
684.237925	29309.510437
684.575963	29124.084196
684.913951	28717.568070
685.251889	28843.682616
685.589776	28810.375712
685.927614	28758.436704
686.265401	28929.783003
686.603137	28967.954620
686.940824	29417.002960
687.278460	29692.728870
687.616046	29854.128972
687.953582	30494.917599
688.291068	30402.924103
688.628504	30734.816028
688.965889	30765.786357
689.303224	30534.465451
689.640510	30280.212336
689.977745	29697.654077
690.314930	28995.318003
690.652065	28624.946950
690.989150	27959.537328
691.326185	27167.294795
691.663170	26550.754118
692.000105	25854.497675
692.336990	25259.417190
692.673825	24842.337327
693.010610	24337.861499
693.347345	23842.232897
693.684030	23208.315363
694.020665	23010.787832
694.357251	22345.534485
694.693786	22348.833920
695.030272	22112.139144
695.366707	21604.923450
695.703093	21309.680713
696.039429	21353.624451
696.375716	21108.972214
696.711952	21086.287022
697.048139	20943.148499
697.384276	20752.608008
697.720363	20865.166891
698.056400	20757.734861
698.392388	20580.170299
698.728326	20569.757796
699.064214	20419.259189
699.400053	20439.554874
699.735842	20057.604291
700.071581	19874.461693
700.407270	19651.007507
700.742910	19468.996648
701.078501	19223.066478
701.414042	19028.263690
701.749533	18724.811435
702.084974	18414.896420
702.420366	18630.564543
702.755709	18225.510352
703.091002	17934.303059
703.426246	17973.540880
703.761440	17898.145383
704.096584	17667.752049
704.431679	17591.192046
704.766725	17529.140483
705.101721	17432.370494
705.436668	17533.732974
705.771565	17257.321468
706.106413	17528.976646
706.441212	17590.887056
706.775961	17666.085948
707.110661	17717.530923
707.445311	18048.374288
707.779913	17914.904699
708.114465	18168.517587
708.448967	18453.806566
708.783421	19000.179422
709.117825	19318.845880
709.452180	19487.621191
709.786485	19886.341172
710.120742	20546.497912
710.454949	20617.759663
710.789107	21073.172460
711.123216	21711.319522
711.457275	21913.396695
711.791286	22422.671701
712.125247	22571.481521
712.459159	22366.908977
712.793023	23090.259102
713.126837	22171.765912
713.460602	22426.019027
713.794318	22132.638996
714.127985	21898.618552
714.461602	21081.933985
714.795171	21088.600911
715.128691	20170.238792
715.462162	19676.737557
715.795584	19265.099619
716.128957	19017.500827
716.462281	18659.092432
716.795556	18387.205362
717.128782	17932.319365
717.461960	17345.299685
717.795088	17314.778019
718.128167	16994.921848
718.461198	16572.367292
718.794180	16453.454034
719.127113	16135.082484
719.459997	15955.503981
719.792833	15584.742239
720.125619	15621.988804
720.458357	15292.110820
720.791046	15166.228167
721.123686	15001.629453
721.456278	14781.114260
721.788821	14771.873825
722.121315	14516.108364
722.453761	14599.554584
722.786158	14489.299508
723.118506	14551.401482
723.450805	14429.700467
723.783056	14575.052056
724.115259	14465.543071
724.447412	14423.877934
724.779518	14615.638385
725.111574	14646.828004
725.443582	14865.460326
725.775542	14808.195339
726.107453	15257.815850
726.439315	15151.555889
726.771129	15491.039792
727.102895	15849.014647
727.434612	16082.793115
727.766281	16240.472846
728.097901	16531.831374
728.429473	16607.824247
728.760996	16632.273843
729.092471	16735.481386
729.423897	16628.742515
729.755276	16485.089795
730.086606	16553.588994
730.417887	17012.240732
730.749120	17481.115931
731.080305	17683.089760
731.411442	18052.389567
731.742530	18164.940888
732.073570	18287.975289
732.404562	18579.137212
732.735506	18494.967587
733.066401	18372.338999
733.397249	17990.703488
733.728048	17442.145291
734.058798	16687.736618
734.389501	16015.944895
734.720156	15536.412697
735.050762	15000.583413
735.381320	14624.359581
735.711831	14342.072610
736.042293	13998.248274
736.372707	14004.277494
736.703073	13797.761585
737.033391	13942.099902
737.363661	13902.829314
737.693883	13982.882837
738.024056	14133.575528
738.354182	14298.370847
738.684260	14581.650926
739.014290	14804.585873
739.344272	14993.341796
739.674207	15290.059070
740.004093	15450.302228
740.333931	15506.881618
740.663722	15577.977010
740.993464	15627.397962
741.323159	15521.838721
741.652806	15268.583755
741.982405	15128.351458
742.311956	14816.495598
742.641460	14729.243308
742.970915	14442.557930
743.300323	14139.259429
743.629683	13944.396148
743.958996	13670.669056
744.288260	13387.197413
744.617477	13095.954832
744.946647	13057.858832
745.275768	12767.203546
745.604842	12570.250706
745.933869	12402.518915
746.262847	12364.843851
746.591778	12262.387441
746.920662	12144.265644
747.249498	12132.973460
747.578286	12239.485479
747.907027	12368.710416
748.235720	12600.419491
748.564365	12664.427022
748.892963	12594.574273
749.221514	12689.524406
749.550017	12575.526273
749.878473	12550.675906
750.206881	12354.617871
750.535242	12285.854012
750.863555	12203.413502
751.191821	12111.732558
751.520039	12106.646034
751.848210	12031.137111
752.176334	12061.134497
752.504411	11983.198258
752.832440	11832.109836
753.160421	11923.276583
753.488356	11822.655152
753.816243	11747.355437
754.144082	11604.398397
754.471875	11549.412011
754.799620	11509.912050
755.127318	11474.500465
755.454969	11461.300203
755.782572	11423.967939
756.110129	11441.806062
756.437638	11348.143944
756.765100	11343.700167
757.092515	11359.237003
757.419882	11364.608352
757.747203	11361.034174
758.074477	11427.597569
758.401703	11396.160934
758.728882	11538.969261
759.056014	11570.143756
759.383099	11692.865605
759.710138	11797.101543
760.037129	11901.592060
760.364073	11949.346910
760.690970	11968.836011
761.017820	11975.177782
761.344623	12114.704318
761.671379	12388.592727
761.998088	12831.934482
762.324751	13994.714425
762.651366	16359.963316
762.977935	19981.689556
763.304456	22772.583230
763.630931	24214.494383
763.957359	23613.941725
764.283740	21922.324578
764.610074	20116.648806
764.936362	17900.923059
765.262602	16285.823066
765.588796	14632.337207
765.914943	13488.819513
766.241044	12483.920946
766.567097	11773.576999
766.893104	11154.641774
767.219064	10748.670093
767.544978	10320.540020
767.870845	9974.056475
768.196665	9777.040621
768.522438	9574.096370
768.848165	9395.631962
769.173846	9219.531856
769.499479	9097.072146
769.825066	8954.001680
770.150607	8764.451774
770.476101	8686.916308
770.801548	8580.769772
771.126949	8448.948640
771.452303	8345.985594
771.777611	8178.457969
772.102872	8166.966659
772.428087	8044.121301
772.753256	7918.846108
773.078378	7841.509767
773.403453	7681.266609
773.728482	7579.901608
774.053465	7514.911053
774.378401	7424.253463
774.703291	7323.027093
775.028135	7220.694191
775.352932	7187.064654
775.677683	7098.121056
776.002388	7004.358115
776.327046	7003.511201
776.651658	6930.230468
776.976224	6837.543813
777.300743	6838.617579
777.625216	6766.990345
777.949643	6723.502831
778.274024	6730.648667
778.598359	6660.027142
778.922647	6663.964284
779.246889	6623.733355
779.571086	6622.543643
779.895236	6620.464167
780.219339	6623.153623
780.543397	6622.364682
780.867409	6681.326018
781.191374	6693.228182
781.515294	6663.235837
781.839167	6730.568008
782.162995	6709.246448
782.486776	6668.733215
782.810511	6631.390868
783.134201	6555.314815
783.457844	6549.830040
783.781441	6505.230952
784.104993	6454.317819
784.428498	6429.036432
784.751958	6412.330048
785.075372	6387.625874
785.398739	6338.320869
785.722061	6365.878336
786.045337	6359.579414
786.368568	6466.416588
786.691752	6463.109591
787.014891	6690.271545
787.337983	6926.137051
787.661030	7363.252981
787.984031	7861.402160
788.306987	8209.506436
788.629897	8423.513499
788.952760	8432.842154
789.275579	8285.743805
789.598351	7985.114596
789.921078	7713.845066
790.243759	7377.753860
790.566395	7136.365769
790.888984	6938.845800
791.211529	6769.349605
791.534027	6585.453354
791.856480	6417.305667
792.178888	6348.866962
792.501249	6266.451659
792.823566	6137.072966
793.145836	6129.596935
793.468062	6100.219611
793.790241	6049.291354
794.112375	6092.035297
794.434464	6199.981525
794.756507	6216.640018
795.078505	6314.927394
795.400457	6530.298089
795.722364	6790.761906
796.044226	7015.612491
796.366042	7245.912563
796.687812	7231.268011
797.009538	7308.243910
797.331218	7228.200469
797.652852	7173.299783
797.974442	7050.076339
798.295986	6988.049982
798.617484	6840.366860
798.938938	6730.079016
799.260346	6651.782335
799.581709	6490.604044
799.903026	6422.409835
800.224299	6344.216498
800.545526	6211.306477
800.866708	6124.719618
801.187845	6076.984933
801.508936	5992.598538
801.829983	5951.871056
802.150984	5838.571123
802.471940	5803.552748
802.792851	5781.346465
803.113717	5754.930819
803.434538	5728.487447
803.755314	5682.973389
804.076045	5680.646897
804.396731	5631.722499
804.717372	5644.907637
805.037967	5645.512575
805.358518	5673.359909
805.679024	5728.908383
805.999485	5727.879988
806.319901	5759.707313
806.640272	5772.068222
806.960598	5831.321944
807.280879	5834.802861
807.601115	5892.582046
807.921306	5852.184759
808.241453	5861.364700
808.561554	5876.561259
808.881611	5851.224419
809.201623	5853.215675
809.521590	5819.959183
809.841513	5802.239528
810.161390	5825.212066
810.481223	5727.353187
810.801011	5711.944900
811.120755	5692.589390
811.440453	5628.796109
811.760107	5601.957006
812.079716	5576.083284
812.399281	5529.997055
812.718801	5512.617677
813.038276	5485.576928
813.357707	5434.250420
813.677093	5456.784378
813.996434	5383.334766
814.315731	5410.002470
814.634983	5399.615173
814.954191	5404.673971
815.273354	5477.536288
815.592473	5512.864694
815.911547	5599.534731
816.230577	5655.975490
816.549562	5757.043063
816.868502	5833.784548
817.187399	5906.508233
817.506250	5997.985011
817.825058	6019.230954
818.143821	6198.169230
818.462539	6365.679211
818.781213	6597.610096
819.099843	6951.720907
819.418429	7626.900286
819.736970	8292.516595
820.055466	9108.334084
820.373919	10103.742678
820.692327	11556.681355
821.010691	13982.272857
821.329011	19545.904491
821.647286	28649.318409
821.965517	40078.987892
822.283704	47800.661870
822.601847	52049.520252
822.919945	49042.396365
823.237999	44445.350529
823.556010	38912.606045
823.873976	33505.779501
824.191897	28422.002699
824.509775	24666.683362
824.827609	21083.095971
825.145398	18893.256549
825.463144	17559.072334
825.780845	17401.556441
826.098502	18295.819325
826.416116	20729.083463
826.733685	23480.620850
827.051210	24842.208777
827.368692	24148.566172
827.686129	21528.376049
828.003522	18548.955824
828.320872	15766.511123
828.638177	13664.914578
828.955439	12017.523475
829.272656	10666.887454
829.589830	9567.159742
829.906960	8603.006302
830.224046	7866.685289
830.541088	7269.021212
830.858086	6895.912813
831.175041	6585.561738
831.491952	6460.621782
831.808819	6440.583195
832.125642	6637.815819
832.442421	7125.930581
832.759157	8189.954320
833.075849	10028.745433
833.392497	12283.852674
833.709101	14093.798304
834.025662	14395.032452
834.342179	13481.051095
834.658653	11971.472534
834.975083	10576.842364
835.291469	9402.939115
835.607811	8417.217098
835.924110	7738.874395
836.240366	7099.131807
836.556578	6518.345514
836.872746	6039.839191
837.188871	5656.318288
837.504952	5342.874466
837.820990	5099.638793
838.136984	4924.264612
838.452935	4838.247404
838.768842	4815.983148
839.084706	5010.687633
839.400526	5696.869330
839.716303	6763.438852
840.032037	7663.005029
840.347727	7850.851025
840.663373	7281.944210
840.978977	6538.590787
841.294537	5937.677687
841.610054	5489.614892
841.925527	5176.982695
842.240957	4911.818003
842.556344	4673.230274
842.871687	4470.878358
843.186987	4262.330865
843.502244	4098.513530
843.817458	3971.360506
844.132629	3868.924260
844.447756	3797.435657
844.762840	3741.010022
845.077881	3683.220755
845.392879	3640.199548
845.707833	3605.145885
846.022745	3569.764547
846.337613	3550.109088
846.652438	3517.129859
846.967221	3506.253570
847.281960	3480.394971
847.596656	3471.557829
847.911309	3451.536886
848.225919	3435.314453
848.540485	3424.352464
848.855009	3414.824683
849.169490	3398.508989
849.483928	3389.878533
849.798323	3384.807133
850.112675	3369.643342
850.426984	3372.133672
850.741251	3362.752085
851.055474	3358.825026
851.369654	3358.658668
851.683792	3355.512988
851.997887	3359.956765
852.311938	3359.810571
852.625947	3364.264431
852.939914	3354.197247
853.253837	3361.728730
853.567718	3358.399048
853.881555	3351.976618
854.195350	3358.638503
854.509103	3356.455683
854.822812	3351.454859
855.136479	3349.536700
855.450103	3355.709593
855.763685	3342.000175
856.077224	3339.406501
856.390720	3355.066846
856.704173	3359.175386
857.017584	3371.977396
857.330953	3380.058366
857.644278	3395.075963
857.957561	3397.934297
858.270802	3399.386150
858.584000	3403.474525
858.897155	3393.732496
859.210268	3385.797719
859.523339	3369.199720
859.836367	3368.446068
860.149352	3362.774770
860.462295	3358.777135
860.775195	3349.551823
861.088054	3343.096626
861.400869	3342.600072
861.713642	3340.185359
862.026373	3347.091740
862.339062	3348.142821
862.651708	3360.728061
862.964312	3381.139693
863.276873	3384.996176
863.589392	3420.609407
863.901869	3452.051084
864.214303	3479.628716
864.526696	3501.703929
864.839045	3536.601316
865.151353	3552.107905
865.463619	3556.755849
865.775842	3559.157959
866.088023	3572.280082
866.400162	3564.776325
866.712258	3571.324784
867.024313	3570.508117
867.336325	3568.388312
867.648296	3570.437541
867.960224	3567.748085
868.272110	3576.965835
868.583954	3574.939291
868.895755	3580.492122
869.207515	3578.677307
869.519233	3607.858026
869.830909	3614.668625
870.142542	3624.849235
870.454134	3637.139568
870.765684	3654.803771
871.077191	3677.955270
871.388657	3687.823329
871.700081	3715.622772
872.011463	3737.554311
872.322803	3758.525511
872.634101	3781.341774
872.945357	3812.087771
873.256571	3841.848223
873.567744	3865.544166
873.878874	3877.345507
874.189963	3903.131009
874.501010	3908.865322
874.812015	3908.121752
875.122979	3929.864248
875.433900	3928.394752
875.744780	3934.066050
876.055618	3946.414356
876.366415	3945.922844
876.677169	3955.957261
876.987882	3983.993638
877.298554	4009.811907
877.609183	4049.818504
877.919771	4109.546095
878.230317	4189.244217
878.540822	4311.323319
878.851285	4484.824711
879.161707	4741.306015
879.472087	5160.702289
879.782425	5833.537531
880.092722	7065.678710
880.402977	9086.760466
880.713191	11657.506952
881.023363	14444.042549
881.333494	16357.861154
881.643583	17433.837470
881.953631	17499.942120
882.263637	16915.274138
882.573602	15896.156997
882.883526	14828.286857
883.193408	13693.644114
883.503248	12549.193806
883.813048	11512.979592
884.122806	10555.488036
884.432522	9557.916787
884.742197	8694.576341
885.051831	7924.988754
885.361424	7211.562141
885.670975	6638.745912
885.980485	6156.362941
886.289954	5758.343680
886.599382	5434.865441
886.908768	5173.355585
887.218113	4924.766207
887.527417	4731.279160
887.836680	4548.476840
888.145901	4401.524684
888.455082	4291.907315
888.764221	4184.956715
889.073319	4095.556893
889.382376	4042.478584
889.691392	3997.992922
890.000366	3978.493739
890.309300	3966.394970
890.618193	3964.007983
890.927044	3955.145635
891.235855	3965.908498
891.544625	3978.574397
891.853353	4013.186960
892.162041	4069.093356
892.470687	4173.946835
892.779293	4314.413546
893.087858	4519.691851
893.396381	4845.670503
893.704864	5299.550789
894.013306	5981.170242
894.321707	6734.968936
894.630068	7329.628484
894.938387	7555.681385
895.246665	7460.907692
895.554903	7115.450022
895.863100	6677.088928
896.171256	6318.862015
896.479371	6003.326113
896.787446	5687.860788
897.095480	5410.925001
897.403473	5205.155184
897.711425	5000.398638
898.019336	4831.101568
898.327207	4654.494826
898.635038	4511.991489
898.942827	4345.638453
899.250576	4218.843351
899.558284	4091.549176
899.865952	4013.479347
900.173579	3916.043925
900.481165	3847.877443
900.788711	3788.626241
901.096216	3736.059609
901.403681	3695.821119
901.711105	3671.212727
902.018489	3655.927948
902.325832	3684.569264
902.633135	3736.220926
902.940397	3900.454157
903.247619	4292.441677
903.554800	5091.164613
903.861941	6283.178207
904.169041	7354.146136
904.476101	7947.585726
904.783121	7850.503185
905.090100	7405.429794
905.397039	6871.672425
905.703938	6386.506738
906.010796	5945.834274
906.317614	5597.409885
906.624391	5250.802832
906.931129	4984.776102
907.237826	4726.422009
907.544483	4486.407633
907.851099	4251.628495
908.157675	4018.722147
908.464211	3798.287612
908.770707	3637.497490
909.077163	3498.948938
909.383578	3399.156777
909.689954	3322.271619
909.996289	3273.216151
910.302584	3226.754357
910.608839	3208.389433
910.915054	3183.755835
911.221229	3175.500946
911.527363	3175.861388
911.833458	3185.162317
912.139513	3196.288143
912.445527	3208.996892
912.751502	3253.318717
913.057436	3309.996410
913.363331	3380.307903
913.669186	3488.314624
913.975000	3623.170531
914.280775	3849.369624
914.586510	4170.770908
914.892205	4618.798415
915.197859	5235.502930
915.503475	5986.720553
915.809050	6700.096754
916.114585	7176.684918
916.420081	7411.481699
916.725536	7439.109743
917.030952	7187.510796
917.336328	6938.586181
917.641665	6698.352515
917.946961	6396.770527
918.252218	6131.941071
918.557435	5813.977854
918.862612	5551.028749
919.167750	5317.162060
919.472848	5049.093663
919.777906	4816.036080
920.082925	4585.491512
920.387904	4350.336808
920.692843	4174.087988
920.997743	4014.369110
921.302603	3862.320348
921.607423	3755.115171
921.912204	3651.022906
922.216946	3579.204107
922.521647	3499.143023
922.826310	3435.516099
923.130932	3378.480485
923.435516	3318.515960
923.740059	3271.948301
924.044564	3228.722927
924.349028	3193.087011
924.653454	3155.147287
924.957840	3110.714557
925.262186	3081.541400
925.566493	3047.969836
925.870761	3011.915503
926.174989	2993.774911
926.479178	2969.847074
926.783328	2941.924123
927.087438	2925.646238
927.391509	2903.298803
927.695541	2886.655433
927.999533	2869.669265
928.303486	2856.370701
928.607400	2848.498940
928.911275	2838.008298
929.215110	2825.982626
929.518906	2820.114723
929.822663	2817.586584
930.126381	2818.496512
930.430060	2818.637665
930.733699	2818.972902
931.037299	2828.969510
931.340861	2822.831905
931.644383	2829.382884
931.947866	2829.614777
932.251309	2826.174190
932.554714	2825.438181
932.858080	2820.379383
933.161407	2818.801502
933.464694	2812.424443
933.767943	2809.165337
934.071153	2808.946047
934.374323	2800.630663
934.677455	2798.823410
934.980548	2791.896864
935.283602	2790.984415
935.586617	2786.031482
935.889593	2793.041206
936.192530	2791.642286
936.495428	2797.739562
936.798287	2804.444296
937.101108	2820.888540
937.403890	2847.440297
937.706632	2880.280894
938.009336	2924.988367
938.312002	2966.890438
938.614628	3009.215965
938.917216	3040.239226
939.219765	3057.946279
939.522275	3078.289855
939.824747	3084.099785
940.127179	3079.804722
940.429573	3077.022005
940.731929	3080.981832
941.034246	3071.950604
941.336524	3067.791653
941.638763	3059.768656
941.940964	3052.592574
942.243126	3031.087011
942.545250	3019.595701
942.847335	2997.432268
943.149381	2974.006026
943.451389	2959.202678
943.753359	2937.891200
944.055290	2920.531987
944.357182	2907.735018
944.659036	2896.203378
944.960851	2890.078377
945.262628	2881.309289
945.564367	2883.348436
945.866067	2878.340050
946.167729	2876.144627
946.469352	2875.764020
946.770937	2871.814276
947.072484	2862.732638
947.373992	2865.797659
947.675462	2859.357585
947.976893	2848.473734
948.278286	2843.472909
948.579641	2839.455110
948.880958	2835.512927
949.182236	2836.909327
949.483476	2833.980417
949.784678	2832.508400
950.085841	2827.860456
950.386967	2833.945128
950.688054	2843.828311
950.989103	2854.681915
951.290114	2864.265148
951.591087	2881.730226
951.892021	2895.931156
952.192917	2913.948240
952.493776	2927.576999
952.794596	2938.481015
953.095378	2941.782971
953.396122	2940.613423
953.696828	2939.902621
953.997496	2933.684357
954.298126	2921.202460
954.598718	2909.428846
954.899272	2897.395611
955.199788	2883.182078
955.500266	2865.023842
955.800706	2844.818897
956.101108	2823.560352
956.401472	2806.047383
956.701798	2788.231945
957.002087	2763.651279
957.302337	2747.063362
957.602550	2733.623646
957.902724	2715.798126
958.202861	2700.256249
958.502960	2689.992460
958.803022	2676.225069
959.103045	2661.706546
959.403031	2653.867551
959.702979	2646.174751
960.002889	2639.038997
960.302762	2630.781587
960.602596	2624.084414
960.902393	2618.786162
961.202153	2612.154524
961.501875	2608.003134
961.801559	2600.867380
962.101205	2598.510641
962.400814	2596.595002
962.700385	2594.218098
962.999918	2588.556883
963.299414	2581.877354
963.598873	2582.825091
963.898293	2578.976170
964.197677	2578.855182
964.497022	2578.371231
964.796331	2576.609348
965.095601	2575.142372
965.394835	2575.439800
965.694030	2574.789492
965.993189	2570.832186
966.292309	2568.992165
966.591393	2568.823286
966.890439	2571.106929
967.189447	2567.963769
967.488419	2569.342525
967.787353	2572.223544
968.086249	2572.052145
968.385108	2573.491394
968.683930	2572.135324
968.982714	2574.184553
969.281462	2578.091447
969.580172	2577.166396
969.878844	2583.291397
970.177480	2584.947417
970.476078	2592.073088
970.774639	2593.802203
971.073162	2599.649942
971.371649	2601.484922
971.670098	2605.028853
971.968510	2608.194697
972.266885	2612.169647
972.565223	2615.718620
972.863524	2614.947323
973.161788	2615.721140
973.460014	2621.089969
973.758204	2621.848663
974.056356	2621.531070
974.354471	2623.756739
974.652550	2621.747840
974.950591	2623.219857
975.248595	2623.050978
975.546563	2621.863786
975.844493	2619.169289
976.142386	2616.348764
976.440243	2612.701489
976.738062	2610.213680
977.035845	2607.940119
977.333590	2600.811928
977.631299	2597.502410
977.928971	2595.790938
978.226606	2591.042172
978.524204	2591.566452
978.821765	2584.440781
979.119290	2590.974116
979.416777	2587.934300
979.714228	2590.293560
980.011642	2590.389342
980.309020	2595.992585
980.606360	2601.358893
980.903664	2614.468413
981.200931	2630.791670
981.498162	2654.419558
981.795356	2695.131916
982.092513	2746.314751
982.389633	2807.325316
982.686717	2868.565253
982.983764	2918.588622
983.280775	2961.675364
983.577749	2969.290027
983.874686	2963.293574
984.171587	2941.293979
984.468451	2919.891760
984.765279	2899.701939
985.062070	2871.690768
985.358824	2847.553723
985.655543	2811.943012
985.952224	2784.423354
986.248869	2745.356932
986.545478	2709.564740
986.842050	2673.568381
987.138586	2644.498567
987.435086	2620.001080
987.731549	2600.585076
988.027975	2586.956316
988.324366	2575.036508
988.620719	2565.937225
988.917037	2554.743343
989.213318	2553.049516
989.509563	2547.191695
989.805772	2545.046684
990.101944	2541.016281
990.398080	2540.207176
990.694180	2539.259439
990.990244	2541.195242
991.286271	2537.870601
991.582262	2539.778678
991.878217	2539.997968
992.174136	2542.821014
992.470019	2542.006868
992.765865	2543.632640
993.061676	2545.976777
993.357450	2551.181768
993.653188	2551.706048
993.948890	2563.489745
994.244556	2571.958884
994.540186	2585.065884
994.835780	2605.971549
995.131337	2626.128602
995.426859	2648.324803
995.722345	2679.648012
996.017795	2707.918803
996.313208	2730.311608
996.608586	2744.908269
996.903928	2759.020979
997.199234	2760.036772
997.494504	2759.877976
997.789738	2751.807088
998.084936	2739.282342
998.380099	2719.281564
998.675225	2706.212372
998.970316	2687.771832
999.265371	2665.409273
999.560390	2645.809267
999.855373	2628.019035
1000.150320	2607.604882
1000.445232	2593.870259
1000.740108	2582.550348
1001.034948	2570.774212
1001.329752	2562.146278
1001.624521	2552.752088
1001.919254	2545.835624
1002.213951	2540.544933
1002.508613	2535.229037
1002.803239	2530.787780
1003.097829	2526.210413
1003.392384	2524.317459
1003.686903	2521.819568
1003.981386	2520.776049
1004.275834	2520.768487
1004.570246	2518.484844
1004.864623	2516.468383
1005.158964	2513.627693
1005.453270	2511.598628
1005.747540	2513.662981
1006.041775	2514.149452
1006.335974	2508.694923
1006.630138	2508.924296
1006.924266	2509.950171
1007.218359	2507.149810
1007.512416	2506.749038
1007.806438	2504.369613
1008.100425	2506.224758
1008.394376	2503.588235
1008.688292	2508.790705
1008.982172	2507.192660
1009.276017	2505.776095
1009.569827	2508.339522
1009.863602	2506.665859
1010.157341	2504.440190
1010.451045	2505.937412
1010.744714	2503.421877
1011.038347	2502.516989
1011.331945	2504.220899
1011.625508	2504.926661
1011.919036	2503.850375
1012.212528	2502.239726
1012.505986	2502.617813
1012.799408	2499.192348
1013.092795	2501.813748
1013.386147	2500.775271
1013.679464	2500.863491
1013.972745	2498.443737
1014.265992	2500.724859
1014.559204	2499.890548
1014.852380	2497.337204
1015.145521	2499.691423
1015.438628	2500.765188
1015.731699	2498.042965
1016.024736	2498.312667
1016.317737	2501.392812
1016.610703	2498.012718
1016.903635	2501.836434
1017.196531	2501.211331
1017.489393	2503.232833
1017.782219	2503.545385
1018.075011	2502.844664
1018.367768	2504.916579
1018.660490	2503.038749
1018.953177	2503.038749
1019.245829	2503.038749
