Dividing Wavelength (nm)	Counts (n)	Blue Motor Position (mm): 0.000000	Red Motor Position (mm): 7.500000	
326.493990	2053.534184
326.888308	2053.534184
327.282561	2053.534184
327.676750	2032.094157
328.070874	2031.965607
328.464933	2038.582122
328.858929	2043.698893
329.252859	2057.136088
329.646726	2067.614127
330.040528	2089.775039
330.434265	2100.454723
330.827938	2122.202261
331.221547	2143.024747
331.615091	2163.955618
332.008571	2183.931190
332.401986	2203.654704
332.795338	2224.363764
333.188625	2244.966960
333.581847	2264.357758
333.975006	2281.918618
334.368100	2296.805145
334.761129	2315.096972
335.154095	2330.411997
335.546996	2345.429594
335.939833	2359.471728
336.332606	2371.257946
336.725315	2383.457538
337.117960	2396.950187
337.510540	2404.136352
337.903056	2413.059194
338.295508	2419.073290
338.687896	2426.453540
339.080220	2431.076278
339.472480	2438.524583
339.864676	2438.658173
340.256807	2440.833431
340.648875	2446.149328
341.040879	2447.041612
341.432818	2448.211160
341.824694	2451.228290
342.216506	2450.991356
342.608253	2450.363732
342.999937	2450.419185
343.391557	2449.879782
343.783113	2448.858948
344.174605	2443.248144
344.566033	2445.289811
344.957397	2444.054728
345.348697	2442.154213
345.739934	2437.037442
346.131106	2437.191197
346.522215	2434.605085
346.913260	2432.686926
347.304241	2433.410332
347.695159	2430.168870
348.086012	2429.168201
348.476802	2428.091915
348.867528	2423.643096
349.258191	2420.472211
349.648789	2420.948600
350.039324	2416.066242
350.429796	2421.838363
350.820203	2418.586819
351.210548	2424.628642
351.600828	2420.270564
351.991045	2421.853487
352.381198	2418.672519
352.771288	2417.860893
353.161314	2417.074473
353.551276	2419.249731
353.941175	2419.169072
354.331010	2416.356108
354.720782	2417.165214
355.110490	2419.191758
355.500135	2416.915677
355.889717	2417.213105
356.279235	2419.612694
356.668689	2417.374422
357.058080	2419.456418
357.447408	2419.413568
357.836672	2419.768970
358.225873	2422.355082
358.615010	2419.940369
359.004084	2424.684095
359.393095	2421.082190
359.782043	2421.782911
360.170927	2422.153435
360.559748	2423.272572
360.948505	2426.239291
361.337199	2427.552511
361.725830	2426.750968
362.114398	2426.350196
362.502903	2425.810793
362.891344	2424.868097
363.279722	2427.791966
363.668037	2430.408325
364.056289	2426.332552
364.444478	2427.630649
364.832603	2425.679722
365.220665	2430.985537
365.608665	2431.333377
365.996601	2431.255239
366.384474	2428.928746
366.772284	2433.284303
367.160031	2433.271700
367.547715	2430.431010
367.935336	2432.964190
368.322893	2427.328180
368.710388	2430.884714
369.097820	2429.994950
369.485189	2430.804055
369.872495	2434.922678
370.259738	2433.208686
370.646918	2433.637184
371.034035	2434.547112
371.421090	2436.190528
371.808081	2436.132555
372.195010	2437.392843
372.581875	2439.043821
372.968678	2440.997268
373.355418	2441.012392
373.742096	2441.763524
374.128710	2444.982301
374.515262	2446.295521
374.901751	2447.883485
375.288177	2451.487910
375.674540	2458.933694
376.060841	2459.442850
376.447079	2462.903602
376.833254	2467.392750
377.219367	2475.877012
377.605417	2477.727115
377.991404	2481.712147
378.377329	2492.205309
378.763191	2499.819972
379.148991	2506.204593
379.534727	2511.712054
379.920402	2520.841584
380.306013	2525.945752
380.691563	2541.727084
381.077049	2549.200595
381.462474	2558.526729
381.847835	2570.822103
382.233134	2579.762590
382.618371	2590.354054
383.003545	2605.938781
383.388657	2614.685183
383.773706	2631.752009
384.158693	2638.620582
384.543618	2653.577685
384.928480	2661.656134
385.313280	2677.679442
385.698017	2689.667305
386.082692	2705.448637
386.467305	2713.161603
386.851856	2730.929150
387.236344	2746.266860
387.620770	2750.506471
388.005133	2763.190014
388.389435	2780.080400
388.773674	2785.187088
389.157851	2806.077630
389.541965	2814.125832
389.926018	2819.109013
390.310008	2832.480673
390.693936	2843.712364
391.077802	2851.697552
391.461606	2862.523430
391.845348	2866.110211
392.229027	2873.351828
392.612645	2889.392780
392.996200	2892.669530
393.379694	2908.392888
393.763125	2916.403282
394.146494	2916.201636
394.529801	2923.178593
394.913047	2933.782660
395.296230	2920.068201
395.679351	2915.228693
396.062410	2926.268820
396.445408	2898.474418
396.828343	2900.722773
397.211217	2898.136661
397.594028	2869.911241
397.976778	2872.028525
398.359466	2865.129706
398.742092	2852.569671
399.124656	2838.214986
399.507158	2839.724811
399.889598	2824.258551
400.271977	2824.840805
400.654294	2801.679223
401.036549	2800.698719
401.418742	2779.704834
401.800874	2778.991510
402.182944	2766.862494
402.564952	2765.904675
402.946898	2748.159813
403.328783	2729.016032
403.710606	2718.154866
404.092367	2714.958774
404.474067	2705.483926
404.855705	2688.570854
405.237282	2666.767864
405.618797	2664.811896
406.000250	2659.990033
406.381642	2650.976450
406.762972	2631.726804
407.144240	2617.588888
407.525447	2607.786364
407.906593	2594.593664
408.287677	2592.796493
408.668700	2580.526325
409.049661	2575.061714
409.430560	2563.777091
409.811399	2554.299722
410.192176	2546.213711
410.572891	2541.603576
410.953545	2537.542926
411.334138	2525.275278
411.714669	2523.568848
412.095139	2513.186592
412.475547	2509.793895
412.855894	2503.361383
413.236180	2502.965652
413.616405	2492.696822
413.996568	2496.616319
414.376670	2490.014928
414.756711	2487.464104
415.136691	2482.052425
415.516609	2482.259113
415.896466	2481.293732
416.276262	2479.047898
416.655997	2477.182671
417.035670	2478.647126
417.415283	2478.425315
417.794834	2474.417598
418.174324	2475.093113
418.553753	2467.566670
418.933121	2474.220993
419.312428	2472.917855
419.691674	2470.425004
420.070859	2471.972638
420.449983	2468.806794
420.829045	2469.162195
421.208047	2469.275621
421.586988	2468.479119
421.965867	2468.590024
422.344686	2469.232771
422.723444	2469.625981
423.102141	2468.048100
423.480777	2469.671352
423.859352	2466.250929
424.237866	2465.698922
424.616319	2467.392750
424.994712	2468.426187
425.373044	2468.577421
425.751314	2465.721608
426.129524	2463.886627
426.507673	2468.350569
426.885762	2462.885958
427.263789	2466.626495
427.641756	2465.429221
428.019662	2469.540282
428.397508	2465.865280
428.775292	2468.322843
429.153016	2465.565332
429.530679	2467.604478
429.908282	2466.364355
430.285824	2468.080868
430.663305	2467.561629
431.040726	2469.073975
431.418086	2467.375106
431.795385	2469.676393
432.172624	2468.065744
432.549802	2469.837710
432.926920	2469.000878
433.303977	2466.371916
433.680974	2468.169088
434.057910	2467.980044
434.434786	2469.936012
434.811601	2470.513224
435.188355	2472.305354
435.565050	2470.011629
435.941683	2470.722432
436.318257	2468.824438
436.694770	2472.817032
437.071222	2471.526496
437.447614	2469.386526
437.823946	2468.970631
438.200218	2472.154120
438.576429	2470.266208
438.952580	2470.636733
439.328670	2468.216979
439.704700	2473.210242
440.080670	2470.777885
440.456580	2473.381641
440.832429	2471.357618
441.208218	2469.903245
441.583947	2473.593369
441.959616	2471.723101
442.335224	2471.745786
442.710773	2473.961373
443.086261	2473.376600
443.461689	2471.153451
443.837057	2474.838534
444.212365	2473.696713
444.587612	2472.910293
444.962800	2471.796198
445.337927	2470.772844
445.712995	2465.797225
446.088002	2475.398102
446.462949	2470.354428
446.837837	2474.473051
447.212664	2473.979018
447.587431	2475.771148
447.962139	2475.196456
448.336786	2479.683083
448.711374	2480.466982
449.085901	2477.094451
449.460369	2475.153606
449.834776	2478.170737
450.209124	2477.890953
450.583412	2477.729636
450.957640	2478.266519
451.331808	2478.145531
451.705917	2477.391879
452.079965	2478.513535
452.453954	2477.527990
452.827883	2479.206694
453.201752	2476.560088
453.575562	2479.133597
453.949311	2478.190902
454.323001	2477.790130
454.696632	2475.952629
455.070202	2478.568988
455.443713	2479.766262
455.817164	2482.523773
456.190556	2480.043526
456.563888	2480.497229
456.937160	2480.149390
457.310373	2480.744246
457.683526	2482.196098
458.056619	2482.937148
458.429653	2481.477734
458.802628	2483.080821
459.175542	2478.957157
459.548398	2484.434371
459.921194	2482.233907
460.293930	2483.423619
460.666607	2482.947230
461.039224	2483.504278
461.411782	2485.407313
461.784280	2484.782210
462.156719	2485.094762
462.529099	2485.077118
462.901419	2485.026706
463.273680	2480.267857
463.645882	2478.200984
464.018024	2482.367497
464.390106	2480.018320
464.762130	2482.808598
465.134094	2488.016110
465.505999	2491.887717
465.877845	2492.028869
466.249631	2496.455002
466.621358	2493.483242
466.993026	2493.432830
467.364634	2494.909888
467.736184	2491.723879
468.107674	2489.457880
468.479105	2488.857983
468.850477	2487.854793
469.221790	2487.713641
469.593043	2489.329331
469.964238	2487.320431
470.335373	2485.835811
470.706449	2489.047026
471.077467	2487.322952
471.448425	2491.648262
471.819324	2493.132882
472.190164	2497.369971
472.560945	2493.720176
472.931667	2490.450988
473.302330	2489.203302
473.672934	2487.685915
474.043479	2488.454691
474.413965	2486.982674
474.784393	2489.440236
475.154761	2487.539721
475.525070	2489.626759
475.895321	2489.089876
476.265513	2488.447129
476.635645	2490.347644
477.005719	2489.651965
477.375734	2491.928046
477.745691	2491.290340
478.115588	2491.751605
478.485427	2488.426964
478.855207	2494.393170
479.224928	2495.524909
479.594591	2493.173211
479.964194	2494.869559
480.333739	2498.370640
480.703226	2496.036586
481.072653	2499.020949
481.442022	2498.446258
481.811333	2497.755620
482.180584	2492.628766
482.549777	2495.766884
482.918912	2492.986688
483.287988	2496.966679
483.657005	2497.047337
484.025964	2497.395177
484.394864	2495.456853
484.763706	2498.269817
485.132489	2495.303098
485.501213	2497.274189
485.869879	2492.180103
486.238487	2496.719663
486.607036	2495.383757
486.975527	2497.032214
487.343959	2495.837461
487.712333	2497.616988
488.080648	2495.212358
488.448905	2495.802172
488.817104	2496.172697
489.185244	2494.395691
489.553326	2496.848212
489.921350	2499.494818
490.289315	2500.528254
490.657222	2501.423059
491.025070	2502.690909
491.392861	2499.588079
491.760593	2498.748727
492.128267	2501.982627
492.495883	2497.909375
492.863440	2496.966679
493.230939	2497.372492
493.598380	2499.089005
493.965763	2497.145640
494.333088	2496.465084
494.700354	2497.443068
495.067563	2495.293016
495.434713	2496.717142
495.801805	2496.717142
496.168839	2498.531957
496.535815	2495.870228
496.902733	2492.293529
497.269593	2499.585558
497.636395	2498.020280
498.003139	2495.618170
498.369825	2495.434168
498.736453	2497.138078
499.103023	2494.972903
499.469535	2497.238901
499.835989	2495.247646
500.202385	2493.064826
500.568723	2490.672798
500.935003	2492.686739
501.301226	2489.767911
501.667390	2494.176400
502.033497	2497.178408
502.399546	2494.236894
502.765537	2495.298057
503.131470	2495.862666
503.497345	2495.260248
503.863163	2494.362923
504.228923	2495.192193
504.594625	2493.384939
504.960269	2495.514827
505.325856	2496.303767
505.691385	2494.783859
506.056856	2495.726555
506.422270	2494.688078
506.787625	2496.424755
507.152924	2496.228150
507.518164	2498.350476
507.883347	2497.352327
508.248472	2496.139930
508.613540	2496.835609
508.978550	2494.493993
509.343503	2496.611278
509.708398	2495.774446
510.073236	2496.495331
510.438016	2495.020794
510.802738	2493.715135
511.167403	2495.320742
511.532010	2496.646566
511.896561	2496.326453
512.261053	2496.626401
512.625488	2496.041627
512.989866	2496.507934
513.354186	2498.408449
513.718449	2495.257728
514.082655	2498.794097
514.446803	2497.092708
514.810894	2496.301247
515.174927	2495.570279
515.538904	2496.523058
515.902822	2496.560866
516.266684	2495.958448
516.630488	2497.858963
516.994235	2495.698829
517.357925	2494.627584
517.721558	2499.693943
518.085133	2496.278562
518.448651	2496.754951
518.812112	2491.905361
519.175516	2494.549446
519.538863	2494.189003
519.902152	2495.693788
520.265385	2495.799652
520.628560	2496.394508
520.991678	2497.674961
521.354739	2495.025835
521.717743	2497.435506
522.080690	2497.294354
522.443580	2498.592451
522.806413	2498.466422
523.169189	2497.687564
523.531908	2497.997595
523.894569	2493.079949
524.257174	2495.542553
524.619722	2494.025166
524.982213	2496.626401
525.344647	2497.644714
525.707025	2499.131855
526.069345	2499.953563
526.431608	2500.694612
526.793815	2496.243273
527.155964	2496.636483
527.518057	2496.873418
527.880093	2496.119765
528.242072	2497.438027
528.603995	2497.143119
528.965860	2498.249653
529.327669	2497.808552
529.689421	2497.924498
530.051117	2498.554643
530.412755	2495.792090
530.774337	2497.622029
531.135862	2496.243273
531.497331	2499.993892
531.858743	2499.215034
532.220098	2496.543222
532.581396	2498.048007
532.942638	2494.879641
533.303824	2496.439878
533.664953	2497.992554
534.026025	2499.227637
534.387040	2498.330311
534.747999	2499.605723
535.108902	2495.204796
535.469748	2495.673623
535.830537	2496.462564
536.191270	2496.142450
536.551947	2496.008860
536.912567	2491.890237
537.273131	2492.641369
537.633638	2490.385453
537.994089	2497.485918
538.354483	2494.423417
538.714821	2497.861484
539.075103	2494.728407
539.435328	2499.724190
539.795497	2495.093890
540.155609	2496.518016
540.515665	2497.286792
540.875665	2498.945332
541.235609	2498.131186
541.595496	2498.179077
541.955328	2498.423573
542.315102	2498.042965
542.674821	2495.708911
543.034483	2497.614467
543.394090	2494.937615
543.753640	2497.375013
544.113134	2498.355517
544.472571	2497.112873
544.831953	2496.636483
545.191278	2498.791577
545.550548	2495.963489
545.909761	2497.044817
546.268918	2495.555156
546.628019	2497.770743
546.987064	2497.221257
547.346053	2497.445589
547.704986	2498.335352
548.063863	2495.839981
548.422684	2494.138592
548.781449	2497.266628
549.140158	2496.545743
549.498811	2496.470125
549.857408	2494.965341
550.215949	2497.163284
550.574434	2496.248315
550.932864	2495.121617
551.291237	2496.112203
551.649555	2496.497852
552.007817	2497.790908
552.366022	2496.144971
552.724173	2497.904334
553.082267	2501.846516
553.440305	2496.137409
553.798288	2499.570435
554.156215	2494.005001
554.514086	2494.405773
554.871902	2494.579693
555.229661	2496.404590
555.587365	2491.489465
555.945014	2495.774446
556.302606	2495.824858
556.660143	2497.634632
557.017625	2498.103459
557.375050	2496.518016
557.732421	2497.405259
558.089735	2498.831906
558.446994	2497.498521
558.804197	2497.407780
559.161345	2497.022132
559.518437	2498.479025
559.875474	2495.741679
560.232455	2499.860301
560.589381	2497.997595
560.946251	2498.665548
561.303065	2497.793428
561.659825	2498.126144
562.016528	2497.858963
562.373177	2499.220075
562.729770	2498.592451
563.086307	2498.869715
563.442789	2496.195383
563.799216	2499.898110
564.155587	2498.234529
564.511904	2496.646566
564.868164	2496.137409
565.224370	2495.766884
565.580520	2497.622029
565.936615	2501.050014
566.292654	2496.825527
566.648638	2497.531288
567.004567	2497.100270
567.360441	2496.689416
567.716260	2497.753099
568.072023	2494.892244
568.427732	2500.218223
568.783385	2496.913747
569.138982	2499.691423
569.494525	2497.864004
569.850013	2497.720332
570.205445	2497.443068
570.560823	2497.364930
570.916145	2496.124806
571.271412	2497.483397
571.626625	2498.859632
571.981782	2496.681854
572.336884	2494.758654
572.691931	2496.843171
573.046923	2494.365444
573.401860	2491.804538
573.756743	2498.670589
574.111570	2496.192862
574.466342	2498.743686
574.821059	2495.514827
575.175722	2495.628253
575.530330	2494.771257
575.884882	2497.029693
576.239380	2495.587923
576.593823	2498.025321
576.948211	2495.023314
577.302544	2498.032883
577.656823	2500.629077
578.011047	2496.596154
578.365216	2497.579179
578.719330	2496.896103
579.073389	2498.799138
579.427394	2497.339724
579.781344	2495.484580
580.135239	2497.032214
580.489080	2499.429283
580.842866	2496.845691
581.196597	2498.209323
581.550273	2495.963489
581.903895	2494.557008
582.257463	2493.684888
582.610975	2497.090187
582.964434	2495.124137
583.317837	2492.825371
583.671186	2498.408449
584.024481	2497.009529
584.377721	2498.927688
584.730906	2498.854591
585.084037	2497.357368
585.437113	2496.558346
585.790135	2496.661689
586.143103	2494.670433
586.496016	2498.610095
586.848874	2494.393170
587.201679	2499.704026
587.554428	2496.253356
587.907124	2495.782008
588.259765	2495.308139
588.612352	2495.416524
588.964884	2495.358551
589.317362	2497.823675
589.669786	2497.982472
590.022155	2491.416369
590.374470	2492.122130
590.726731	2493.836122
591.078937	2492.333859
591.431090	2495.040958
591.783188	2495.935763
592.135232	2495.156905
592.487222	2496.074395
592.839157	2493.742861
593.191038	2496.606237
593.542866	2493.994919
593.894639	2495.653458
594.246358	2495.078767
594.598022	2495.189672
594.949633	2493.059785
595.301190	2494.587254
595.652692	2494.708242
596.004141	2496.520537
596.355535	2496.349138
596.706876	2492.815289
597.058162	2494.287306
597.409395	2494.650269
597.760573	2495.683705
598.111698	2494.705722
598.462768	2494.627584
598.813785	2493.268993
599.164748	2495.426607
599.515657	2492.227994
599.866511	2493.440392
600.217312	2494.292347
600.568060	2493.450474
600.918753	2495.650938
601.269392	2494.693119
601.619978	2495.562718
601.970510	2497.720332
602.320988	2493.037100
602.671412	2493.402583
603.021783	2493.427789
603.372100	2496.215547
603.722363	2494.587254
604.072572	2493.175731
604.422728	2497.183449
604.772830	2491.817140
605.122878	2496.908706
605.472872	2492.215392
605.822813	2493.223622
606.172701	2495.666061
606.522534	2494.221771
606.872314	2496.021463
607.222041	2492.956441
607.571714	2492.900988
607.921333	2490.264465
608.270899	2491.497027
608.620411	2487.489310
608.969870	2494.849394
609.319276	2494.181442
609.668627	2492.469970
610.017926	2493.881493
610.367171	2495.454333
610.716362	2494.768736
611.065500	2495.988695
611.414585	2493.621873
611.763616	2496.318891
612.112594	2494.080618
612.461518	2493.387460
612.810389	2496.734786
613.159207	2495.156905
613.507971	2496.817965
613.856682	2496.059271
614.205340	2495.824858
614.553945	2495.179590
614.902496	2491.996101
615.250994	2495.603047
615.599439	2496.202944
615.947830	2498.070692
616.296169	2494.567090
616.644454	2495.509786
616.992686	2494.713283
617.340864	2496.238232
617.688990	2493.001812
618.037063	2497.642194
618.385082	2491.489465
618.733048	2496.843171
619.080961	2495.182111
619.428821	2496.144971
619.776628	2493.079949
620.124382	2495.933242
620.472083	2494.980464
620.819731	2494.582213
621.167326	2492.545587
621.514868	2496.384426
621.862357	2496.533140
622.209793	2494.458705
622.557176	2494.025166
622.904506	2495.078767
623.251783	2495.315701
623.599007	2493.677326
623.946179	2493.412666
624.293297	2494.052892
624.640363	2491.907881
624.987376	2491.088694
625.334336	2489.193220
625.681243	2490.304794
626.028097	2486.660040
626.374899	2490.657675
626.721647	2491.978457
627.068343	2492.248159
627.414987	2490.544249
627.761577	2492.638848
628.108115	2494.161277
628.454600	2489.851090
628.801032	2494.514158
629.147412	2491.154229
629.493739	2491.126502
629.840014	2490.745895
630.186236	2493.732779
630.532405	2494.965341
630.878521	2492.028869
631.224585	2492.432161
631.570597	2489.984681
631.916556	2492.969044
632.262462	2491.297902
632.608316	2491.524753
632.954117	2491.297902
633.299866	2492.805207
633.645562	2494.345279
633.991206	2490.125833
634.336797	2494.136071
634.682336	2491.250011
635.027823	2489.954434
635.373257	2491.938128
635.718639	2490.145998
636.063968	2490.690443
636.409245	2490.889568
636.754470	2494.985506
637.099642	2490.027531
637.444762	2488.820174
637.789829	2490.503920
638.134845	2491.557521
638.479808	2489.727582
638.824719	2492.164980
639.169577	2489.740185
639.514383	2491.441574
639.859137	2491.681029
640.203839	2490.629949
640.548489	2492.646410
640.893086	2488.616008
641.237632	2489.969558
641.582125	2488.401759
641.926566	2488.056440
642.270955	2485.752632
642.615292	2484.951089
642.959576	2485.606439
643.303809	2485.697180
643.647990	2489.377222
643.992118	2486.765904
644.336195	2489.483086
644.680219	2486.934783
645.024192	2489.294043
645.368112	2491.297902
645.711981	2490.927377
646.055797	2489.967037
646.399562	2493.291678
646.743274	2489.087356
647.086935	2491.751605
647.430544	2488.172386
647.774101	2490.670278
648.117606	2489.931749
648.461059	2492.109527
648.804460	2490.627428
649.147810	2490.430823
649.491108	2488.459732
649.834354	2488.467294
650.177548	2488.346306
650.520690	2487.799341
650.863781	2488.696666
651.206820	2488.374032
651.549807	2485.757673
651.892742	2487.738847
652.235626	2487.781697
652.578458	2489.067191
652.921238	2487.466625
653.263967	2488.439567
653.606644	2489.591471
653.949269	2490.680360
654.291843	2487.325472
654.634365	2488.832777
654.976836	2487.176758
655.319255	2489.200782
655.661622	2484.885554
656.003938	2489.765391
656.346203	2489.712459
656.688416	2488.454691
657.030577	2487.678353
657.372687	2488.084166
657.714746	2488.880668
658.056753	2486.075266
658.398708	2487.499392
658.740612	2486.334886
659.082465	2487.844711
659.424266	2485.041830
659.766016	2484.343630
660.107715	2487.393528
660.449362	2485.409834
660.790958	2486.748260
661.132503	2487.779176
661.473996	2485.966881
661.815438	2489.886378
662.156829	2490.614825
662.498168	2486.549135
662.839456	2486.196254
663.180693	2486.407982
663.521879	2489.183137
663.863013	2487.917808
664.204097	2483.826912
664.545129	2488.817654
664.886110	2486.710452
665.227040	2491.088694
665.567918	2485.435040
665.908746	2490.642552
666.249522	2484.825060
666.590248	2487.643065
666.930922	2487.378404
667.271545	2484.431850
667.612118	2489.082314
667.952639	2484.935965
668.293109	2486.166007
668.633528	2489.016779
668.973896	2485.966881
669.314213	2488.694146
669.654480	2484.913280
669.994695	2487.267499
670.334859	2487.486789
670.674973	2488.300936
671.015035	2485.956799
671.355047	2486.420585
671.695008	2487.496872
672.034918	2488.018631
672.374777	2485.251038
672.714585	2486.249186
673.054342	2490.420741
673.394049	2488.268168
673.733705	2486.607108
674.073310	2487.920328
674.412864	2487.398569
674.752368	2486.105513
675.091820	2486.823877
675.431223	2485.079638
675.770574	2488.515185
676.109875	2487.224649
676.449125	2483.758856
676.788324	2481.742394
677.127473	2481.538228
677.466571	2483.418578
677.805619	2484.928404
678.144616	2485.732468
678.483562	2485.389669
678.822458	2484.686428
679.161303	2485.750112
679.500098	2484.764566
679.838842	2485.561068
680.177535	2486.259268
680.516179	2488.467294
680.854771	2485.876141
681.193314	2485.868579
681.531805	2485.001500
681.870247	2485.588795
682.208638	2486.844042
682.546978	2488.169866
682.885268	2484.774648
683.223508	2484.502426
683.561697	2486.123157
683.899836	2485.798003
684.237925	2486.924701
684.575963	2488.439567
684.913951	2484.852786
685.251889	2487.673312
685.589776	2485.742550
685.927614	2488.061481
686.265401	2485.903867
686.603137	2482.312045
686.940824	2485.117447
687.278460	2488.598364
687.616046	2488.489979
687.953582	2486.133239
688.291068	2487.832108
688.628504	2486.445791
688.965889	2486.370174
689.303224	2485.127529
689.640510	2485.573671
689.977745	2486.733137
690.314930	2485.639206
690.652065	2485.175420
690.989150	2483.665595
691.326185	2486.574340
691.663170	2481.611324
692.000105	2483.663074
692.336990	2484.832622
692.673825	2482.911942
693.010610	2485.157776
693.347345	2484.711634
693.684030	2476.406333
694.020665	2483.088382
694.357251	2476.164358
694.693786	2482.922024
695.030272	2482.644761
695.366707	2483.027889
695.703093	2481.815491
696.039429	2481.157621
696.375716	2482.390183
696.711952	2483.829432
697.048139	2482.773310
697.384276	2483.055615
697.720363	2482.942189
698.056400	2482.148207
698.392388	2480.386324
698.728326	2482.251551
699.064214	2482.380100
699.400053	2481.001345
699.735842	2483.703403
700.071581	2481.180306
700.407270	2479.262147
700.742910	2483.862200
701.078501	2481.339102
701.414042	2479.594863
701.749533	2480.260295
702.084974	2484.509988
702.420366	2479.420943
702.755709	2480.759369
703.091002	2480.552682
703.426246	2479.970429
703.761440	2480.643423
704.096584	2482.705255
704.431679	2480.824904
704.766725	2480.489668
705.101721	2481.603763
705.436668	2480.207363
705.771565	2480.446818
706.106413	2479.985552
706.441212	2481.452528
706.775961	2481.664257
707.110661	2481.835656
707.445311	2481.321458
707.779913	2481.366828
708.114465	2481.187867
708.448967	2480.184678
708.783421	2480.867754
709.117825	2480.981180
709.452180	2482.526294
709.786485	2480.774493
710.120742	2479.894812
710.454949	2476.229893
710.789107	2479.158803
711.123216	2479.496560
711.457275	2483.549648
711.791286	2482.226345
712.125247	2486.188692
712.459159	2482.690131
712.793023	2481.223156
713.126837	2484.187354
713.460602	2481.886067
713.794318	2480.650985
714.127985	2483.693321
714.461602	2482.622076
714.795171	2481.780203
715.128691	2482.123002
715.462162	2481.495378
715.795584	2482.483444
716.128957	2480.030923
716.462281	2480.751808
716.795556	2481.066880
717.128782	2478.495891
717.461960	2481.177785
717.795088	2482.254072
718.128167	2481.752477
718.461198	2479.698207
718.794180	2479.310038
719.127113	2481.288691
719.459997	2480.693834
719.792833	2478.758031
720.125619	2480.696355
720.458357	2478.695017
720.791046	2479.196612
721.123686	2480.179637
721.456278	2479.209215
721.788821	2480.933289
722.121315	2482.284318
722.453761	2479.912456
722.786158	2478.112764
723.118506	2478.042188
723.450805	2480.479585
723.783056	2479.322641
724.115259	2479.425984
724.447412	2478.228710
724.779518	2480.764411
725.111574	2478.354739
725.443582	2478.034626
725.775542	2478.813484
726.107453	2481.981849
726.439315	2481.513022
726.771129	2484.313383
727.102895	2474.422639
727.434612	2479.846921
727.766281	2474.190746
728.097901	2479.809112
728.429473	2479.791468
728.760996	2479.189050
729.092471	2476.988586
729.423897	2483.370687
729.755276	2480.487147
730.086606	2480.840028
730.417887	2478.894143
730.749120	2480.255254
731.080305	2479.652836
731.411442	2481.283649
731.742530	2481.651654
732.073570	2481.916314
732.404562	2479.110912
732.735506	2480.940851
733.066401	2479.063021
733.397249	2481.787765
733.728048	2481.548310
734.058798	2480.484627
734.389501	2480.855151
734.720156	2482.675008
735.050762	2475.181333
735.381320	2479.176447
735.711831	2478.800881
736.042293	2479.746098
736.372707	2478.571509
736.703073	2478.795840
737.033391	2478.067393
737.363661	2482.591829
737.693883	2478.594194
738.024056	2481.492857
738.354182	2478.364821
738.684260	2478.936992
739.014290	2479.642754
739.344272	2478.115284
739.674207	2480.257775
740.004093	2478.836169
740.333931	2479.804071
740.663722	2480.000676
740.993464	2480.114102
741.323159	2482.874133
741.652806	2478.387507
741.982405	2479.826756
742.311956	2480.272898
742.641460	2480.020840
742.970915	2479.685604
743.300323	2476.852475
743.629683	2475.483802
743.958996	2476.275263
744.288260	2472.116311
744.617477	2479.967908
744.946647	2477.807774
745.275768	2478.379945
745.604842	2478.132928
745.933869	2478.881540
746.262847	2475.922382
746.591778	2477.351549
746.920662	2479.057980
747.249498	2475.816518
747.578286	2476.592856
747.907027	2478.453042
748.235720	2478.354739
748.564365	2480.288022
748.892963	2478.054790
749.221514	2478.563947
749.550017	2480.716520
749.878473	2478.609317
750.206881	2478.518577
750.535242	2477.583442
750.863555	2476.829790
751.191821	2479.201653
751.520039	2478.228710
751.848210	2476.302989
752.176334	2477.691827
752.504411	2475.990438
752.832440	2475.992958
753.160421	2477.091930
753.488356	2478.994966
753.816243	2478.810963
754.144082	2477.061683
754.471875	2476.481950
754.799620	2476.746611
755.127318	2477.883391
755.454969	2474.720067
755.782572	2480.666108
756.110129	2476.325675
756.437638	2479.025212
756.765100	2476.577732
757.092515	2477.182671
757.419882	2479.824235
757.747203	2476.479430
758.074477	2477.112095
758.401703	2477.361632
758.728882	2477.777527
759.056014	2475.299800
759.383099	2476.091261
759.710138	2475.957670
760.037129	2472.638071
760.364073	2476.930613
760.690970	2472.630509
761.017820	2479.274750
761.344623	2475.977835
761.671379	2478.062352
761.998088	2476.282825
762.324751	2479.229379
762.651366	2478.364821
762.977935	2481.535707
763.304456	2480.938330
763.630931	2483.968064
763.957359	2481.099647
764.283740	2481.578557
764.610074	2480.250213
764.936362	2480.109061
765.262602	2479.315079
765.588796	2478.637044
765.914943	2479.620069
766.241044	2480.663587
766.567097	2476.930613
766.893104	2479.577219
767.219064	2476.492033
767.544978	2476.645788
767.870845	2476.497074
768.196665	2478.495891
768.522438	2476.643267
768.848165	2474.972125
769.173846	2474.165540
769.499479	2476.466827
769.825066	2475.650160
770.150607	2476.340798
770.476101	2477.434728
770.801548	2476.413895
771.126949	2476.066055
771.452303	2474.006744
771.777611	2475.138483
772.102872	2476.469348
772.428087	2475.786271
772.753256	2476.592856
773.078378	2477.923720
773.403453	2475.395582
773.728482	2476.802064
774.053465	2475.204018
774.378401	2473.989100
774.703291	2475.360294
775.028135	2475.085551
775.352932	2478.112764
775.677683	2473.535396
776.002388	2472.759058
776.327046	2469.444500
776.651658	2473.769810
776.976224	2470.404839
777.300743	2473.762248
777.625216	2473.815180
777.949643	2475.178812
778.274024	2474.261322
778.598359	2473.951291
778.922647	2474.470530
779.246889	2476.401292
779.571086	2474.833493
779.895236	2476.383648
780.219339	2476.050932
780.543397	2474.614203
780.867409	2474.493215
781.191374	2473.782412
781.515294	2473.885756
781.839167	2478.891622
782.162995	2474.190746
782.486776	2473.457258
782.810511	2476.250057
783.134201	2473.701754
783.457844	2472.320478
783.781441	2471.695375
784.104993	2475.312403
784.428498	2473.676548
784.751958	2473.850468
785.075372	2475.776189
785.398739	2472.580097
785.722061	2476.255098
786.045337	2471.791157
786.368568	2475.445993
786.691752	2473.104377
787.014891	2472.406178
787.337983	2477.159986
787.661030	2473.540437
787.984031	2476.350880
788.306987	2475.030098
788.629897	2478.707620
788.952760	2474.926754
789.275579	2474.087402
789.598351	2477.192753
789.921078	2474.944398
790.243759	2473.739563
790.566395	2477.714513
790.888984	2473.812659
791.211529	2476.378607
791.534027	2472.907772
791.856480	2475.592187
792.178888	2469.338635
792.501249	2469.870477
792.823566	2470.533389
793.145836	2467.309571
793.468062	2471.786116
793.790241	2474.621765
794.112375	2474.929275
794.434464	2475.478761
794.756507	2476.993628
795.078505	2473.001034
795.400457	2473.747124
795.722364	2474.546147
796.044226	2474.387351
796.366042	2474.394913
796.687812	2476.716364
797.009538	2475.758545
797.331218	2476.663432
797.652852	2476.444142
797.974442	2472.184367
798.295986	2476.076137
798.617484	2474.916672
798.938938	2473.260653
799.260346	2473.363997
799.581709	2475.052783
799.903026	2474.730149
800.224299	2472.507001
800.545526	2472.796867
800.866708	2478.599235
801.187845	2472.582618
801.508936	2473.938688
801.829983	2474.251240
802.150984	2469.683954
802.471940	2472.910293
802.792851	2473.142186
803.113717	2475.110757
803.434538	2472.481795
803.755314	2472.270066
804.076045	2473.331229
804.396731	2473.558081
804.717372	2471.541620
805.037967	2472.302834
805.358518	2474.503298
805.679024	2472.988431
805.999485	2474.170581
806.319901	2475.115798
806.640272	2472.655715
806.960598	2473.021198
807.280879	2472.882567
807.601115	2475.940026
807.921306	2472.133955
808.241453	2474.137814
808.561554	2471.065231
808.881611	2471.801239
809.201623	2470.765282
809.521590	2474.601600
809.841513	2472.227217
810.161390	2473.142186
810.481223	2473.558081
810.801011	2472.655715
811.120755	2473.694192
811.440453	2472.774182
811.760107	2474.790643
812.079716	2476.678555
812.399281	2473.525314
812.718801	2478.064873
813.038276	2474.115129
813.357707	2473.363997
813.677093	2471.713019
813.996434	2473.517752
814.315731	2472.892649
814.634983	2472.310396
814.954191	2473.956332
815.273354	2471.193780
815.592473	2472.494398
815.911547	2474.586477
816.230577	2473.754686
816.549562	2477.109574
816.868502	2473.353914
817.187399	2474.442804
817.506250	2471.032463
817.825058	2472.600262
818.143821	2473.464820
818.462539	2475.773668
818.781213	2475.319964
819.099843	2473.921044
819.418429	2476.799543
819.736970	2474.820890
820.055466	2476.721405
820.373919	2477.742239
820.692327	2477.570840
821.010691	2479.120994
821.329011	2481.318938
821.647286	2490.544249
821.965517	2497.483397
822.283704	2505.161075
822.601847	2507.285921
822.919945	2502.227123
823.237999	2501.223933
823.556010	2498.383243
823.873976	2492.359064
824.191897	2489.117602
824.509775	2484.368836
824.827609	2484.217601
825.145398	2478.241313
825.463144	2484.126860
825.780845	2479.428505
826.098502	2480.759369
826.416116	2484.686428
826.733685	2484.845225
827.051210	2484.671305
827.368692	2485.369505
827.686129	2483.834473
828.003522	2483.247179
828.320872	2480.910604
828.638177	2480.769452
828.955439	2475.642598
829.272656	2480.159472
829.589830	2473.069089
829.906960	2477.923720
830.224046	2475.393061
830.541088	2476.708802
830.858086	2472.743935
831.175041	2475.768627
831.491952	2474.646970
831.808819	2473.563122
832.125642	2472.678400
832.442421	2477.515387
832.759157	2474.415077
833.075849	2474.730149
833.392497	2478.085037
833.709101	2477.543113
834.025662	2480.086375
834.342179	2480.633341
834.658653	2478.440439
834.975083	2475.279635
835.291469	2476.696199
835.607811	2474.833493
835.924110	2473.923565
836.240366	2473.991620
836.556578	2473.091774
836.872746	2474.931796
837.188871	2477.346508
837.504952	2471.813842
837.820990	2473.076651
838.136984	2469.951136
838.452935	2474.495736
838.768842	2471.463482
839.084706	2474.324337
839.400526	2474.006744
839.716303	2473.285859
840.032037	2473.104377
840.347727	2471.783595
840.663373	2471.594552
840.978977	2468.882411
841.294537	2475.153606
841.610054	2469.363841
841.925527	2470.611527
842.240957	2470.130097
842.556344	2471.297124
842.871687	2471.723101
843.186987	2470.782926
843.502244	2470.752679
843.817458	2468.703450
844.132629	2471.155971
844.447756	2471.841568
844.762840	2470.931640
845.077881	2473.341312
845.392879	2470.906434
845.707833	2470.175467
846.022745	2470.651856
846.337613	2472.196970
846.652438	2470.218317
846.967221	2469.978862
847.281960	2473.406847
847.596656	2472.789305
847.911309	2470.692185
848.225919	2471.009778
848.540485	2471.982721
848.855009	2471.229068
849.169490	2468.927781
849.483928	2473.111939
849.798323	2471.155971
850.112675	2473.363997
850.426984	2469.620940
850.741251	2472.413739
851.055474	2470.598924
851.369654	2473.033801
851.683792	2469.409212
851.997887	2471.584469
852.311938	2469.401650
852.625947	2470.190590
852.939914	2471.705457
853.253837	2469.096660
853.567718	2470.011629
853.881555	2470.016671
854.195350	2470.911475
854.509103	2467.528861
854.822812	2468.509366
855.136479	2471.065231
855.450103	2471.758389
855.763685	2466.991978
856.077224	2468.400981
856.390720	2468.537092
856.704173	2466.845785
857.017584	2469.777216
857.330953	2466.034159
857.644278	2472.411219
857.957561	2472.007926
858.270802	2472.751497
858.584000	2470.099850
858.897155	2472.038173
859.210268	2469.850312
859.523339	2472.217134
859.836367	2468.295117
860.149352	2469.920889
860.462295	2472.128914
860.775195	2470.775364
861.088054	2470.790488
861.400869	2471.155971
861.713642	2469.918368
862.026373	2469.320991
862.339062	2470.150261
862.651708	2470.538430
862.964312	2471.332412
863.276873	2469.983903
863.589392	2472.227217
863.901869	2469.787298
864.214303	2471.095477
864.526696	2469.348718
864.839045	2470.712350
865.151353	2469.416773
865.463619	2468.534571
865.775842	2469.978862
866.088023	2469.552884
866.400162	2470.382154
866.712258	2470.949284
867.024313	2471.647484
867.336325	2468.600106
867.648296	2472.791826
867.960224	2469.683954
868.272110	2469.404170
868.583954	2473.205200
868.895755	2472.875005
869.207515	2471.952474
869.519233	2473.038842
869.830909	2468.456433
870.142542	2470.719912
870.454134	2471.158492
870.765684	2471.675210
871.077191	2473.273256
871.388657	2469.419294
871.700081	2467.445682
872.011463	2468.078347
872.322803	2466.598768
872.634101	2469.315950
872.945357	2472.701085
873.256571	2471.730663
873.567744	2469.441979
873.878874	2471.982721
874.189963	2470.329222
874.501010	2468.141361
874.812015	2469.830148
875.122979	2471.518934
875.433900	2471.622278
875.744780	2471.148410
876.055618	2469.668831
876.366415	2471.839048
876.677169	2469.764613
876.987882	2470.419963
877.298554	2468.365693
877.609183	2473.353914
877.919771	2468.030456
878.230317	2469.469705
878.540822	2472.489357
878.851285	2471.927268
879.161707	2472.915334
879.472087	2471.939871
879.782425	2474.470530
880.092722	2472.010447
880.402977	2474.399954
880.713191	2478.027064
881.023363	2483.257261
881.333494	2484.013434
881.643583	2487.960658
881.953631	2486.443270
882.263637	2486.707931
882.573602	2483.789103
882.883526	2483.816829
883.193408	2481.296252
883.503248	2483.567292
883.813048	2479.667960
884.122806	2481.457569
884.432522	2478.402630
884.742197	2476.880202
885.051831	2476.275263
885.361424	2474.886425
885.670975	2474.178143
885.980485	2476.020685
886.289954	2474.329378
886.599382	2473.404326
886.908768	2467.889304
887.218113	2468.743779
887.527417	2469.371403
887.836680	2465.557770
888.145901	2470.548512
888.455082	2470.692185
888.764221	2472.544809
889.073319	2469.804942
889.382376	2471.302165
889.691392	2470.538430
890.000366	2471.110601
890.309300	2470.493060
890.618193	2470.140179
890.927044	2471.057669
891.235855	2469.376444
891.544625	2470.432566
891.853353	2471.849130
892.162041	2469.699078
892.470687	2469.303347
892.779293	2470.137658
893.087858	2472.365848
893.396381	2473.026239
893.704864	2471.723101
894.013306	2473.759727
894.321707	2473.215283
894.630068	2474.014306
894.938387	2473.341312
895.246665	2476.149234
895.554903	2473.588328
895.863100	2475.057824
896.171256	2474.163020
896.479371	2470.906434
896.787446	2473.164871
897.095480	2468.695888
897.403473	2470.034315
897.711425	2471.614716
898.019336	2472.723770
898.327207	2472.166723
898.635038	2470.457772
898.942827	2469.338635
899.250576	2469.525158
899.558284	2471.186218
899.865952	2471.072792
900.173579	2471.014819
900.481165	2467.057513
900.788711	2471.095478
901.096216	2471.564305
901.403681	2468.393419
901.711105	2472.106229
902.018489	2468.174129
902.325832	2471.549181
902.633135	2467.909468
902.940397	2471.188739
903.247619	2465.552729
903.554800	2471.886939
903.861941	2474.427680
904.169041	2475.408185
904.476101	2473.409367
904.783121	2474.546147
905.090100	2474.636888
905.397039	2473.989100
905.703938	2472.466671
906.010796	2473.865592
906.317614	2472.249902
906.624391	2473.386682
906.931129	2471.861733
907.237826	2473.462299
907.544483	2469.240333
907.851099	2468.582462
908.157675	2469.898203
908.464211	2470.808132
908.770707	2469.764613
909.077163	2471.536578
909.383578	2466.689509
909.689954	2469.605817
909.996289	2470.717391
910.302584	2471.249233
910.608839	2470.646815
910.915054	2473.406847
911.221229	2467.362503
911.527363	2468.695888
911.833458	2468.829479
912.139513	2468.511886
912.445527	2466.916361
912.751502	2469.131948
913.057436	2469.878039
913.363331	2470.067082
913.669186	2468.862246
913.975000	2469.210086
914.280775	2469.930971
914.586510	2469.275621
914.892205	2472.650673
915.197859	2470.024232
915.503475	2474.231075
915.809050	2472.842237
916.114585	2473.290900
916.420081	2474.931796
916.725536	2474.392392
917.030952	2475.077989
917.336328	2473.832824
917.641665	2472.335601
917.946961	2467.997688
918.252218	2467.029787
918.557435	2469.021043
918.862612	2471.758389
919.167750	2469.948615
919.472848	2469.812504
919.777906	2470.578759
920.082925	2471.173615
920.387904	2470.641774
920.692843	2470.450210
920.997743	2470.215796
921.302603	2472.549850
921.607423	2470.712350
921.912204	2470.888790
922.216946	2469.147072
922.521647	2470.266208
922.826310	2468.809314
923.130932	2468.118676
923.435516	2470.364510
923.740059	2467.380147
924.044564	2466.253449
924.349028	2467.302009
924.653454	2468.025415
924.957840	2468.479119
925.262186	2469.265539
925.566493	2468.577421
925.870761	2467.725466
926.174989	2466.969293
926.479178	2466.979375
926.783328	2467.760754
927.087438	2469.053810
927.391509	2467.717904
927.695541	2468.839561
927.999533	2469.467185
928.303486	2468.496763
928.607400	2468.786629
928.911275	2466.893676
929.215110	2467.818728
929.518906	2468.811835
929.822663	2466.913840
930.126381	2470.687144
930.430060	2468.121197
930.733699	2467.085240
931.037299	2469.910806
931.340861	2468.279993
931.644383	2469.704119
931.947866	2468.857205
932.251309	2469.820066
932.554714	2468.776547
932.858080	2464.602471
933.161407	2462.926288
933.464694	2466.661783
933.767943	2461.436627
934.071153	2467.354941
934.374323	2465.285548
934.677455	2468.179170
934.980548	2465.025928
935.283602	2468.191773
935.586617	2469.300827
935.889593	2465.015846
936.192530	2466.888635
936.495428	2468.360652
936.798287	2467.004581
937.101108	2468.285034
937.403890	2467.816207
937.706632	2467.211268
938.009336	2467.415435
938.312002	2468.191773
938.614628	2467.125569
938.917216	2469.920889
939.219765	2465.023408
939.522275	2469.142030
939.824747	2467.390229
940.127179	2466.815538
940.429573	2467.543985
940.731929	2469.497432
941.034246	2468.980713
941.336524	2468.388378
941.638763	2469.928450
941.940964	2468.524489
942.243126	2468.998358
942.545250	2468.436269
942.847335	2466.487863
943.149381	2466.886114
943.451389	2465.030969
943.753359	2469.762092
944.055290	2465.774540
944.357182	2469.948615
944.659036	2465.787143
944.960851	2466.427369
945.262628	2466.429890
945.564367	2468.164047
945.866067	2467.440641
946.167729	2466.722277
946.469352	2467.584314
946.770937	2467.007102
947.072484	2467.670013
947.373992	2467.780919
947.675462	2467.662452
947.976893	2468.045579
948.278286	2463.795887
948.579641	2469.452061
948.880958	2461.096349
949.182236	2468.653038
949.483476	2466.041721
949.784678	2467.206227
950.085841	2468.262349
950.386967	2466.815538
950.688054	2468.040538
950.989103	2467.354941
951.290114	2464.325208
951.591087	2469.053810
951.892021	2468.582462
952.192917	2463.982409
952.493776	2467.629684
952.794596	2466.878552
953.095378	2464.650362
953.396122	2466.495425
953.696828	2468.199335
953.997496	2467.049952
954.298126	2467.039869
954.598718	2467.314612
954.899272	2468.282514
955.199788	2468.098512
955.500266	2466.674386
955.800706	2466.886114
956.101108	2467.516258
956.401472	2466.979375
956.701798	2465.600620
957.002087	2466.175311
957.302337	2466.492904
957.602550	2469.525158
957.902724	2471.062710
958.202861	2465.855198
958.502960	2464.400825
958.803022	2468.234623
959.103045	2465.923254
959.403031	2465.976186
959.702979	2467.642287
960.002889	2467.715384
960.302762	2466.767647
960.602596	2466.344190
960.902393	2468.683285
961.202153	2466.639098
961.501875	2464.864611
961.801559	2465.083902
962.101205	2465.557770
962.400814	2468.234623
962.700385	2466.119859
962.999918	2465.283027
963.299414	2461.897892
963.598873	2464.655403
963.898293	2461.950824
964.197677	2463.337142
964.497022	2467.491052
964.796331	2465.298151
965.095601	2468.433748
965.394835	2466.540795
965.694030	2465.262863
965.993189	2468.665641
966.292309	2467.274283
966.591393	2467.022225
966.890439	2468.537092
967.189447	2465.877883
967.488419	2468.375775
967.787353	2465.227574
968.086249	2468.242184
968.385108	2467.549026
968.683930	2464.844447
968.982714	2468.196814
969.281462	2467.017184
969.580172	2467.687658
969.878844	2466.460137
970.177480	2466.906279
970.476078	2467.604478
970.774639	2467.722946
971.073162	2464.572224
971.371649	2464.816720
971.670098	2465.376288
971.968510	2466.371916
972.266885	2467.821248
972.565223	2466.082050
972.863524	2466.548357
973.161788	2466.505507
973.460014	2466.951649
973.758204	2466.545836
974.056356	2465.207410
974.354471	2465.741772
974.652550	2466.308902
974.950591	2467.034828
975.248595	2467.639767
975.546563	2469.106742
975.844493	2466.850826
976.142386	2468.053141
976.440243	2466.644139
976.738062	2466.823100
977.035845	2464.839406
977.333590	2467.798563
977.631299	2465.139354
977.928971	2464.952832
978.226606	2464.179014
978.524204	2465.567852
978.821765	2461.429065
979.119290	2469.252936
979.416777	2465.633387
979.714228	2467.125569
980.011642	2464.108438
980.309020	2467.743110
980.606360	2462.011318
980.903664	2467.639767
981.200931	2464.060547
981.498162	2471.019860
981.795356	2466.361834
982.092513	2465.492235
982.389633	2464.909982
982.686717	2468.426187
982.983764	2466.008953
983.280775	2466.709674
983.577749	2467.833851
983.874686	2466.409725
984.171587	2467.392750
984.468451	2464.642801
984.765279	2466.651700
985.062070	2464.998202
985.358824	2468.058182
985.655543	2465.000722
985.952224	2466.807976
986.248869	2466.495425
986.545478	2467.385188
986.842050	2464.693212
987.138586	2467.178501
987.435086	2464.995681
987.731549	2465.832513
988.027975	2464.352934
988.324366	2463.942080
988.620719	2465.194807
988.917037	2465.396453
989.213318	2464.360496
989.509563	2463.523664
989.805772	2467.624643
990.101944	2466.750003
990.398080	2465.222533
990.694180	2465.509879
990.990244	2465.925774
991.286271	2463.879066
991.582262	2464.141206
991.878217	2465.887966
992.174136	2467.894345
992.470019	2465.890486
992.765865	2466.717235
993.061676	2461.192131
993.357450	2462.601133
993.653188	2459.687346
993.948890	2467.060034
994.244556	2463.208592
994.540186	2465.540126
994.835780	2464.231947
995.131337	2466.019036
995.426859	2468.416104
995.722345	2465.648511
996.017795	2464.189097
996.313208	2464.816720
996.608586	2468.809314
996.903928	2465.144395
997.199234	2463.750516
997.494504	2465.686319
997.789738	2464.627677
998.084936	2466.921402
998.380099	2466.805456
998.675225	2463.700105
998.970316	2466.742441
999.265371	2467.072637
999.560390	2467.460806
999.855373	2465.267904
1000.150320	2464.420990
1000.445232	2465.895527
1000.740108	2465.212451
1001.034948	2466.883593
1001.329752	2463.924436
1001.624521	2464.496607
1001.919254	2466.366875
1002.213951	2466.066927
1002.508613	2464.020218
1002.803239	2464.524333
1003.097829	2464.443675
1003.392384	2465.978706
1003.686903	2463.251442
1003.981386	2465.217492
1004.275834	2463.276648
1004.570246	2465.981227
1004.864623	2465.295630
1005.158964	2467.014663
1005.453270	2465.257821
1005.747540	2467.140692
1006.041775	2464.539457
1006.335974	2466.190435
1006.630138	2463.294292
1006.924266	2466.911320
1007.218359	2464.630198
1007.512416	2463.876545
1007.806438	2460.970320
1008.100425	2463.248922
1008.394376	2460.050309
1008.688292	2464.751185
1008.982172	2463.987451
1009.276017	2467.148254
1009.569827	2465.129272
1009.863602	2465.615743
1010.157341	2464.410907
1010.451045	2467.601958
1010.744714	2464.236988
1011.038347	2465.555249
1011.331945	2464.930146
1011.625508	2463.740434
1011.919036	2466.513069
1012.212528	2464.574745
1012.505986	2466.359313
1012.799408	2463.435444
1013.092795	2465.129272
1013.386147	2465.978706
1013.679464	2463.700105
1013.972745	2467.808645
1014.265992	2466.800414
1014.559204	2466.591207
1014.852380	2464.705815
1015.145521	2466.329067
1015.438628	2462.626339
1015.731699	2463.526185
1016.024736	2463.959724
1016.317737	2464.171453
1016.610703	2465.073819
1016.903635	2466.548357
1017.196531	2466.719756
1017.489393	2465.381330
1017.782219	2463.556432
1018.075011	2463.075002
1018.367768	2467.160857
1018.660490	2465.615743
1018.953177	2465.615743
1019.245829	2465.615743
