Dividing Wavelength (nm)	Counts (n)	Blue Motor Position (mm): 0.000000	Red Motor Position (mm): 41.500000	
326.493990	2055.001160
326.888308	2055.001160
327.282561	2055.001160
327.676750	2026.185924
328.070874	2028.661131
328.464933	2034.866791
328.858929	2043.406506
329.252859	2055.059133
329.646726	2067.324260
330.040528	2082.455283
330.434265	2099.557398
330.827938	2122.217384
331.221547	2142.303862
331.615091	2159.542088
332.008571	2182.489420
332.401986	2204.892308
332.795338	2223.257231
333.188625	2241.924624
333.581847	2262.220309
333.975006	2281.031375
334.368100	2296.399332
334.761129	2316.561427
335.154095	2331.185814
335.546996	2359.784280
335.939833	2419.204360
336.332606	2431.913109
336.725315	2445.020109
337.117960	2455.039403
337.510540	2462.245732
337.903056	2471.629840
338.295508	2476.166878
338.687896	2485.747591
339.080220	2492.543067
339.472480	2492.371667
339.864676	2500.871053
340.256807	2502.015395
340.648875	2505.357680
341.040879	2506.060921
341.432818	2507.313647
341.824694	2508.246261
342.216506	2507.646363
342.608253	2509.559481
342.999937	2508.387413
343.391557	2505.113184
343.783113	2506.355828
344.174605	2503.157216
344.566033	2501.546567
344.957397	2501.022287
345.348697	2500.427431
345.739934	2497.218737
346.131106	2496.339055
346.522215	2493.997439
346.913260	2492.391832
347.304241	2495.547594
347.695159	2489.742706
348.086012	2492.464929
348.476802	2485.939155
348.867528	2484.290698
349.258191	2482.002014
349.648789	2483.773979
350.039324	2478.246354
350.429796	2483.111068
350.820203	2480.048567
351.210548	2480.225007
351.600828	2482.138125
351.991045	2479.857003
352.381198	2476.151755
352.771288	2477.054121
353.161314	2479.146200
353.551276	2481.417240
353.941175	2478.253916
354.331010	2480.522435
354.720782	2478.473206
355.110490	2481.404637
355.500135	2480.008237
355.889717	2481.336582
356.279235	2477.772486
356.668689	2482.196098
357.058080	2481.003865
357.447408	2483.012765
357.836672	2482.150728
358.225873	2485.251038
358.615010	2481.931438
359.004084	2485.016624
359.393095	2486.236583
359.782043	2485.462766
360.170927	2483.348002
360.559748	2485.747591
360.948505	2486.654999
361.337199	2490.957624
361.725830	2488.036275
362.114398	2489.016779
362.502903	2491.726400
362.891344	2490.435864
363.279722	2487.854793
363.668037	2492.043992
364.056289	2490.844198
364.444478	2492.069198
364.832603	2492.505258
365.220665	2495.199755
365.608665	2494.307470
365.996601	2495.741679
366.384474	2493.324445
366.772284	2494.844353
367.160031	2496.860815
367.547715	2497.727893
367.935336	2497.743017
368.322893	2494.622543
368.710388	2496.666730
369.097820	2496.243273
369.485189	2494.254538
369.872495	2499.658655
370.259738	2498.985661
370.646918	2499.996412
371.034035	2503.353821
371.421090	2503.119407
371.808081	2501.841475
372.195010	2506.063441
372.581875	2504.515807
372.968678	2506.265087
373.355418	2506.106291
373.742096	2509.193998
374.128710	2513.786489
374.515262	2514.885460
374.901751	2520.037520
375.288177	2525.333252
375.674540	2526.187727
376.060841	2530.918850
376.447079	2532.448840
376.833254	2539.108205
377.219367	2544.807229
377.605417	2549.843342
377.991404	2554.811399
378.377329	2563.479663
378.763191	2568.296485
379.148991	2579.099678
379.534727	2587.856162
379.920402	2597.036103
380.306013	2606.392485
380.691563	2617.147787
381.077049	2626.395783
381.462474	2637.025056
381.847835	2650.787406
382.233134	2664.411125
382.618371	2674.795902
383.003545	2691.066226
383.388657	2705.400747
383.773706	2724.216853
384.158693	2739.292424
384.543618	2756.656678
384.928480	2770.464399
385.313280	2792.960548
385.698017	2810.685245
386.082692	2837.053000
386.467305	2853.025896
386.851856	2875.065820
387.236344	2903.011457
387.620770	2918.596184
388.005133	2943.481840
388.389435	2973.060810
388.773674	2987.075218
389.157851	3024.800693
389.541965	3050.145093
389.926018	3059.100703
390.310008	3094.547577
390.693936	3123.423306
391.077802	3145.748056
391.461606	3181.754497
391.845348	3199.227136
392.229027	3228.160839
392.612645	3269.906634
392.996200	3297.038124
393.379694	3334.279648
393.763125	3377.825135
394.146494	3404.989392
394.529801	3441.162192
394.913047	3486.769510
395.296230	3495.571365
395.679351	3517.969212
396.062410	3567.085173
396.445408	3546.222358
396.828343	3591.360850
397.211217	3623.354533
397.594028	3594.957713
397.976778	3642.979745
398.359466	3677.423428
398.742092	3687.888864
399.124656	3702.127603
399.507158	3761.416613
399.889598	3769.230402
400.271977	3833.898323
400.654294	3823.074966
401.036549	3880.954974
401.418742	3881.585118
401.800874	3949.504584
402.182944	3978.274449
402.564952	4065.236873
402.946898	4059.822674
403.328783	4053.380079
403.710606	4102.876648
404.092367	4176.449768
404.474067	4236.434458
404.855705	4223.748394
405.237282	4193.229249
405.618797	4298.128098
406.000250	4368.575703
406.381642	4459.291266
406.762972	4456.780772
407.144240	4421.361625
407.525447	4488.789578
407.906593	4505.473277
408.287677	4588.601904
408.668700	4615.725832
409.049661	4654.845186
409.430560	4691.708623
409.811399	4671.433102
410.192176	4726.810177
410.572891	4803.927228
410.953545	4915.198097
411.334138	4814.450637
411.714669	4920.057769
412.095139	4833.193647
412.475547	4945.170277
412.855894	4951.925423
413.236180	5052.572060
413.616405	4980.218899
413.996568	5086.599848
414.376670	5089.281742
414.756711	5082.385443
415.136691	5152.333974
415.516609	5240.460905
415.896466	5278.135968
416.276262	5354.017936
416.655997	5465.175378
417.035670	5564.465945
417.415283	5704.647830
417.794834	5778.820847
418.174324	5739.033541
418.553753	5740.571092
418.933121	5909.207771
419.312428	5920.986427
419.691674	5844.648234
420.070859	6074.320683
420.449983	5948.642197
420.829045	6146.005891
421.208047	6071.144756
421.586988	6232.295321
421.965867	6304.000693
422.344686	6388.750051
422.723444	6551.720473
423.102141	6172.300549
423.480777	6565.041722
423.859352	6377.725048
424.237866	6747.208857
424.616319	6738.976653
424.994712	6903.018320
425.373044	6815.496327
425.751314	7139.501367
426.129524	6853.594847
426.507673	7122.411856
426.885762	7168.137642
427.263789	7206.064762
427.641756	7295.938453
428.019662	7378.381483
428.397508	7420.684326
428.775292	7398.236068
429.153016	7573.151503
429.530679	7500.586614
429.908282	7555.310860
430.285824	7492.414904
430.663305	7786.941797
431.040726	7667.950401
431.418086	7672.333685
431.795385	7805.609189
432.172624	7990.682550
432.549802	7885.468628
432.926920	8016.463011
433.303977	7955.712066
433.680974	7993.056933
434.057910	8204.770272
434.434786	8254.980164
434.811601	8206.635498
435.188355	8553.676091
435.565050	8439.967825
435.941683	8449.508208
436.318257	8787.575547
436.694770	8741.141479
437.071222	8973.634453
437.447614	8747.127849
437.823946	8710.715595
438.200218	8868.314667
438.576429	8739.835820
438.952580	8915.898118
439.328670	8919.046319
439.704700	8992.682453
440.080670	8889.822750
440.456580	9152.383686
440.832429	9136.239391
441.208218	8867.240901
441.583947	8986.733892
441.959616	9108.381975
442.335224	9142.898755
442.710773	9225.714831
443.086261	9407.589579
443.461689	9122.504768
443.837057	9297.760481
444.212365	9509.335187
444.587612	9496.011418
444.962800	9382.167040
445.337927	9527.415286
445.712995	9054.620590
446.088002	9743.433769
446.462949	9790.545872
446.837837	9776.876784
447.212664	9799.284712
447.587431	10634.855962
447.962139	11655.634164
448.336786	12611.245369
448.711374	12389.999209
449.085901	11167.577375
449.460369	11079.838612
449.834776	10861.455828
450.209124	11779.170159
450.583412	11603.851431
450.957640	11917.660738
451.331808	11513.082936
451.705917	10929.340006
452.079965	10811.331635
452.453954	11004.692653
452.827883	10955.090219
453.201752	10925.639799
453.575562	10936.190934
453.949311	11277.149374
454.323001	11338.827891
454.696632	11256.253791
455.070202	11853.123886
455.443713	11916.158474
455.817164	12082.882034
456.190556	12403.552351
456.563888	12269.104778
456.937160	12552.866287
457.310373	12010.823781
457.683526	12028.863550
458.056619	12045.499358
458.429653	12106.325920
458.802628	12258.029363
459.175542	12314.891058
459.548398	12866.380686
459.921194	13447.691259
460.293930	13727.447571
460.666607	14593.001084
461.039224	15409.073151
461.411782	15755.995276
461.784280	15429.941007
462.156719	15378.770775
462.529099	15285.408606
462.901419	14632.639677
463.273680	14231.633532
463.645882	14457.683912
464.018024	14340.908103
464.390106	14708.998034
464.762130	15776.921106
465.134094	17327.814442
465.505999	19641.739346
465.877845	21930.435795
466.249631	23215.556980
466.621358	22747.916864
466.993026	21928.978902
467.364634	21179.094664
467.736184	20357.893223
468.107674	19750.363608
468.479105	19613.793710
468.850477	19346.168934
469.221790	18911.707172
469.593043	18222.432728
469.964238	17840.625817
470.335373	17892.895021
470.706449	18615.796483
471.077467	19470.330033
471.448425	21976.685861
471.819324	23881.611871
472.190164	23803.325272
472.560945	22036.796579
472.931667	20438.725604
473.302330	20093.769529
473.672934	19531.151554
474.043479	19963.090218
474.413965	19735.403984
474.784393	19567.909127
475.154761	20241.412322
475.525070	20366.304388
475.895321	20198.625529
476.265513	20744.479147
476.635645	21342.302020
477.005719	21404.582955
477.375734	21767.934201
477.745691	22402.875089
478.115588	23067.329413
478.485427	24268.507825
478.855207	26083.466883
479.224928	27931.183358
479.594591	29389.117818
479.964194	29037.734271
480.333739	29504.716517
480.703226	29725.390506
481.072653	30162.277063
481.442022	30699.132221
481.811333	31111.632196
482.180584	30665.175009
482.549777	30457.814707
482.918912	30210.709948
483.287988	30154.100311
483.657005	29999.407464
484.025964	29634.682504
484.394864	29821.928602
484.763706	29757.180022
485.132489	29204.636793
485.501213	29283.805593
485.869879	29464.087337
486.238487	29392.076975
486.607036	29674.132053
486.975527	29343.986888
487.343959	29705.137670
487.712333	30060.397864
488.080648	30022.057368
488.448905	30443.278540
488.817104	30339.823981
489.185244	31172.829283
489.553326	32134.210089
489.921350	34044.832603
490.289315	36609.905270
490.657222	37538.657208
491.025070	38134.138465
491.392861	37865.187866
491.760593	37081.966478
492.128267	36070.242189
492.495883	35089.289103
492.863440	34167.524205
493.230939	33170.212575
493.598380	32598.278548
493.965763	32431.159257
494.333088	31916.457449
494.700354	31719.852449
495.067563	31692.852029
495.434713	31568.038101
495.801805	31859.968799
496.168839	31692.620136
496.535815	31538.169264
496.902733	31673.569615
497.269593	31480.627014
497.636395	31643.768834
498.003139	31911.554927
498.369825	31663.951094
498.736453	32074.525348
499.103023	31929.345159
499.469535	32011.689886
499.835989	32126.030817
500.202385	31998.827382
500.568723	32050.015258
500.935003	32346.765300
501.301226	32205.365976
501.667390	32966.933087
502.033497	33184.388300
502.399546	32965.314877
502.765537	32551.617628
503.131470	33056.554720
503.497345	33486.615555
503.863163	32415.786258
504.228923	33208.333780
504.594625	33595.610342
504.960269	33070.677513
505.325856	33741.352621
505.691385	33408.137393
506.056856	33734.274841
506.422270	34236.479628
506.787625	33754.794857
507.152924	34234.223712
507.518164	34394.512239
507.883347	33971.519102
508.248472	34108.835092
508.613540	34823.582487
508.978550	35053.136469
509.343503	34886.380141
509.708398	35243.006487
510.073236	35862.632350
510.438016	35947.051513
510.802738	35608.996777
511.167403	36181.697060
511.532010	36428.436335
511.896561	36962.483570
512.261053	37727.037565
512.625488	37502.691096
512.989866	37401.641167
513.354186	37464.189283
513.718449	37424.379291
514.082655	38334.834361
514.446803	38017.216463
514.810894	38649.162906
515.174927	38648.416816
515.538904	38647.953029
515.902822	39306.516765
516.266684	38995.840536
516.630488	39349.812715
516.994235	39350.941933
517.357925	39927.518863
517.721558	40185.068893
518.085133	40582.611764
518.448651	40773.636207
518.812112	40650.531230
519.175516	40809.647690
519.538863	41270.857814
519.902152	41323.142141
520.265385	41883.700805
520.628560	41884.572924
520.991678	41847.255783
521.354739	42078.014600
521.717743	42452.637866
522.080690	42339.985722
522.443580	43045.270871
522.806413	43061.536154
523.169189	43199.126886
523.531908	43408.032302
523.894569	43272.747897
524.257174	43463.232936
524.619722	43814.447604
524.982213	43963.612826
525.344647	44006.528169
525.707025	44136.131193
526.069345	44578.515128
526.431608	44481.422505
526.793815	44879.000665
527.155964	44408.676134
527.518057	44668.139282
527.880093	44528.194330
528.242072	45158.666236
528.603995	44887.028702
528.965860	44790.788034
529.327669	45007.434141
529.689421	45104.032731
530.051117	45043.427980
530.412755	45322.574312
530.774337	45367.196086
531.135862	45315.156254
531.497331	45473.622405
531.858743	45467.641076
532.220098	45853.866557
532.581396	45585.241113
532.942638	45371.463422
533.303824	45598.673267
533.664953	45665.254307
534.026025	45319.113560
534.387040	45911.181956
534.747999	45962.392517
535.108902	46279.413039
535.469748	45617.983407
535.830537	45881.671041
536.191270	46133.451470
536.551947	45877.970834
536.912567	46140.284754
537.273131	46275.864066
537.633638	45920.941630
537.994089	46084.350632
538.354483	45828.239852
538.714821	46485.850809
539.075103	46780.002136
539.435328	46637.917215
539.795497	46385.597383
540.155609	46519.810542
540.515665	47109.887682
540.875665	46404.584889
541.235609	46669.132040
541.595496	46824.192891
541.955328	47397.631703
542.315102	46818.907241
542.674821	46719.435193
543.034483	46614.803525
543.394090	46630.088303
543.753640	46607.072915
544.113134	47672.609001
544.472571	46757.170750
544.831953	47905.074249
545.191278	47170.061415
545.550548	46835.676639
545.909761	47495.082248
546.268918	47623.765261
546.628019	48029.560502
546.987064	47457.379458
547.346053	46776.758154
547.704986	47702.129998
548.063863	47332.348760
548.422684	47552.228768
548.781449	47112.388094
549.140158	47629.650808
549.498811	47384.877583
549.857408	46773.841846
550.215949	47620.929612
550.574434	47453.704457
550.932864	47414.504444
551.291237	48129.163619
551.649555	47862.237044
552.007817	48039.378149
552.366022	47756.009850
552.724173	47815.374478
553.082267	48195.038897
553.440305	48593.471533
553.798288	47815.409766
554.156215	48207.863593
554.514086	48403.568747
554.871902	47984.913523
555.229661	48169.150052
555.587365	47838.893981
555.945014	47965.368969
556.302606	48001.756018
556.660143	48084.151157
557.017625	48305.172985
557.375050	47993.080192
557.732421	48412.814223
558.089735	48466.353797
558.446994	48317.609512
558.804197	48804.799222
559.161345	48662.137089
559.518437	48007.530659
559.875474	48250.121065
560.232455	48465.196853
560.589381	48507.605559
560.946251	48334.578036
561.303065	48983.208178
561.659825	48670.117236
562.016528	48475.155652
562.373177	48042.637255
562.729770	48694.980207
563.086307	48178.834108
563.442789	48741.595756
563.799216	48596.501266
564.155587	48491.945215
564.511904	48451.230336
564.868164	48505.609262
565.224370	48808.718720
565.580520	48542.903718
565.936615	48745.694214
566.292654	48384.122496
566.648638	48737.971167
567.004567	48675.072690
567.360441	48773.483575
567.716260	48458.872725
568.072023	48871.251712
568.427732	48767.217421
568.783385	48294.931881
569.138982	48711.926045
569.494525	48865.255260
569.850013	48476.431064
570.205445	48587.686809
570.560823	48352.867342
570.916145	48226.523424
571.271412	48471.951999
571.626625	48090.712218
571.981782	48176.593315
572.336884	47766.167775
572.691931	48088.751210
573.046923	47738.146521
573.401860	47568.146211
573.756743	47580.653313
574.111570	47737.337416
574.466342	47629.466806
574.821059	47792.280952
575.175722	47264.247813
575.530330	47373.592960
575.884882	47009.472939
576.239380	46901.151145
576.593823	46993.653798
576.948211	46939.479038
577.302544	46475.594582
577.656823	46455.545913
578.011047	46721.736480
578.365216	46567.139415
578.719330	46254.005623
579.073389	46228.157107
579.427394	46283.040149
579.781344	46178.902513
580.135239	45936.745647
580.489080	45996.964750
580.842866	45488.657646
581.196597	45966.924515
581.550273	45957.779862
581.903895	45873.932870
582.257463	46314.602813
582.610975	45751.092554
582.964434	46061.670481
583.317837	45529.342278
583.671186	45511.483991
584.024481	45771.294978
584.377721	45302.775181
584.730906	45520.124529
585.084037	45653.614282
585.437113	45382.493467
585.790135	45491.745353
586.143103	45025.189085
586.496016	45181.578280
586.848874	45298.512885
587.201679	45323.073387
587.554428	44781.235048
587.907124	45049.936109
588.259765	44825.642572
588.612352	44963.034179
588.964884	44402.888890
589.317362	44693.987798
589.669786	44704.554057
590.022155	44581.595273
590.374470	45045.235233
590.726731	44605.873470
591.078937	43922.963482
591.431090	44262.896047
591.783188	43760.396353
592.135232	43564.076178
592.487222	43807.576512
592.839157	43953.437257
593.191038	43600.059934
593.542866	43396.654417
593.894639	42747.215170
594.246358	43054.125658
594.598022	43025.406204
594.949633	42575.455497
595.301190	42547.429202
595.652692	42485.773370
596.004141	42978.654543
596.355535	41859.997299
596.706876	41833.884122
597.058162	41540.388145
597.409395	42025.508462
597.760573	42244.186154
598.111698	41834.937723
598.462768	41733.792013
598.813785	41735.057342
599.164748	41324.442759
599.515657	41578.363157
599.866511	41069.526732
600.217312	41734.505336
600.568060	40670.884889
600.918753	41479.964875
601.269392	41358.752852
601.619978	41064.609087
601.970510	41252.606316
602.320988	41341.320542
602.671412	41604.861982
603.021783	41431.736157
603.372100	40975.146250
603.722363	41073.100910
604.072572	41077.786663
604.422728	41053.899155
604.772830	40819.225882
605.122878	40978.228915
605.472872	40806.287761
605.822813	41028.262367
606.172701	40735.013407
606.522534	41030.835876
606.872314	41183.880266
607.222041	41037.648996
607.571714	41319.618374
607.921333	40771.985229
608.270899	40949.050717
608.620411	41282.006326
608.969870	41036.902905
609.319276	41006.983657
609.668627	41005.388132
610.017926	41356.305372
610.367171	41468.115643
610.716362	41466.124388
611.065500	41341.549914
611.414585	41510.690708
611.763616	41622.392595
612.112594	41486.725063
612.461518	41584.329363
612.810389	41890.561815
613.159207	41662.857937
613.507971	41593.814294
613.856682	42030.786550
614.205340	41827.093688
614.553945	42460.224803
614.902496	41766.579677
615.250994	42136.751604
615.599439	42168.987263
615.947830	42224.210582
616.296169	42158.363031
616.644454	42144.131853
616.992686	42223.797208
617.340864	42612.722227
617.688990	42071.090575
618.037063	42686.300388
618.385082	42429.254474
618.733048	42725.134917
619.080961	42525.507745
619.428821	42506.825229
619.776628	42488.659431
620.124382	42269.144907
620.472083	42334.460617
620.819731	42409.992225
621.167326	41951.506844
621.514868	41912.727768
621.862357	41331.079438
622.209793	41398.325909
622.557176	40939.291043
622.904506	40665.455566
623.251783	40302.820164
623.599007	39938.133013
623.946179	39815.885032
624.293297	39508.951859
624.640363	38952.068197
624.987376	38760.307746
625.334336	38520.041312
625.681243	38079.376411
626.028097	37932.116745
626.374899	37720.307625
626.721647	37627.948645
627.068343	37336.506939
627.414987	37019.390635
627.761577	36717.889306
628.108115	36975.197360
628.454600	36212.599333
628.801032	36363.092898
629.147412	36181.278644
629.493739	36027.200818
629.840014	35546.930091
630.186236	35874.595008
630.532405	35284.628774
630.878521	35439.172907
631.224585	35174.459398
631.570597	34796.085513
631.916556	34891.234772
632.262462	34725.232096
632.608316	34595.860965
632.954117	34415.309519
633.299866	34292.668329
633.645562	34179.139023
633.991206	33651.647808
634.336797	33234.066350
634.682336	33070.546443
635.027823	32818.128308
635.373257	32652.244100
635.718639	32307.398930
636.063968	32165.445078
636.409245	31524.381708
636.754470	31423.636769
637.099642	31180.948062
637.444762	30622.201693
637.789829	30676.958706
638.134845	30280.895413
638.479808	30141.061367
638.824719	30046.058302
639.169577	29527.560505
639.514383	29570.894264
639.859137	29160.130966
640.203839	29233.767100
640.548489	28935.103941
640.893086	28843.372585
641.237632	28532.643423
641.582125	28558.779286
641.926566	28306.683785
642.270955	28282.473643
642.615292	28157.168203
642.959576	27976.485687
643.303809	27921.017871
643.647990	27928.284695
643.992118	27845.574483
644.336195	27608.546991
644.680219	27606.946425
645.024192	27693.044292
645.368112	28066.676971
645.711981	27996.552000
646.055797	28487.320930
646.399562	28208.199803
646.743274	28833.988477
647.086935	29068.651668
647.430544	28974.021648
647.774101	28934.332644
648.117606	29105.525188
648.461059	29164.035340
648.804460	28788.310582
649.147810	28325.459562
649.491108	28014.606892
649.834354	27874.503145
650.177548	27150.427094
650.520690	26670.887335
650.863781	26580.880053
651.206820	26397.104790
651.549807	25985.466852
651.892742	25458.850277
652.235626	25325.481511
652.578458	25136.513859
652.921238	24523.716239
653.263967	24685.476783
653.606644	24372.095975
653.949269	24221.501586
654.291843	23846.966541
654.634365	24050.397263
654.976836	23611.736220
655.319255	23623.950936
655.661622	23448.818731
656.003938	23273.915898
656.346203	23077.726793
656.688416	23195.712478
657.030577	22950.457823
657.372687	22756.794336
657.714746	22785.057565
658.056753	22875.364795
658.398708	22340.233712
658.740612	22326.536897
659.082465	22403.396849
659.424266	22259.260178
659.766016	22174.372188
660.107715	21992.323520
660.449362	21991.222028
660.790958	21897.869941
661.132503	21789.205349
661.473996	21777.756889
661.815438	21767.934201
662.156829	21774.520468
662.498168	21558.890154
662.839456	21474.130713
663.180693	21488.394658
663.521879	21472.152061
663.863013	21369.335207
664.204097	21283.706168
664.545129	21496.314311
664.886110	21383.316848
665.227040	21380.887011
665.567918	21306.925723
665.908746	21259.574165
666.249522	21247.477916
666.590248	21192.960358
666.930922	21195.690142
667.271545	21133.754526
667.612118	21108.372317
667.952639	20911.618603
668.293109	20870.427335
668.633528	20696.371416
668.973896	20596.019687
669.314213	20525.703152
669.654480	20325.735703
669.994695	20251.706358
670.334859	20124.820516
670.674973	19933.428069
671.015035	19977.260902
671.355047	19867.877946
671.695008	19741.609645
672.034918	19603.272822
672.374777	19597.074723
672.714585	19450.286405
673.054342	19455.332600
673.394049	19299.944074
673.733705	19372.700527
674.073310	19116.141084
674.412864	19087.630839
674.752368	18867.410553
675.091820	18943.539538
675.431223	18647.149939
675.770574	18447.369012
676.109875	18283.350031
676.449125	18080.746057
676.788324	17948.892158
677.127473	17591.635667
677.466571	17468.931462
677.805619	17247.566835
678.144616	17148.069582
678.483562	17048.279941
678.822458	16793.046322
679.161303	16696.601487
679.500098	16593.023420
679.838842	16485.145248
680.177535	16447.928930
680.516179	16505.607291
680.854771	16479.320195
681.193314	16782.986699
681.531805	17222.464409
681.870247	17597.317048
682.208638	17995.714395
682.546978	18141.491961
682.885268	18181.480914
683.223508	17893.452069
683.561697	17680.435592
683.899836	17524.941202
684.237925	17231.311634
684.575963	17074.350268
684.913951	16804.908157
685.251889	16810.029969
685.589776	16737.326448
685.927614	16658.192936
686.265401	16692.021599
686.603137	16675.307653
686.940824	16856.201897
687.278460	16971.818240
687.616046	17005.478024
687.953582	17295.586346
688.291068	17196.522632
688.628504	17320.741704
688.965889	17283.253163
689.303224	17101.217098
689.640510	16900.465749
689.977745	16537.898402
690.314930	16117.657735
690.652065	15860.253899
690.989150	15471.641432
691.326185	15007.772099
691.663170	14639.430111
692.000105	14234.285179
692.336990	13897.417635
692.673825	13636.968942
693.010610	13342.953726
693.347345	13047.461452
693.684030	12687.429807
694.020665	12533.460365
694.357251	12167.543172
694.693786	12131.861885
695.030272	11976.213740
695.366707	11706.569982
695.703093	11523.114832
696.039429	11513.062771
696.375716	11358.609379
696.711952	11312.896196
697.048139	11210.946421
697.384276	11100.807292
697.720363	11106.529002
698.056400	11027.740808
698.392388	10921.006978
698.728326	10878.048786
699.064214	10779.839547
699.400053	10738.595347
699.735842	10530.597339
700.071581	10418.338405
700.407270	10280.520820
700.742910	10159.066821
701.078501	10023.132108
701.414042	9899.192820
701.749533	9737.744827
702.084974	9572.856246
702.420366	9624.034040
702.755709	9424.497609
703.091002	9265.285368
703.426246	9250.986135
703.761440	9190.255355
704.096584	9060.281806
704.431679	9001.010439
704.766725	8941.124052
705.101721	8884.451401
705.436668	8893.507833
705.771565	8758.714941
706.106413	8831.915016
706.441212	8829.533071
706.775961	8831.221857
707.110661	8830.105242
707.445311	8936.685316
707.779913	8864.163277
708.114465	8933.990819
708.448967	9021.008697
708.783421	9211.155978
709.117825	9323.752670
709.452180	9368.364361
709.786485	9504.503241
710.120742	9755.661088
710.454949	9770.819837
710.789107	9947.202249
711.123216	10181.381489
711.457275	10258.445608
711.791286	10438.692063
712.125247	10478.444082
712.459159	10374.714780
712.793023	10620.506318
713.126837	10240.549512
713.460602	10293.952975
713.794318	10135.272575
714.127985	10000.877934
714.461602	9644.629674
714.795171	9589.305531
715.128691	9216.502122
715.462162	8987.064087
715.795584	8801.516858
716.128957	8667.906117
716.462281	8500.348245
716.795556	8364.907565
717.128782	8172.640477
717.461960	7936.054086
717.795088	7891.013897
718.128167	7758.532374
718.461198	7586.321518
718.794180	7512.423243
719.127113	7381.552369
719.459997	7295.525079
719.792833	7152.721793
720.125619	7134.810573
720.458357	7005.331057
720.791046	6932.582166
721.123686	6862.953749
721.456278	6772.220542
721.788821	6751.145998
722.121315	6649.846532
722.453761	6656.805845
722.786158	6604.579491
723.118506	6607.442867
723.450805	6551.113014
723.783056	6590.736483
724.115259	6536.556682
724.447412	6503.302711
724.779518	6552.574948
725.111574	6548.463887
725.443582	6603.606549
725.775542	6573.500778
726.107453	6703.403751
726.439315	6663.818090
726.771129	6766.113184
727.102895	6864.957608
727.434612	6938.046777
727.766281	6973.997766
728.097901	7059.528502
728.429473	7068.174081
728.760996	7049.778911
729.092471	7061.255098
729.423897	7009.006059
729.755276	6940.733712
730.086606	6935.251457
730.417887	7053.670682
730.749120	7171.404309
731.080305	7213.477779
731.411442	7298.499359
731.742530	7304.798281
732.073570	7315.354457
732.404562	7383.818368
732.735506	7339.199115
733.066401	7289.195910
733.397249	7140.854917
733.728048	6959.212062
734.058798	6702.556837
734.389501	6483.226315
734.720156	6314.080480
735.050762	6142.093955
735.381320	6013.509244
735.711831	5917.049286
736.042293	5803.928314
736.372707	5791.622858
736.703073	5716.335745
737.033391	5748.135344
737.363661	5731.902828
737.693883	5745.125775
738.024056	5783.587258
738.354182	5823.641746
738.684260	5905.116875
739.014290	5968.852183
739.344272	6020.302199
739.674207	6097.746925
740.004093	6135.321165
740.333931	6140.790817
740.663722	6149.138968
740.993464	6143.487834
741.323159	6095.334733
741.652806	6006.827195
741.982405	5941.962668
742.311956	5835.899312
742.641460	5785.578514
742.970915	5688.140572
743.300323	5583.521506
743.629683	5508.594837
743.958996	5425.667856
744.288260	5331.194112
744.617477	5244.254373
744.946647	5214.468715
745.275768	5133.938803
745.604842	5070.200975
745.933869	5013.145195
746.262847	4998.306559
746.591778	4961.160817
746.920662	4922.210342
747.249498	4911.056789
747.578286	4926.346608
747.907027	4953.369714
748.235720	5004.534905
748.564365	5014.017315
748.892963	4991.407740
749.221514	5000.829657
749.550017	4960.971774
749.878473	4946.967448
750.206881	4886.995362
750.535242	4858.414540
750.863555	4830.945292
751.191821	4798.104696
751.520039	4788.100526
751.848210	4761.518522
752.176334	4757.014251
752.504411	4738.074636
752.832440	4690.251730
753.160421	4704.137588
753.488356	4678.689843
753.816243	4654.542717
754.144082	4610.762816
754.471875	4591.561061
754.799620	4574.645469
755.127318	4562.667688
755.454969	4553.507911
755.782572	4537.477042
756.110129	4532.529149
756.437638	4506.302547
756.765100	4498.602184
757.092515	4496.686546
757.419882	4494.007172
757.747203	4491.844517
758.074477	4500.969006
758.401703	4491.345443
758.728882	4519.041542
759.056014	4521.718395
759.383099	4544.811921
759.710138	4562.403027
760.037129	4578.930450
760.364073	4583.719546
760.690970	4580.115121
761.017820	4574.542126
761.344623	4592.508798
761.671379	4638.872290
761.998088	4716.221234
762.324751	4942.339669
762.651366	5441.353406
762.977935	6183.852353
763.304456	6750.712459
763.630931	7020.351175
763.957359	6867.495829
764.283740	6500.235168
764.610074	6115.726200
764.936362	5662.952447
765.262602	5322.256146
765.588796	4981.350638
765.914943	4738.901385
766.241044	4534.669119
766.567097	4385.884505
766.893104	4251.263012
767.219064	4164.129188
767.544978	4073.085950
767.870845	3994.295236
768.196665	3946.263122
768.522438	3898.231008
768.848165	3860.739947
769.173846	3818.621106
769.499479	3788.769914
769.825066	3754.943772
770.150607	3713.288717
770.476101	3692.927497
770.801548	3665.526305
771.126949	3633.983806
771.452303	3612.634519
771.777611	3574.788057
772.102872	3566.989392
772.428087	3540.732542
772.753256	3514.909231
773.078378	3497.847446
773.403453	3464.444761
773.728482	3440.799228
774.053465	3425.138884
774.378401	3403.585431
774.703291	3384.968450
775.028135	3364.355172
775.352932	3352.379911
775.677683	3333.329390
776.002388	3313.011020
776.327046	3312.698468
776.651658	3290.429171
776.976224	3273.223713
777.300743	3273.188425
777.625216	3256.227463
777.949643	3250.180599
778.274024	3249.374014
778.598359	3229.416086
778.922647	3233.625449
779.246889	3223.850652
779.571086	3220.853686
779.895236	3223.722103
780.219339	3218.320506
780.543397	3219.507698
780.867409	3226.136815
781.191374	3227.155128
781.515294	3218.174313
781.839167	3227.840725
782.162995	3219.732029
782.486776	3209.992520
782.810511	3198.211344
783.134201	3181.734332
783.457844	3181.404137
783.781441	3169.030625
784.104993	3162.338493
784.428498	3150.038077
784.751958	3147.845176
785.075372	3141.268990
785.398739	3128.091414
785.722061	3132.061323
786.045337	3128.938328
786.368568	3142.499032
786.691752	3141.387457
787.014891	3176.665452
787.337983	3218.620455
787.661030	3295.261117
787.984031	3374.240874
788.306987	3429.615429
788.629897	3451.751135
788.952760	3443.834003
789.275579	3409.294538
789.598351	3357.327803
789.921078	3308.103456
790.243759	3255.937596
790.566395	3213.569219
790.888984	3179.659897
791.211529	3152.372132
791.534027	3123.141001
791.856480	3094.716455
792.178888	3081.155751
792.501249	3063.521795
792.823566	3047.039743
793.145836	3042.437169
793.468062	3038.585728
793.790241	3027.555683
794.112375	3032.236394
794.434464	3048.567212
794.756507	3048.242058
795.078505	3062.735375
795.400457	3098.366251
795.722364	3139.537354
796.044226	3174.470030
796.366042	3210.660473
796.687812	3200.832744
797.009538	3204.553115
797.331218	3192.048533
797.652852	3175.836182
797.974442	3155.364057
798.295986	3144.969197
798.617484	3120.045733
798.938938	3101.282558
799.260346	3087.046340
799.581709	3062.483318
799.903026	3054.331772
800.224299	3040.292158
800.545526	3021.070239
800.866708	3010.274608
801.187845	2999.630211
801.508936	2989.464725
801.829983	2982.127325
802.150984	2965.579738
802.471940	2959.174952
802.792851	2956.162862
803.113717	2950.872171
803.434538	2945.457972
803.755314	2939.718618
804.076045	2937.926488
804.396731	2931.688060
804.717372	2932.920623
805.037967	2934.125458
805.358518	2934.077567
805.679024	2942.158537
805.999485	2945.097530
806.319901	2950.002572
806.640272	2947.726491
806.960598	2957.218984
807.280879	2954.259827
807.601115	2962.676033
807.921306	2952.918880
808.241453	2951.711523
808.561554	2951.502316
808.881611	2949.858899
809.201623	2943.239864
809.521590	2938.385233
809.841513	2936.489759
810.161390	2938.284410
810.481223	2921.656164
810.801011	2918.792789
811.120755	2913.998652
811.440453	2904.090264
811.760107	2898.091291
812.079716	2893.264386
812.399281	2885.037223
812.718801	2883.003117
813.038276	2879.192005
813.357707	2872.177239
813.677093	2868.686240
813.996434	2863.856815
814.315731	2863.866897
814.634983	2862.752802
814.954191	2855.697707
815.273354	2863.932432
815.592473	2870.304451
815.911547	2877.969525
816.230577	2884.212994
816.549562	2901.612537
816.868502	2907.243505
817.187399	2912.577046
817.506250	2923.599529
817.825058	2920.892429
818.143821	2941.672066
818.462539	2963.228039
818.781213	2981.845021
819.099843	3024.641896
819.418429	3102.918413
819.736970	3184.572502
820.055466	3274.005092
820.373919	3381.369066
820.692327	3536.041748
821.010691	3818.689162
821.329011	4558.460845
821.647286	6001.448283
821.965517	7924.414062
822.283704	9277.114435
822.601847	9830.819650
822.919945	9055.591012
823.237999	8093.335566
823.556010	7176.684918
823.873976	6392.621657
824.191897	5705.605649
824.509775	5206.980081
824.827609	4744.383640
825.145398	4434.317390
825.463144	4247.575408
825.780845	4203.586299
826.098502	4297.752532
826.416116	4579.661417
826.733685	4902.494389
827.051210	5045.824475
827.368692	4950.193787
827.686129	4636.122340
828.003522	4294.596770
828.320872	3985.367352
828.638177	3749.307762
828.955439	3566.235739
829.272656	3414.870054
829.589830	3288.122843
829.906960	3176.337777
830.224046	3094.713935
830.541088	3026.716331
830.858086	2984.720999
831.175041	2945.336984
831.491952	2930.049685
831.808819	2924.028027
832.125642	2937.616457
832.442421	2985.162100
832.759157	3091.792586
833.075849	3286.544962
833.392497	3530.012528
833.709101	3714.244016
834.025662	3744.901793
834.342179	3641.061586
834.658653	3477.980259
834.975083	3335.771829
835.291469	3215.162223
835.607811	3112.705813
835.924110	3044.650236
836.240366	2979.573981
836.556578	2920.879827
836.872746	2866.289172
837.188871	2829.082936
837.504952	2798.054634
837.820990	2772.274173
838.136984	2754.635176
838.452935	2745.298959
838.768842	2744.280646
839.084706	2757.559045
839.400526	2832.959583
839.716303	2939.290120
840.032037	3028.790766
840.347727	3039.616644
840.663373	2982.129846
840.978977	2909.320461
841.294537	2850.079341
841.610054	2809.147693
841.925527	2777.781633
842.240957	2749.528487
842.556344	2725.154508
842.871687	2706.565253
843.186987	2687.817202
843.502244	2668.020591
843.817458	2653.960813
844.132629	2644.667446
844.447756	2637.443472
844.762840	2634.101187
845.077881	2626.073150
845.392879	2619.711213
845.707833	2613.707199
846.022745	2612.366252
846.337613	2612.179730
846.652438	2609.081941
846.967221	2609.762496
847.281960	2602.213368
847.596656	2603.292175
847.911309	2602.904007
848.225919	2598.548450
848.540485	2598.684561
848.855009	2596.456371
849.169490	2593.834971
849.483928	2594.447471
849.798323	2593.260279
850.112675	2592.047882
850.426984	2594.089549
850.741251	2589.252562
851.055474	2589.678539
851.369654	2588.236769
851.683792	2591.125351
851.997887	2591.377408
852.311938	2592.824219
852.625947	2590.590988
852.939914	2587.407500
853.253837	2590.311204
853.567718	2587.813312
853.881555	2588.120823
854.195350	2589.086204
854.509103	2585.519587
854.822812	2589.088724
855.136479	2589.005545
855.450103	2589.459249
855.763685	2584.927252
856.077224	2582.749473
856.390720	2584.440781
856.704173	2583.142683
857.017584	2592.441092
857.330953	2590.815320
857.644278	2591.510999
857.957561	2591.914291
858.270802	2592.327666
858.584000	2589.335741
858.897155	2591.571493
859.210268	2589.817171
859.523339	2588.007397
859.836367	2587.339444
860.149352	2587.778024
860.462295	2580.455748
860.775195	2584.012282
861.088054	2585.804413
861.400869	2583.934145
861.713642	2587.402458
862.026373	2582.900708
862.339062	2584.425657
862.651708	2586.018662
862.964312	2586.636203
863.276873	2587.702407
863.589392	2589.802048
863.901869	2593.706421
864.214303	2596.771443
864.526696	2598.165322
864.839045	2600.063316
865.151353	2603.443410
865.463619	2601.873091
865.775842	2600.539705
866.088023	2605.666559
866.400162	2604.076075
866.712258	2602.876280
867.024313	2604.393667
867.336325	2602.717484
867.648296	2600.781681
867.960224	2600.915271
868.272110	2602.304109
868.583954	2605.170005
868.895755	2607.118411
869.207515	2600.890066
869.519233	2602.740169
869.830909	2604.527258
870.142542	2605.495160
870.454134	2609.560850
870.765684	2610.009513
871.077191	2609.971704
871.388657	2609.064297
871.700081	2611.010182
872.011463	2613.729884
872.322803	2613.992024
872.634101	2620.469907
872.945357	2621.279012
873.256571	2626.567183
873.567744	2628.026597
873.878874	2628.823099
874.189963	2631.963738
874.501010	2631.378964
874.812015	2631.633542
875.122979	2632.399798
875.433900	2632.301495
875.744780	2632.538429
876.055618	2634.413739
876.366415	2633.987761
876.677169	2638.187042
876.987882	2638.053452
877.298554	2638.681075
877.609183	2644.052425
877.919771	2647.583753
878.230317	2657.774446
878.540822	2665.805004
878.851285	2682.506346
879.161707	2704.389995
879.472087	2737.974162
879.782425	2789.131791
880.092722	2894.239849
880.402977	3083.724219
880.713191	3382.122718
881.023363	3732.195565
881.333494	3975.842092
881.643583	4067.497831
881.953631	4013.552443
882.263637	3898.450298
882.573602	3775.277266
882.883526	3659.900378
883.193408	3547.235630
883.503248	3439.218827
883.813048	3341.458251
884.122806	3253.878285
884.432522	3161.491579
884.742197	3075.176943
885.051831	3001.535768
885.361424	2931.849377
885.670975	2876.046325
885.980485	2829.660148
886.289954	2796.801907
886.599382	2762.552308
886.908768	2739.262177
887.218113	2716.236707
887.527417	2700.263811
887.836680	2680.300842
888.145901	2674.594255
888.455082	2662.888696
888.764221	2654.530463
889.073319	2646.877992
889.382376	2642.265336
889.691392	2636.367186
890.000366	2634.887607
890.309300	2634.945580
890.618193	2635.406846
890.927044	2632.729993
891.235855	2633.937350
891.544625	2635.689151
891.853353	2638.502114
892.162041	2641.506642
892.470687	2651.208343
892.779293	2661.267965
893.087858	2677.356808
893.396381	2703.462423
893.704864	2742.019688
894.013306	2794.107410
894.321707	2856.312728
894.630068	2901.809142
894.938387	2917.172058
895.246665	2912.672828
895.554903	2883.973539
895.863100	2851.059846
896.171256	2827.321052
896.479371	2800.930612
896.787446	2777.879936
897.095480	2751.975967
897.403473	2737.132289
897.711425	2717.696121
898.019336	2707.724718
898.327207	2691.194775
898.635038	2680.976356
898.942827	2666.722494
899.250576	2656.993067
899.558284	2643.444966
899.865952	2638.159316
900.173579	2630.809314
900.481165	2623.852521
900.788711	2620.782459
901.096216	2619.260030
901.403681	2613.903804
901.711105	2610.773248
902.018489	2607.985490
902.325832	2610.596807
902.633135	2613.276181
902.940397	2628.356792
903.247619	2657.802172
903.554800	2727.821278
903.861941	2825.148315
904.169041	2913.446645
904.476101	2963.157463
904.783121	2957.922225
905.090100	2923.796134
905.397039	2882.829197
905.703938	2840.576766
906.010796	2805.883546
906.317614	2777.590070
906.624391	2747.343147
906.931129	2726.760115
907.237826	2703.845551
907.544483	2684.822757
907.851099	2665.973882
908.157675	2645.907569
908.464211	2627.083901
908.770707	2611.259719
909.077163	2597.646083
909.383578	2591.054774
909.689954	2579.876016
909.996289	2576.311920
910.302584	2574.174471
910.608839	2567.867987
910.915054	2568.576269
911.221229	2569.077864
911.527363	2570.277659
911.833458	2567.933522
912.139513	2570.214644
912.445527	2569.992834
912.751502	2573.337639
913.057436	2579.331571
913.363331	2585.660740
913.669186	2595.748089
913.975000	2605.543051
914.280775	2627.872842
914.586510	2651.591470
914.892205	2691.018335
915.197859	2740.030953
915.503475	2799.209058
915.809050	2854.016482
916.114585	2894.081053
916.420081	2911.878846
916.725536	2917.245155
917.030952	2899.391908
917.336328	2879.547406
917.641665	2856.985722
917.946961	2834.131651
918.252218	2812.989052
918.557435	2782.139711
918.862612	2763.709252
919.167750	2749.770462
919.472848	2724.763818
919.777906	2707.021477
920.082925	2688.316276
920.387904	2669.293482
920.692843	2655.364774
920.997743	2642.842548
921.302603	2626.978037
921.607423	2618.599639
921.912204	2607.176384
922.216946	2602.316712
922.521647	2597.693974
922.826310	2589.935638
923.130932	2585.799372
923.435516	2578.608166
923.740059	2573.375448
924.044564	2568.717422
924.349028	2570.144068
924.653454	2562.945301
924.957840	2561.833726
925.262186	2556.727037
925.566493	2553.478014
925.870761	2549.339226
926.174989	2549.803013
926.479178	2545.838145
926.783328	2545.865871
927.087438	2544.091385
927.391509	2542.269008
927.695541	2539.347659
927.999533	2534.868594
928.303486	2536.955632
928.607400	2536.103677
928.911275	2532.912627
929.215110	2531.924560
929.518906	2532.458923
929.822663	2535.723070
930.126381	2533.356248
930.430060	2532.201824
930.733699	2533.162164
931.037299	2532.917668
931.340861	2532.413552
931.644383	2533.222658
931.947866	2533.862884
932.251309	2535.029911
932.554714	2533.530168
932.858080	2530.939015
933.161407	2528.463808
933.464694	2530.901206
933.767943	2527.120341
934.071153	2532.917668
934.374323	2532.075795
934.677455	2533.424304
934.980548	2528.305012
935.283602	2528.433561
935.586617	2530.941535
935.889593	2528.788963
936.192530	2528.138654
936.495428	2530.581093
936.798287	2531.879190
937.101108	2534.445137
937.403890	2534.006557
937.706632	2540.691127
938.009336	2539.088040
938.312002	2544.547610
938.614628	2547.423588
938.917216	2549.624052
939.219765	2552.885678
939.522275	2556.984136
939.824747	2554.123281
940.127179	2556.341389
940.429573	2552.096737
940.731929	2554.652602
941.034246	2555.275185
941.336524	2556.013714
941.638763	2553.173024
941.940964	2552.318548
942.243126	2551.305276
942.545250	2551.020451
942.847335	2547.836963
943.149381	2546.717826
943.451389	2542.611807
943.753359	2543.005017
944.055290	2541.187681
944.357182	2539.713143
944.659036	2539.309851
944.960851	2539.647608
945.262628	2535.087884
945.564367	2534.571166
945.866067	2535.977648
946.167729	2535.763399
946.469352	2535.123172
946.770937	2538.072247
947.072484	2534.790456
947.373992	2535.342463
947.675462	2530.268541
947.976893	2531.541433
948.278286	2528.005063
948.579641	2529.512368
948.880958	2528.249559
949.182236	2530.331556
949.483476	2530.654190
949.784678	2530.467667
950.085841	2530.457585
950.386967	2532.768954
950.688054	2533.119314
950.989103	2533.058820
951.290114	2538.714995
951.591087	2536.983358
951.892021	2534.326670
952.192917	2538.851106
952.493776	2536.769109
952.794596	2538.417567
953.095378	2537.452186
953.396122	2540.648277
953.696828	2535.846578
953.997496	2538.556198
954.298126	2536.819521
954.598718	2537.578214
954.899272	2537.437062
955.199788	2531.707791
955.500266	2532.695857
955.800706	2534.039324
956.101108	2527.899199
956.401472	2525.597912
956.701798	2523.576410
957.002087	2524.178828
957.302337	2520.707993
957.602550	2520.435771
957.902724	2516.052488
958.202861	2516.203722
958.502960	2518.043743
958.803022	2514.598115
959.103045	2512.463186
959.403031	2511.308762
959.702979	2510.562671
960.002889	2511.873371
960.302762	2509.647702
960.602596	2510.035870
960.902393	2507.900942
961.202153	2509.947650
961.501875	2505.256857
961.801559	2507.485047
962.101205	2505.743328
962.400814	2506.885149
962.700385	2504.336846
962.999918	2502.917761
963.299414	2502.305261
963.598873	2501.319715
963.898293	2497.896772
964.197677	2501.768378
964.497022	2500.321567
964.796331	2501.806187
965.095601	2503.187463
965.394835	2502.678306
965.694030	2501.586897
965.993189	2502.847185
966.292309	2501.130672
966.591393	2505.206445
966.890439	2502.083450
967.189447	2501.937257
967.488419	2499.328460
967.787353	2503.036228
968.086249	2502.085971
968.385108	2502.229644
968.683930	2497.906854
968.982714	2500.750065
969.281462	2499.008346
969.580172	2506.312978
969.878844	2500.419869
970.177480	2501.730569
970.476078	2502.902638
970.774639	2505.138389
971.073162	2504.848523
971.371649	2502.632936
971.670098	2503.227792
971.968510	2505.899604
972.266885	2500.757627
972.565223	2502.990858
972.863524	2502.736280
973.161788	2503.462206
973.460014	2504.321722
973.758204	2503.714263
974.056356	2504.072185
974.354471	2504.944305
974.652550	2501.438183
974.950591	2506.237361
975.248595	2506.000427
975.546563	2503.074037
975.844493	2501.591938
976.142386	2501.604541
976.440243	2504.679644
976.738062	2504.551095
977.035845	2505.370282
977.333590	2504.505725
977.631299	2501.317195
977.928971	2496.911226
978.226606	2499.610764
978.524204	2500.354334
978.821765	2494.297388
979.119290	2499.086484
979.416777	2500.641680
979.714228	2498.589931
980.011642	2501.365086
980.309020	2501.420538
980.606360	2503.704181
980.903664	2503.348780
981.200931	2505.334994
981.498162	2509.272136
981.795356	2510.567712
982.092513	2516.405368
982.389633	2523.654548
982.686717	2528.743592
982.983764	2531.745599
983.280775	2537.812628
983.577749	2536.567463
983.874686	2537.895807
984.171587	2534.039324
984.468451	2531.576721
984.765279	2530.139992
985.062070	2528.325177
985.358824	2526.180166
985.655543	2519.341840
985.952224	2520.450894
986.248869	2514.167096
986.545478	2511.281035
986.842050	2506.807011
987.138586	2503.852895
987.435086	2502.441372
987.731549	2498.826865
988.027975	2500.268635
988.324366	2495.829899
988.620719	2493.778149
988.917037	2492.825371
989.213318	2493.735299
989.509563	2491.348313
989.805772	2494.471308
990.101944	2494.620022
990.398080	2495.038438
990.694180	2490.287150
990.990244	2492.139774
991.286271	2493.190855
991.582262	2493.659682
991.878217	2490.902171
992.174136	2495.466936
992.470019	2491.181955
992.765865	2493.314363
993.061676	2489.140288
993.357450	2491.486945
993.653188	2486.246665
993.948890	2494.834271
994.244556	2494.020125
994.540186	2495.567759
994.835780	2498.892400
995.131337	2501.407936
995.426859	2503.177381
995.722345	2504.861126
996.017795	2508.311796
996.313208	2508.485716
996.608586	2509.463699
996.903928	2513.110974
997.199234	2512.188443
997.494504	2512.354801
997.789738	2512.196005
998.084936	2508.463030
998.380099	2509.100736
998.675225	2511.913700
998.970316	2508.354646
999.265371	2501.614623
999.560390	2499.469612
999.855373	2497.687564
1000.150320	2495.129178
1000.445232	2494.965341
1000.740108	2493.266472
1001.034948	2493.989878
1001.329752	2492.291009
1001.624521	2491.234887
1001.919254	2489.793117
1002.213951	2489.513333
1002.508613	2487.343116
1002.803239	2487.517036
1003.097829	2487.658188
1003.392384	2486.937303
1003.686903	2483.587457
1003.981386	2486.672643
1004.275834	2488.386635
1004.570246	2488.953765
1004.864623	2485.306490
1005.158964	2485.944196
1005.453270	2484.010914
1005.747540	2486.977633
1006.041775	2485.160297
1006.335974	2484.305821
1006.630138	2486.395379
1006.924266	2486.400421
1007.218359	2484.774648
1007.512416	2481.205512
1007.806438	2484.141984
1008.100425	2481.502940
1008.394376	2477.890953
1008.688292	2484.482262
1008.982172	2484.119298
1009.276017	2483.698362
1009.569827	2482.909422
1009.863602	2481.515542
1010.157341	2485.099803
1010.451045	2482.629638
1010.744714	2483.058136
1011.038347	2482.735502
1011.331945	2483.670636
1011.625508	2480.446818
1011.919036	2483.834473
1012.212528	2481.596201
1012.505986	2480.865234
1012.799408	2483.068218
1013.092795	2482.554020
1013.386147	2481.467652
1013.679464	2482.803557
1013.972745	2481.263485
1014.265992	2481.951602
1014.559204	2482.475882
1014.852380	2483.521922
1015.145521	2482.352374
1015.438628	2485.026706
1015.731699	2480.232569
1016.024736	2481.134935
1016.317737	2483.027889
1016.610703	2478.599235
1016.903635	2484.772128
1017.196531	2478.442959
1017.489393	2482.470841
1017.782219	2478.274081
1018.075011	2480.686273
1018.367768	2481.644092
1018.660490	2480.991263
1018.953177	2480.991263
1019.245829	2480.991263
