Dividing Wavelength (nm)	Counts (n)	Blue Motor Position (mm): 0.000000	Red Motor Position (mm): 9.000000	
326.493990	2056.828578
326.888308	2056.828578
327.282561	2056.828578
327.676750	2027.973013
328.070874	2030.309588
328.464933	2036.926102
328.858929	2046.176620
329.252859	2056.392518
329.646726	2069.091185
330.040528	2085.036354
330.434265	2100.326174
330.827938	2124.256531
331.221547	2144.332926
331.615091	2163.315391
332.008571	2185.972857
332.401986	2203.674869
332.795338	2226.191183
333.188625	2243.716754
333.581847	2262.520258
333.975006	2281.807712
334.368100	2298.625002
334.761129	2315.835501
335.154095	2330.275886
335.546996	2346.155521
335.939833	2359.227233
336.332606	2372.487988
336.725315	2381.151211
337.117960	2396.118396
337.510540	2403.375137
337.903056	2414.687487
338.295508	2417.997004
338.687896	2425.588982
339.080220	2434.171546
339.472480	2436.722370
339.864676	2437.808739
340.256807	2443.089347
340.648875	2448.163269
341.040879	2446.766869
341.432818	2447.160079
341.824694	2448.213680
342.216506	2449.990687
342.608253	2447.916252
342.999937	2445.267126
343.391557	2445.362908
343.783113	2444.609255
344.174605	2447.770059
344.566033	2441.730756
344.957397	2441.493822
345.348697	2436.697164
345.739934	2440.094902
346.131106	2434.584921
346.522215	2436.467792
346.913260	2429.972265
347.304241	2431.834971
347.695159	2429.226174
348.086012	2426.561924
348.476802	2424.648807
348.867528	2421.619073
349.258191	2419.584967
349.648789	2421.689649
350.039324	2417.543300
350.429796	2423.348189
350.820203	2418.748136
351.210548	2419.557241
351.600828	2417.477765
351.991045	2418.685122
352.381198	2419.653023
352.771288	2417.971798
353.161314	2418.521284
353.551276	2418.402817
353.941175	2417.724782
354.331010	2418.117992
354.720782	2415.834349
355.110490	2420.225194
355.500135	2418.569175
355.889717	2418.445667
356.279235	2417.598753
356.668689	2419.010276
357.058080	2418.002045
357.447408	2422.425658
357.836672	2419.915163
358.225873	2421.114958
358.615010	2421.571182
359.004084	2420.946079
359.393095	2422.206367
359.782043	2422.261820
360.170927	2424.595874
360.559748	2425.220977
360.948505	2427.839857
361.337199	2422.975143
361.725830	2424.525298
362.114398	2424.432037
362.502903	2426.791297
362.891344	2426.246852
363.279722	2425.760381
363.668037	2428.202820
364.056289	2429.662234
364.444478	2429.523602
364.832603	2429.780701
365.220665	2431.774477
365.608665	2431.555187
365.996601	2430.378078
366.384474	2428.684250
366.772284	2430.105856
367.160031	2430.730959
367.547715	2430.640218
367.935336	2431.124169
368.322893	2430.637697
368.710388	2429.049734
369.097820	2430.572162
369.485189	2429.122831
369.872495	2434.804211
370.259738	2434.070723
370.646918	2437.140786
371.034035	2436.152720
371.421090	2436.518203
371.808081	2436.094746
372.195010	2437.927206
372.581875	2438.413677
372.968678	2442.617999
373.355418	2439.651280
373.742096	2442.252516
374.128710	2444.843669
374.515262	2448.894236
374.901751	2450.484720
375.288177	2456.168621
375.674540	2457.048302
376.060841	2462.790177
376.447079	2462.170115
376.833254	2468.963069
377.219367	2475.325006
377.605417	2480.038484
377.991404	2482.543938
378.377329	2492.933756
378.763191	2497.407780
379.148991	2505.415653
379.534727	2516.400327
379.920402	2521.975843
380.306013	2533.520086
380.691563	2545.107178
381.077049	2554.327448
381.462474	2564.626525
381.847835	2578.474575
382.233134	2589.592840
382.618371	2605.432145
383.003545	2619.617952
383.388657	2634.401136
383.773706	2650.777324
384.158693	2664.821979
384.543618	2679.590039
384.928480	2694.942873
385.313280	2712.274360
385.698017	2727.392780
386.082692	2752.432191
386.467305	2760.087183
386.851856	2779.838424
387.236344	2801.739717
387.620770	2815.560040
388.005133	2832.226095
388.389435	2855.725434
388.773674	2864.494521
389.157851	2888.402193
389.541965	2904.765778
389.926018	2910.719381
390.310008	2935.010181
390.693936	2951.401493
391.077802	2964.357258
391.461606	2986.795434
391.845348	2988.827019
392.229027	3004.714215
392.612645	3027.671630
392.996200	3040.294679
393.379694	3059.899726
393.763125	3080.008889
394.146494	3089.019951
394.529801	3098.585541
394.913047	3118.682101
395.296230	3107.702468
395.679351	3114.404682
396.062410	3128.555200
396.445408	3101.408587
396.828343	3111.294290
397.211217	3111.405195
397.594028	3080.147521
397.976778	3092.662185
398.359466	3092.221084
398.742092	3079.829928
399.124656	3065.374419
399.507158	3078.602407
399.889598	3064.020869
400.271977	3072.164853
400.654294	3044.360369
401.036549	3049.431770
401.418742	3027.790097
401.800874	3033.181611
402.182944	3022.302801
402.564952	3032.266641
402.946898	3006.982734
403.328783	2981.048518
403.710606	2971.876139
404.092367	2975.238588
404.474067	2966.071250
404.855705	2936.933381
405.237282	2906.613361
405.618797	2906.935995
406.000250	2906.252919
406.381642	2901.627660
406.762972	2875.466592
407.144240	2840.997703
407.525447	2832.488235
407.906593	2812.119453
408.287677	2809.782878
408.668700	2790.823098
409.049661	2775.752569
409.430560	2760.702204
409.811399	2737.212948
410.192176	2728.179200
410.572891	2719.236193
410.953545	2712.181098
411.334138	2682.120698
411.714669	2673.795232
412.095139	2654.225473
412.475547	2647.785399
412.855894	2633.488687
413.236180	2628.520630
413.616405	2606.826024
413.996568	2602.518358
414.376670	2588.819023
414.756711	2577.486509
415.136691	2570.582649
415.516609	2562.431103
415.896466	2557.967161
416.276262	2547.446273
416.655997	2543.993083
417.035670	2542.107691
417.415283	2534.651825
417.794834	2532.932791
418.174324	2519.959382
418.553753	2515.137518
418.933121	2515.780265
419.312428	2509.110819
419.691674	2500.465240
420.070859	2500.921464
420.449983	2495.091370
420.829045	2494.867038
421.208047	2490.009887
421.586988	2488.878148
421.965867	2487.012921
422.344686	2486.662561
422.723444	2486.218939
423.102141	2481.472693
423.480777	2481.018989
423.859352	2480.194760
424.237866	2482.642240
424.616319	2479.463793
424.994712	2477.437249
425.373044	2478.261478
425.751314	2476.492033
426.129524	2471.294603
426.507673	2475.103195
426.885762	2474.284007
427.263789	2477.543113
427.641756	2475.438432
428.019662	2475.808956
428.397508	2477.059163
428.775292	2474.803246
429.153016	2474.226034
429.530679	2474.992289
429.908282	2473.782413
430.285824	2474.490695
430.663305	2473.134624
431.040726	2476.267701
431.418086	2472.428863
431.795385	2473.369038
432.172624	2473.694192
432.549802	2473.996662
432.926920	2471.725622
433.303977	2476.688638
433.680974	2474.410036
434.057910	2473.973976
434.434786	2472.779223
434.811601	2475.274594
435.188355	2477.016313
435.565050	2473.605972
435.941683	2474.145376
436.318257	2474.251240
436.694770	2472.101188
437.071222	2474.717547
437.447614	2473.679069
437.823946	2473.371558
438.200218	2474.755355
438.576429	2477.477578
438.952580	2472.275107
439.328670	2474.556230
439.704700	2474.036991
440.080670	2477.346508
440.456580	2476.277784
440.832429	2475.972794
441.208218	2471.844089
441.583947	2473.885756
441.959616	2477.202835
442.335224	2475.231744
442.710773	2475.965232
443.086261	2476.353401
443.461689	2475.451034
443.837057	2476.759214
444.212365	2477.167547
444.587612	2474.331898
444.962800	2472.330560
445.337927	2476.237454
445.712995	2470.510704
446.088002	2477.596045
446.462949	2476.282825
446.837837	2479.216776
447.212664	2476.681076
447.587431	2478.621920
447.962139	2482.271716
448.336786	2485.006542
448.711374	2483.315234
449.085901	2479.340285
449.460369	2480.063690
449.834776	2479.831797
450.209124	2481.558392
450.583412	2479.925058
450.957640	2481.555872
451.331808	2483.582416
451.705917	2480.819863
452.079965	2481.218114
452.453954	2478.445480
452.827883	2482.687611
453.201752	2481.969246
453.575562	2482.932107
453.949311	2479.733495
454.323001	2480.179637
454.696632	2481.452528
455.070202	2485.677015
455.443713	2480.915645
455.817164	2485.440081
456.190556	2483.055615
456.563888	2485.634165
456.937160	2482.692652
457.310373	2485.140132
457.683526	2482.790954
458.056619	2484.593167
458.429653	2484.119298
458.802628	2482.942189
459.175542	2487.456542
459.548398	2484.414206
459.921194	2487.922849
460.293930	2486.907057
460.666607	2489.775473
461.039224	2489.510813
461.411782	2492.104486
461.784280	2489.110041
462.156719	2490.012407
462.529099	2489.614156
462.901419	2489.793117
463.273680	2484.951089
463.645882	2486.392859
464.018024	2485.717344
464.390106	2483.519401
464.762130	2490.844198
465.134094	2495.209837
465.505999	2497.354848
465.877845	2502.534633
466.249631	2502.877432
466.621358	2504.271311
466.993026	2499.565394
467.364634	2502.539675
467.736184	2498.489108
468.107674	2494.156236
468.479105	2498.048007
468.850477	2494.733448
469.221790	2493.934425
469.593043	2493.818478
469.964238	2493.737820
470.335373	2494.773777
470.706449	2495.567759
471.077467	2496.013901
471.448425	2498.990702
471.819324	2497.241422
472.190164	2501.433141
472.560945	2496.460043
472.931667	2498.663027
473.302330	2494.625063
473.672934	2494.370485
474.043479	2494.317553
474.413965	2497.311998
474.784393	2495.345948
475.154761	2497.236381
475.525070	2496.777636
475.895321	2494.635145
476.265513	2495.517347
476.635645	2498.249653
477.005719	2497.432986
477.375734	2494.282265
477.745691	2497.438027
478.115588	2500.883656
478.485427	2500.611433
478.855207	2503.784840
479.224928	2503.051352
479.594591	2505.985303
479.964194	2507.081754
480.333739	2505.735766
480.703226	2505.876918
481.072653	2504.021774
481.442022	2506.927999
481.811333	2504.452793
482.180584	2501.032370
482.549777	2507.560664
482.918912	2500.374499
483.287988	2505.145951
483.657005	2504.551095
484.025964	2505.458503
484.394864	2507.742145
484.763706	2505.776095
485.132489	2503.018584
485.501213	2504.243585
485.869879	2503.492453
486.238487	2505.077896
486.607036	2505.234171
486.975527	2503.280724
487.343959	2505.342556
487.712333	2503.845333
488.080648	2503.552947
488.448905	2504.241064
488.817104	2502.431290
489.185244	2506.885149
489.553326	2508.127794
489.921350	2510.829852
490.289315	2511.059225
490.657222	2514.298166
491.025070	2509.375479
491.392861	2511.704492
491.760593	2512.289266
492.128267	2509.735922
492.495883	2509.889677
492.863440	2510.045953
493.230939	2508.180726
493.598380	2506.416322
493.965763	2507.701816
494.333088	2505.461023
494.700354	2503.666373
495.067563	2506.708709
495.434713	2502.204438
495.801805	2505.970180
496.168839	2504.929182
496.535815	2506.615447
496.902733	2505.687875
497.269593	2505.473626
497.636395	2507.863133
498.003139	2504.737618
498.369825	2506.154182
498.736453	2505.660149
499.103023	2508.127794
499.469535	2505.221568
499.835989	2505.788698
500.202385	2502.890035
500.568723	2499.772081
500.935003	2502.675786
501.301226	2500.092194
501.667390	2506.375993
502.033497	2505.881960
502.399546	2505.188801
502.765537	2505.435818
503.131470	2505.912207
503.497345	2503.603358
503.863163	2500.921464
504.228923	2504.742659
504.594625	2507.232989
504.960269	2504.046980
505.325856	2507.056548
505.691385	2503.585714
506.056856	2506.307937
506.422270	2504.334325
506.787625	2507.152330
507.152924	2504.120076
507.518164	2505.650067
507.883347	2504.840961
508.248472	2503.134531
508.613540	2505.604696
508.978550	2504.160406
509.343503	2503.542864
509.708398	2506.839779
510.073236	2502.685868
510.438016	2505.458503
510.802738	2504.225941
511.167403	2506.144100
511.532010	2503.363903
511.896561	2507.926148
512.261053	2507.490088
512.625488	2504.667042
512.989866	2505.720643
513.354186	2504.596465
513.718449	2506.993534
514.082655	2507.870695
514.446803	2504.843482
514.810894	2508.087464
515.174927	2506.431445
515.538904	2505.700478
515.902822	2502.567401
516.266684	2505.950015
516.630488	2505.387927
516.994235	2505.004799
517.357925	2505.776095
517.721558	2507.565705
518.085133	2506.428925
518.448651	2504.455313
518.812112	2503.056393
519.175516	2502.801815
519.538863	2500.505569
519.902152	2506.083606
520.265385	2505.508914
520.628560	2505.889521
520.991678	2506.086126
521.354739	2507.525376
521.717743	2505.723163
522.080690	2506.484377
522.443580	2504.530930
522.806413	2507.283400
523.169189	2504.881291
523.531908	2506.033194
523.894569	2506.633092
524.257174	2506.917917
524.619722	2506.668380
524.982213	2506.262567
525.344647	2505.234171
525.707025	2505.675272
526.069345	2507.427073
526.431608	2505.675272
526.793815	2507.003616
527.155964	2506.076044
527.518057	2507.845489
527.880093	2507.018740
528.242072	2509.057887
528.603995	2506.461692
528.965860	2506.822135
529.327669	2505.125787
529.689421	2506.829697
530.051117	2505.130828
530.412755	2504.273832
530.774337	2504.518327
531.135862	2505.332474
531.497331	2507.243071
531.858743	2503.825169
532.220098	2508.296672
532.581396	2505.639984
532.942638	2504.941784
533.303824	2504.782988
533.664953	2503.789881
534.026025	2506.164264
534.387040	2506.817094
534.747999	2503.822648
535.108902	2504.263749
535.469748	2500.792915
535.830537	2505.196363
536.191270	2504.407422
536.551947	2503.767196
536.912567	2500.104797
537.273131	2502.988337
537.633638	2499.434324
537.994089	2502.915241
538.354483	2502.948008
538.714821	2503.585714
539.075103	2504.530930
539.435328	2506.759120
539.795497	2505.899604
540.155609	2504.041938
540.515665	2503.835251
540.875665	2503.409274
541.235609	2506.249964
541.595496	2504.984634
541.955328	2506.045797
542.315102	2504.856085
542.674821	2504.588904
543.034483	2507.842968
543.394090	2505.307268
543.753640	2504.972031
544.113134	2503.510097
544.472571	2503.810045
544.831953	2505.685355
545.191278	2503.681496
545.550548	2504.261229
545.909761	2504.326764
546.268918	2504.979593
546.628019	2505.753410
546.987064	2503.958759
547.346053	2502.322905
547.704986	2503.784840
548.063863	2506.577639
548.422684	2504.541013
548.781449	2504.465395
549.140158	2503.961280
549.498811	2506.532268
549.857408	2503.603358
550.215949	2504.755262
550.574434	2507.331291
550.932864	2505.224089
551.291237	2504.230982
551.649555	2506.799450
552.007817	2503.873060
552.366022	2504.858605
552.724173	2504.583862
553.082267	2504.566218
553.440305	2503.343739
553.798288	2506.655777
554.156215	2503.983965
554.514086	2501.546567
554.871902	2500.371978
555.229661	2500.679489
555.587365	2499.719149
555.945014	2502.920282
556.302606	2502.287617
556.660143	2506.612927
557.017625	2504.576301
557.375050	2505.150992
557.732421	2504.520848
558.089735	2503.217710
558.446994	2505.571929
558.804197	2503.545385
559.161345	2505.513955
559.518437	2502.905158
559.875474	2506.134017
560.232455	2504.422546
560.589381	2505.224089
560.946251	2505.400529
561.303065	2504.664521
561.659825	2504.646877
562.016528	2505.652587
562.373177	2505.219048
562.729770	2502.884994
563.086307	2503.711743
563.442789	2507.704337
563.799216	2507.341374
564.155587	2504.878770
564.511904	2504.518327
564.868164	2504.074706
565.224370	2502.877432
565.580520	2504.233502
565.936615	2503.903307
566.292654	2506.151661
566.648638	2503.217710
567.004567	2503.610920
567.360441	2503.250477
567.716260	2506.287773
568.072023	2507.548061
568.427732	2503.104284
568.783385	2504.079747
569.138982	2504.722494
569.494525	2505.329953
569.850013	2507.374141
570.205445	2503.578152
570.560823	2502.980776
570.916145	2506.255005
571.271412	2502.706033
571.626625	2507.318688
571.981782	2504.664521
572.336884	2504.924140
572.691931	2500.634118
573.046923	2501.208810
573.401860	2499.320898
573.756743	2502.106135
574.111570	2505.203924
574.466342	2505.975221
574.821059	2505.085457
575.175722	2503.106804
575.530330	2501.082781
575.884882	2504.974552
576.239380	2505.231651
576.593823	2506.713750
576.948211	2502.532113
577.302544	2504.422546
577.656823	2502.017915
578.011047	2503.512617
578.365216	2505.413132
578.719330	2501.657473
579.073389	2503.820128
579.427394	2502.184273
579.781344	2506.413801
580.135239	2503.079078
580.489080	2507.318688
580.842866	2504.896414
581.196597	2503.197545
581.550273	2503.265601
581.903895	2502.184273
582.257463	2503.724346
582.610975	2501.959942
582.964434	2503.593276
583.317837	2503.368944
583.671186	2504.813235
584.024481	2502.365755
584.377721	2498.698315
584.730906	2502.214520
585.084037	2503.011023
585.437113	2502.713594
585.790135	2501.957421
586.143103	2501.932216
586.496016	2503.978924
586.848874	2502.942967
587.201679	2505.198883
587.554428	2500.278717
587.907124	2503.573111
588.259765	2501.246619
588.612352	2502.136382
588.964884	2503.777278
589.317362	2502.085971
589.669786	2506.255005
590.022155	2500.813079
590.374470	2497.594303
590.726731	2501.100425
591.078937	2498.549601
591.431090	2501.854078
591.783188	2501.634787
592.135232	2502.285096
592.487222	2500.808038
592.839157	2499.646052
593.191038	2501.276866
593.542866	2502.030518
593.894639	2498.330311
594.246358	2502.948008
594.598022	2500.132524
594.949633	2501.168481
595.301190	2498.521875
595.652692	2499.358707
596.004141	2500.508090
596.355535	2500.596310
596.706876	2500.480363
597.058162	2497.818634
597.409395	2500.629077
597.760573	2499.842657
598.111698	2501.027328
598.462768	2498.892400
598.813785	2498.940291
599.164748	2501.324757
599.515657	2501.097905
599.866511	2497.256545
600.217312	2501.110508
600.568060	2497.884169
600.918753	2501.536485
601.269392	2503.666373
601.619978	2501.843995
601.970510	2500.802997
602.320988	2498.816782
602.671412	2501.919613
603.021783	2500.014057
603.372100	2497.939622
603.722363	2499.449447
604.072572	2500.117400
604.422728	2500.934067
604.772830	2501.100425
605.122878	2500.555981
605.472872	2500.127483
605.822813	2499.956083
606.172701	2500.268635
606.522534	2501.637308
606.872314	2500.477843
607.222041	2500.263594
607.571714	2499.540188
607.921333	2496.255876
608.270899	2497.349807
608.620411	2494.005001
608.969870	2500.503048
609.319276	2499.310816
609.668627	2499.830054
610.017926	2500.311485
610.367171	2502.917761
610.716362	2500.918944
611.065500	2499.983810
611.414585	2500.014057
611.763616	2499.285610
612.112594	2500.997082
612.461518	2499.951042
612.810389	2501.107987
613.159207	2502.398522
613.507971	2502.186794
613.856682	2503.033708
614.205340	2500.172853
614.553945	2500.475322
614.902496	2500.765188
615.250994	2501.107987
615.599439	2503.177381
615.947830	2502.721156
616.296169	2499.928357
616.644454	2502.138903
616.992686	2500.871053
617.340864	2504.387258
617.688990	2499.358707
618.037063	2503.147134
618.385082	2502.010353
618.733048	2502.378358
619.080961	2499.015908
619.428821	2501.299551
619.776628	2500.240908
620.124382	2499.159581
620.472083	2501.050014
620.819731	2502.403563
621.167326	2500.883656
621.514868	2502.751403
621.862357	2500.198059
622.209793	2503.847854
622.557176	2501.455827
622.904506	2498.216885
623.251783	2500.301402
623.599007	2501.662514
623.946179	2500.563542
624.293297	2501.622185
624.640363	2498.789056
624.987376	2501.070178
625.334336	2491.658344
625.681243	2497.677482
626.028097	2495.383757
626.374899	2499.404077
626.721647	2498.368120
627.068343	2497.932060
627.414987	2495.739158
627.761577	2498.267297
628.108115	2498.559684
628.454600	2497.992554
628.801032	2497.538850
629.147412	2498.312667
629.493739	2499.557832
629.840014	2499.368789
630.186236	2496.712101
630.532405	2498.879797
630.878521	2494.249497
631.224585	2499.872904
631.570597	2495.303098
631.916556	2499.338542
632.262462	2493.934425
632.608316	2499.371309
632.954117	2499.986330
633.299866	2499.215034
633.645562	2498.421052
633.991206	2497.127996
634.336797	2496.843171
634.682336	2494.748571
635.027823	2497.458192
635.373257	2494.977944
635.718639	2494.199086
636.063968	2497.821155
636.409245	2497.460712
636.754470	2497.367451
637.099642	2496.407111
637.444762	2496.228150
637.789829	2494.158756
638.134845	2495.625732
638.479808	2492.570793
638.824719	2496.964158
639.169577	2494.345279
639.514383	2494.783859
639.859137	2493.813437
640.203839	2496.525578
640.548489	2490.549290
640.893086	2494.496514
641.237632	2495.131699
641.582125	2493.858808
641.926566	2493.412666
642.270955	2494.652789
642.615292	2490.982829
642.959576	2495.119096
643.303809	2488.852942
643.647990	2495.487100
643.992118	2490.745895
644.336195	2495.847543
644.680219	2491.794455
645.024192	2491.305463
645.368112	2495.933243
645.711981	2494.191524
646.055797	2493.074908
646.399562	2496.139930
646.743274	2496.696977
647.086935	2496.278562
647.430544	2494.478870
647.774101	2498.035404
648.117606	2495.658500
648.461059	2496.013901
648.804460	2498.146309
649.147810	2497.047338
649.491108	2496.334014
649.834354	2493.374857
650.177548	2495.066164
650.520690	2491.396204
650.863781	2494.632625
651.206820	2494.698160
651.549807	2492.994250
651.892742	2493.962151
652.235626	2493.084991
652.578458	2494.337717
652.921238	2492.245638
653.263967	2492.636328
653.606644	2493.082470
653.949269	2494.045330
654.291843	2494.554487
654.634365	2495.313181
654.976836	2493.463077
655.319255	2492.162459
655.661622	2491.534836
656.003938	2492.898468
656.346203	2492.180103
656.688416	2492.868221
657.030577	2491.073570
657.372687	2491.305463
657.714746	2492.618684
658.056753	2490.715648
658.398708	2493.180772
658.740612	2492.190186
659.082465	2493.102635
659.424266	2489.135247
659.766016	2485.863538
660.107715	2489.591471
660.449362	2487.711121
660.790958	2492.800165
661.132503	2493.878972
661.473996	2491.917963
661.815438	2491.023159
662.156829	2493.135402
662.498168	2493.321925
662.839456	2494.163797
663.180693	2491.421410
663.521879	2492.417038
663.863013	2491.986019
664.204097	2491.144146
664.545129	2492.911071
664.886110	2493.609271
665.227040	2494.456184
665.567918	2492.427120
665.908746	2491.766729
666.249522	2492.593478
666.590248	2492.732110
666.930922	2492.243118
667.271545	2490.728251
667.612118	2494.178921
667.952639	2495.766884
668.293109	2491.126502
668.633528	2490.529126
668.973896	2490.090545
669.314213	2494.894765
669.654480	2491.038282
669.994695	2493.402583
670.334859	2493.228663
670.674973	2492.149857
671.015035	2492.117089
671.355047	2491.398725
671.695008	2492.906030
672.034918	2489.770432
672.374777	2492.593478
672.714585	2490.541728
673.054342	2491.610453
673.394049	2492.772439
673.733705	2491.804537
674.073310	2494.158756
674.412864	2492.933756
674.752368	2494.196565
675.091820	2489.074753
675.431223	2491.020638
675.770574	2491.383601
676.109875	2491.857470
676.449125	2488.000987
676.788324	2485.961840
677.127473	2487.900164
677.466571	2484.552838
677.805619	2488.421923
678.144616	2490.282109
678.483562	2492.210350
678.822458	2490.546770
679.161303	2490.960144
679.500098	2490.831595
679.838842	2490.007366
680.177535	2492.578355
680.516179	2489.634321
680.854771	2488.124495
681.193314	2492.570793
681.531805	2488.225318
681.870247	2491.494507
682.208638	2493.387460
682.546978	2493.447954
682.885268	2490.287150
683.223508	2492.432161
683.561697	2489.518374
683.899836	2488.308497
684.237925	2491.073570
684.575963	2490.703045
684.913951	2491.388642
685.251889	2490.511482
685.589776	2488.043837
685.927614	2489.609115
686.265401	2491.456698
686.603137	2489.389825
686.940824	2491.411328
687.278460	2492.129692
687.616046	2490.738333
687.953582	2492.807727
688.291068	2490.357726
688.628504	2491.854949
688.965889	2490.846718
689.303224	2491.144146
689.640510	2492.981647
689.977745	2492.659013
690.314930	2491.804537
690.652065	2490.045175
690.989150	2490.534167
691.326185	2491.365957
691.663170	2490.902171
692.000105	2488.419403
692.336990	2489.931749
692.673825	2489.238590
693.010610	2488.865545
693.347345	2483.166520
693.684030	2482.584267
694.020665	2485.369505
694.357251	2483.753815
694.693786	2488.184989
695.030272	2486.516367
695.366707	2488.298415
695.703093	2485.674494
696.039429	2488.401759
696.375716	2486.649958
696.711952	2485.752632
697.048139	2487.564927
697.384276	2487.474186
697.720363	2485.873620
698.056400	2486.002169
698.392388	2486.591984
698.728326	2485.102323
699.064214	2483.443784
699.400053	2486.813795
699.735842	2484.802375
700.071581	2486.120637
700.407270	2486.818836
700.742910	2485.646768
701.078501	2485.772797
701.414042	2484.651140
701.749533	2485.346819
702.084974	2483.569813
702.420366	2484.076449
702.755709	2481.611324
703.091002	2483.892447
703.426246	2484.073928
703.761440	2482.874133
704.096584	2485.790441
704.431679	2483.826912
704.766725	2484.313383
705.101721	2481.729792
705.436668	2484.265492
705.771565	2481.094606
706.106413	2483.635348
706.441212	2483.930255
706.775961	2484.275574
707.110661	2482.070069
707.445311	2483.680718
707.779913	2485.051912
708.114465	2486.586943
708.448967	2482.460759
708.783421	2481.901191
709.117825	2483.602580
709.452180	2486.508805
709.786485	2481.961685
710.120742	2482.919504
710.454949	2482.425471
710.789107	2480.784575
711.123216	2481.414719
711.457275	2486.017293
711.791286	2486.246665
712.125247	2489.672129
712.459159	2484.837663
712.793023	2489.447798
713.126837	2486.788589
713.460602	2486.271871
713.794318	2484.212560
714.127985	2491.313025
714.461602	2485.230873
714.795171	2486.279433
715.128691	2482.864051
715.462162	2485.500575
715.795584	2481.507981
716.128957	2483.090903
716.462281	2484.381438
716.795556	2486.216418
717.128782	2485.228352
717.461960	2483.995790
717.795088	2483.055615
718.128167	2483.723568
718.461198	2484.026037
718.794180	2482.780872
719.127113	2481.399596
719.459997	2483.040492
719.792833	2478.795840
720.125619	2484.552838
720.458357	2480.595532
720.791046	2481.792806
721.123686	2483.002683
721.456278	2481.641571
721.788821	2481.228197
722.121315	2482.874133
722.453761	2480.051087
722.786158	2481.772641
723.118506	2481.676859
723.450805	2480.892960
723.783056	2479.869606
724.115259	2482.183495
724.447412	2478.967239
724.779518	2478.379945
725.111574	2481.649133
725.443582	2484.958651
725.775542	2478.049749
726.107453	2483.083341
726.439315	2479.284832
726.771129	2480.880357
727.102895	2476.257619
727.434612	2481.686942
727.766281	2476.597897
728.097901	2482.024699
728.429473	2482.624596
728.760996	2483.078300
729.092471	2482.586788
729.423897	2484.101654
729.755276	2481.298773
730.086606	2482.864051
730.417887	2481.661736
730.749120	2482.566623
731.080305	2482.140646
731.411442	2482.448156
731.742530	2487.300267
732.073570	2485.770276
732.404562	2487.199443
732.735506	2486.223980
733.066401	2485.926552
733.397249	2483.779021
733.728048	2482.508650
734.058798	2483.300111
734.389501	2483.403455
734.720156	2482.942189
735.050762	2482.105358
735.381320	2481.971767
735.711831	2479.078145
736.042293	2483.133753
736.372707	2481.686942
736.703073	2482.581747
737.033391	2482.289360
737.363661	2484.860348
737.693883	2480.837507
738.024056	2483.043012
738.354182	2481.354226
738.684260	2481.235758
739.014290	2479.148721
739.344272	2482.743063
739.674207	2481.717189
740.004093	2484.837663
740.333931	2483.327837
740.663722	2483.915132
740.993464	2481.800368
741.323159	2482.606952
741.652806	2483.905049
741.982405	2480.792137
742.311956	2479.970429
742.641460	2480.187198
742.970915	2482.866572
743.300323	2480.489668
743.629683	2477.195274
743.958996	2478.962198
744.288260	2473.308544
744.617477	2478.621920
744.946647	2478.841210
745.275768	2479.453711
745.604842	2481.006386
745.933869	2478.185860
746.262847	2480.038484
746.591778	2481.616366
746.920662	2480.562764
747.249498	2479.746097
747.578286	2478.206025
747.907027	2481.664257
748.235720	2479.594863
748.564365	2481.634010
748.892963	2478.720223
749.221514	2482.823722
749.550017	2477.585963
749.878473	2481.036633
750.206881	2478.435398
750.535242	2481.064359
750.863555	2476.711323
751.191821	2481.782724
751.520039	2478.773155
751.848210	2479.627630
752.176334	2478.977322
752.504411	2478.412712
752.832440	2477.540593
753.160421	2478.412712
753.488356	2476.935654
753.816243	2483.519401
754.144082	2480.517394
754.471875	2480.197281
754.799620	2478.027064
755.127318	2480.688793
755.454969	2479.088227
755.782572	2479.970429
756.110129	2481.502940
756.437638	2480.119143
756.765100	2477.883391
757.092515	2480.250213
757.419882	2479.297435
757.747203	2479.819194
758.074477	2477.964050
758.401703	2478.760552
758.728882	2481.570995
759.056014	2479.544451
759.383099	2479.549492
759.710138	2477.336426
760.037129	2477.091930
760.364073	2478.997486
760.690970	2475.256950
761.017820	2480.267857
761.344623	2478.117805
761.671379	2480.182157
761.998088	2479.403299
762.324751	2481.079483
762.651366	2483.499237
762.977935	2485.261120
763.304456	2484.449494
763.630931	2489.430154
763.957359	2488.802530
764.283740	2488.154742
764.610074	2485.883702
764.936362	2487.229690
765.262602	2480.719040
765.588796	2478.480768
765.914943	2481.838176
766.241044	2479.932620
766.567097	2480.310707
766.893104	2479.894812
767.219064	2477.119656
767.544978	2478.354739
767.870845	2477.870788
768.196665	2477.651498
768.522438	2479.761221
768.848165	2477.656539
769.173846	2478.873978
769.499479	2476.005561
769.825066	2477.570840
770.150607	2480.197281
770.476101	2476.605459
770.801548	2476.943216
771.126949	2477.971611
771.452303	2476.713843
771.777611	2475.929944
772.102872	2476.708802
772.428087	2475.841724
772.753256	2478.450521
773.078378	2477.038998
773.403453	2478.523618
773.728482	2476.557568
774.053465	2478.435397
774.378401	2476.250057
774.703291	2476.900366
775.028135	2477.170068
775.352932	2477.235603
775.677683	2476.083699
776.002388	2472.738894
776.327046	2473.157309
776.651658	2474.944398
776.976224	2470.205714
777.300743	2475.934985
777.625216	2475.791312
777.949643	2476.166878
778.274024	2478.001858
778.598359	2478.037146
778.922647	2474.238637
779.246889	2477.699389
779.571086	2475.050263
779.895236	2474.893987
780.219339	2476.091261
780.543397	2474.304172
780.867409	2474.997331
781.191374	2475.786271
781.515294	2474.828452
781.839167	2476.366004
782.162995	2474.914152
782.486776	2475.143524
782.810511	2473.457258
783.134201	2475.110757
783.457844	2475.604790
783.781441	2476.688638
784.104993	2476.423977
784.428498	2475.539255
784.751958	2473.432052
785.075372	2474.856178
785.398739	2474.525983
785.722061	2475.572022
786.045337	2474.256281
786.368568	2476.628144
786.691752	2475.481281
787.014891	2475.791312
787.337983	2473.346353
787.661030	2478.352218
787.984031	2474.699903
788.306987	2477.291056
788.629897	2478.513535
788.952760	2477.936323
789.275579	2473.860550
789.598351	2478.137969
789.921078	2474.354583
790.243759	2477.848103
790.566395	2475.032619
790.888984	2475.130921
791.211529	2473.953812
791.534027	2475.458596
791.856480	2476.819708
792.178888	2471.486167
792.501249	2471.672690
792.823566	2474.508339
793.145836	2471.586990
793.468062	2474.193267
793.790241	2473.784933
794.112375	2476.736529
794.434464	2475.488843
794.756507	2473.621096
795.078505	2474.422639
795.400457	2472.728811
795.722364	2476.204687
796.044226	2475.151086
796.366042	2474.962042
796.687812	2475.566981
797.009538	2473.837865
797.331218	2478.090078
797.652852	2472.993472
797.974442	2476.648308
798.295986	2474.044553
798.617484	2476.423977
798.938938	2473.739563
799.260346	2473.500108
799.581709	2474.137814
799.903026	2475.556899
800.224299	2476.149234
800.545526	2473.789974
800.866708	2474.861219
801.187845	2476.625623
801.508936	2477.328864
801.829983	2475.556899
802.150984	2474.772999
802.471940	2475.582104
802.792851	2475.733339
803.113717	2476.610500
803.434538	2474.601600
803.755314	2475.123359
804.076045	2474.957001
804.396731	2472.108749
804.717372	2471.801239
805.037967	2476.454224
805.358518	2471.927268
805.679024	2474.946919
805.999485	2474.435242
806.319901	2472.388533
806.640272	2475.834162
806.960598	2474.825931
807.280879	2475.093112
807.601115	2475.821559
807.921306	2475.645119
808.241453	2472.930458
808.561554	2473.472382
808.881611	2471.481126
809.201623	2468.806794
809.521590	2472.819552
809.841513	2475.342650
810.161390	2473.444655
810.481223	2474.977166
810.801011	2472.343163
811.120755	2472.791826
811.440453	2474.135293
811.760107	2470.815693
812.079716	2473.865592
812.399281	2473.023719
812.718801	2474.621765
813.038276	2474.321816
813.357707	2475.708133
813.677093	2474.566312
813.996434	2471.564305
814.315731	2473.973976
814.634983	2475.047742
814.954191	2475.249388
815.273354	2475.246868
815.592473	2474.127732
815.911547	2476.371045
816.230577	2473.789974
816.549562	2475.677886
816.868502	2475.735860
817.187399	2474.954481
817.506250	2473.835345
817.825058	2472.368369
818.143821	2475.703092
818.462539	2477.288535
818.781213	2477.903556
819.099843	2476.350880
819.418429	2478.369862
819.736970	2479.698207
820.055466	2478.203504
820.373919	2480.119143
820.692327	2479.546972
821.010691	2483.337920
821.329011	2488.641213
821.647286	2501.503717
821.965517	2512.269102
822.283704	2522.263189
822.601847	2530.253418
822.919945	2523.291584
823.237999	2520.062725
823.556010	2512.881602
823.873976	2504.969511
824.191897	2496.384426
824.509775	2491.935608
824.827609	2489.165493
825.145398	2485.946717
825.463144	2489.750267
825.780845	2487.879999
826.098502	2487.655668
826.416116	2492.570793
826.733685	2492.714466
827.051210	2493.997439
827.368692	2494.030207
827.686129	2491.766729
828.003522	2487.459063
828.320872	2487.822026
828.638177	2483.879844
828.955439	2480.802219
829.272656	2480.421612
829.589830	2480.882878
829.906960	2477.205356
830.224046	2478.037146
830.541088	2477.424646
830.858086	2475.788792
831.175041	2474.339460
831.491952	2475.377938
831.808819	2475.443473
832.125642	2474.286528
832.442421	2475.168730
832.759157	2476.481950
833.075849	2479.173927
833.392497	2478.758031
833.709101	2481.482775
834.025662	2481.951602
834.342179	2481.868423
834.658653	2480.151910
834.975083	2478.720223
835.291469	2481.853300
835.607811	2477.885912
835.924110	2476.136631
836.240366	2478.493371
836.556578	2477.583443
836.872746	2473.409367
837.188871	2474.888946
837.504952	2473.663945
837.820990	2473.164871
838.136984	2474.780561
838.452935	2473.759727
838.768842	2474.946919
839.084706	2473.616054
839.400526	2476.045891
839.716303	2473.744604
840.032037	2474.901549
840.347727	2474.646970
840.663373	2473.895838
840.978977	2471.143368
841.294537	2473.452217
841.610054	2475.065386
841.925527	2473.553040
842.240957	2470.951805
842.556344	2472.708647
842.871687	2472.824593
843.186987	2473.928606
843.502244	2472.529686
843.817458	2474.994810
844.132629	2471.435755
844.447756	2472.970787
844.762840	2473.021198
845.077881	2473.172433
845.392879	2471.531537
845.707833	2472.189408
846.022745	2468.320322
846.337613	2471.866774
846.652438	2471.135807
846.967221	2472.590180
847.281960	2470.742597
847.596656	2470.538430
847.911309	2469.966259
848.225919	2471.218986
848.540485	2469.641105
848.855009	2471.995323
849.169490	2469.499952
849.483928	2470.611527
849.798323	2470.540951
850.112675	2471.725622
850.426984	2470.833338
850.741251	2470.636733
851.055474	2470.183029
851.369654	2471.236630
851.683792	2470.908955
851.997887	2470.203193
852.311938	2470.808132
852.625947	2473.578246
852.939914	2471.100519
853.253837	2471.574387
853.567718	2472.333081
853.881555	2470.689665
854.195350	2469.066413
854.509103	2470.949284
854.822812	2469.497432
855.136479	2468.978193
855.450103	2472.635550
855.763685	2468.584983
856.077224	2468.653038
856.390720	2469.134469
856.704173	2464.662965
857.017584	2472.345684
857.330953	2468.874849
857.644278	2469.494911
857.957561	2470.639253
858.270802	2470.669500
858.584000	2470.336784
858.897155	2472.539768
859.210268	2470.200673
859.523339	2471.740745
859.836367	2469.000878
860.149352	2468.869808
860.462295	2472.534727
860.775195	2469.441979
861.088054	2469.941053
861.400869	2470.616568
861.713642	2470.152782
862.026373	2470.495580
862.339062	2470.576239
862.651708	2471.294603
862.964312	2470.097329
863.276873	2472.280149
863.589392	2472.307875
863.901869	2470.525827
864.214303	2468.413584
864.526696	2471.937350
864.839045	2471.660087
865.151353	2470.755200
865.463619	2467.670013
865.775842	2470.639253
866.088023	2473.905921
866.400162	2468.998357
866.712258	2470.936681
867.024313	2470.891311
867.336325	2469.764613
867.648296	2468.887452
867.960224	2472.275108
868.272110	2470.737556
868.583954	2472.091105
868.895755	2471.793677
869.207515	2471.718060
869.519233	2471.710498
869.830909	2470.241002
870.142542	2469.716722
870.454134	2471.007257
870.765684	2470.790488
871.077191	2469.308388
871.388657	2468.947946
871.700081	2468.481639
872.011463	2465.020887
872.322803	2463.498459
872.634101	2470.687144
872.945357	2469.948615
873.256571	2470.399798
873.567744	2471.889459
873.878874	2473.109418
874.189963	2470.679582
874.501010	2473.227886
874.812015	2469.235292
875.122979	2470.916517
875.433900	2469.910806
875.744780	2471.680251
876.055618	2469.643625
876.366415	2472.280149
876.677169	2470.009109
876.987882	2471.793677
877.298554	2469.320991
877.609183	2472.811990
877.919771	2469.479788
878.230317	2472.295272
878.540822	2470.634212
878.851285	2472.643112
879.161707	2472.443986
879.472087	2475.163689
879.782425	2470.858543
880.092722	2479.607466
880.402977	2480.351036
880.713191	2484.063846
881.023363	2488.099289
881.333494	2496.069354
881.643583	2495.040958
881.953631	2496.081957
882.263637	2496.918788
882.573602	2491.469301
882.883526	2492.031389
883.193408	2487.607777
883.503248	2484.938486
883.813048	2483.814309
884.122806	2484.850266
884.432522	2480.035964
884.742197	2482.057467
885.051831	2475.655201
885.361424	2478.024543
885.670975	2477.497743
885.980485	2473.454738
886.289954	2477.850624
886.599382	2471.339973
886.908768	2471.203862
887.218113	2469.570528
887.527417	2472.365848
887.836680	2468.272431
888.145901	2474.566312
888.455082	2470.944243
888.764221	2469.860395
889.073319	2470.354428
889.382376	2467.828810
889.691392	2469.719243
890.000366	2471.097998
890.309300	2468.993316
890.618193	2469.792339
890.927044	2470.694706
891.235855	2472.880046
891.544625	2469.003399
891.853353	2471.420632
892.162041	2470.311578
892.470687	2472.002885
892.779293	2474.110087
893.087858	2472.199490
893.396381	2470.732514
893.704864	2475.244347
894.013306	2475.118318
894.321707	2475.178812
894.630068	2476.479430
894.938387	2476.860037
895.246665	2479.552013
895.554903	2480.353557
895.863100	2474.266363
896.171256	2477.031436
896.479371	2475.191415
896.787446	2473.444655
897.095480	2473.275777
897.403473	2470.999696
897.711425	2473.048925
898.019336	2473.749645
898.327207	2471.614716
898.635038	2472.000365
898.942827	2471.715539
899.250576	2472.126393
899.558284	2469.663790
899.865952	2471.866774
900.173579	2469.595734
900.481165	2468.809314
900.788711	2472.368369
901.096216	2470.094808
901.403681	2470.356948
901.711105	2472.360807
902.018489	2472.033132
902.325832	2471.135807
902.633135	2466.487863
902.940397	2470.709829
903.247619	2471.052628
903.554800	2473.265694
903.861941	2474.687300
904.169041	2477.427167
904.476101	2479.700727
904.783121	2481.205512
905.090100	2477.091930
905.397039	2477.263329
905.703938	2475.375417
906.010796	2474.407516
906.317614	2474.321816
906.624391	2474.127732
906.931129	2473.356435
907.237826	2472.234778
907.544483	2475.108236
907.851099	2469.651187
908.157675	2472.106229
908.464211	2470.268728
908.770707	2469.663790
909.077163	2470.964407
909.383578	2467.861577
909.689954	2469.905765
909.996289	2468.842082
910.302584	2469.709160
910.608839	2467.846454
910.915054	2469.184880
911.221229	2470.727473
911.527363	2468.527010
911.833458	2465.136834
912.139513	2469.794860
912.445527	2469.699078
912.751502	2468.085909
913.057436	2470.787967
913.363331	2468.156485
913.669186	2467.037349
913.975000	2470.195632
914.280775	2470.203193
914.586510	2470.049438
914.892205	2472.028091
915.197859	2476.582773
915.503475	2475.768627
915.809050	2479.872126
916.114585	2478.299286
916.420081	2479.284832
916.725536	2476.527321
917.030952	2481.061839
917.336328	2478.475727
917.641665	2474.581435
917.946961	2471.980200
918.252218	2473.174953
918.557435	2469.585652
918.862612	2476.860037
919.167750	2473.384161
919.472848	2473.185036
919.777906	2472.680920
920.082925	2473.558081
920.387904	2474.510859
920.692843	2470.838379
920.997743	2471.173615
921.302603	2470.848461
921.607423	2468.650518
921.912204	2471.402988
922.216946	2468.988275
922.521647	2466.928964
922.826310	2467.289406
923.130932	2470.344346
923.435516	2469.048769
923.740059	2466.954170
924.044564	2471.992803
924.349028	2467.765795
924.653454	2468.801752
924.957840	2469.961218
925.262186	2472.570015
925.566493	2468.411063
925.870761	2468.731176
926.174989	2467.377627
926.479178	2468.436269
926.783328	2465.076340
927.087438	2467.246557
927.391509	2471.045066
927.695541	2467.695219
927.999533	2469.053810
928.303486	2468.713532
928.607400	2466.669344
928.911275	2467.140692
929.215110	2467.082719
929.518906	2466.167750
929.822663	2469.212607
930.126381	2468.897534
930.430060	2469.250415
930.733699	2466.107256
931.037299	2467.869139
931.340861	2466.336628
931.644383	2466.117338
931.947866	2467.145733
932.251309	2468.711012
932.554714	2468.678244
932.858080	2466.142544
933.161407	2465.557770
933.464694	2465.093984
933.767943	2463.097687
934.071153	2468.650518
934.374323	2465.822431
934.677455	2468.786629
934.980548	2465.645990
935.283602	2466.618933
935.586617	2466.855867
935.889593	2470.162864
936.192530	2469.048769
936.495428	2467.664972
936.798287	2469.938533
937.101108	2467.052472
937.403890	2466.651700
937.706632	2469.489870
938.009336	2467.821248
938.312002	2469.494911
938.614628	2466.820579
938.917216	2468.642956
939.219765	2467.745631
939.522275	2471.103039
939.824747	2470.465333
940.127179	2469.202524
940.429573	2468.118676
940.731929	2471.362659
941.034246	2467.516258
941.336524	2466.477781
941.638763	2468.269911
941.940964	2465.678758
942.243126	2466.671865
942.545250	2469.726804
942.847335	2467.307050
943.149381	2465.998871
943.451389	2468.070785
943.753359	2466.954170
944.055290	2467.680096
944.357182	2468.406022
944.659036	2468.806794
944.960851	2468.673203
945.262628	2464.713377
945.564367	2465.910651
945.866067	2467.322174
946.167729	2465.898048
946.469352	2467.314612
946.770937	2468.406022
947.072484	2464.846967
947.373992	2468.370734
947.675462	2466.709674
947.976893	2463.392594
948.278286	2461.602985
948.579641	2464.269755
948.880958	2464.093315
949.182236	2466.848305
949.483476	2466.888635
949.784678	2468.343008
950.085841	2467.027266
950.386967	2466.475260
950.688054	2464.935188
950.989103	2466.805456
951.290114	2464.925105
951.591087	2467.549026
951.892021	2466.240846
952.192917	2467.622122
952.493776	2469.953656
952.794596	2464.962914
953.095378	2467.400312
953.396122	2468.436269
953.696828	2467.682616
953.997496	2467.445682
954.298126	2466.432410
954.598718	2468.005250
954.899272	2469.452061
955.199788	2467.549026
955.500266	2468.960549
955.800706	2467.566670
956.101108	2467.359983
956.401472	2467.110445
956.701798	2466.472739
957.002087	2465.683799
957.302337	2466.203038
957.602550	2467.649849
957.902724	2465.343521
958.202861	2465.444344
958.502960	2463.203551
958.803022	2466.379478
959.103045	2465.053655
959.403031	2467.828810
959.702979	2464.524333
960.002889	2464.438634
960.302762	2465.741772
960.602596	2466.006433
960.902393	2466.155147
961.202153	2465.492235
961.501875	2465.305712
961.801559	2464.486525
962.101205	2466.351752
962.400814	2470.064562
962.700385	2465.308233
962.999918	2463.495938
963.299414	2461.665999
963.598873	2463.992492
963.898293	2461.665999
964.197677	2466.215641
964.497022	2464.768829
964.796331	2465.570373
965.095601	2465.507358
965.394835	2465.812348
965.694030	2469.618419
965.993189	2467.087760
966.292309	2462.880917
966.591393	2467.559108
966.890439	2466.077009
967.189447	2465.174642
967.488419	2466.109776
967.787353	2463.896710
968.086249	2463.914354
968.385108	2464.665486
968.683930	2466.815538
968.982714	2463.833695
969.281462	2466.324025
969.580172	2465.036011
969.878844	2465.961062
970.177480	2463.480815
970.476078	2467.725466
970.774639	2465.283027
971.073162	2466.233285
971.371649	2466.518110
971.670098	2467.123048
971.968510	2467.054993
972.266885	2466.566001
972.565223	2467.748151
972.863524	2464.234467
973.161788	2468.045579
973.460014	2464.884776
973.758204	2469.409212
974.056356	2464.491566
974.354471	2463.861422
974.652550	2464.499128
974.950591	2465.787143
975.248595	2465.582976
975.546563	2464.882255
975.844493	2466.989458
976.142386	2465.613223
976.440243	2465.905610
976.738062	2468.058182
977.035845	2466.271093
977.333590	2465.519961
977.631299	2465.411577
977.928971	2465.126751
978.226606	2462.200362
978.524204	2462.170115
978.821765	2460.952676
979.119290	2466.329067
979.416777	2465.620784
979.714228	2466.840744
980.011642	2466.097173
980.309020	2464.289920
980.606360	2466.339149
980.903664	2467.060034
981.200931	2463.279168
981.498162	2464.998202
981.795356	2466.271093
982.092513	2469.777216
982.389633	2466.321505
982.686717	2466.344190
982.983764	2466.545836
983.280775	2465.406535
983.577749	2466.734879
983.874686	2466.019036
984.171587	2465.179683
984.468451	2466.959211
984.765279	2467.017184
985.062070	2467.554067
985.358824	2468.461475
985.655543	2464.020218
985.952224	2466.064406
986.248869	2466.172791
986.545478	2466.807976
986.842050	2464.680609
987.138586	2466.145064
987.435086	2463.455609
987.731549	2464.894858
988.027975	2466.177832
988.324366	2466.538274
988.620719	2467.201186
988.917037	2465.046093
989.213318	2467.007102
989.509563	2464.236988
989.805772	2465.993830
990.101944	2464.940229
990.398080	2465.217492
990.694180	2464.100877
990.990244	2465.479632
991.286271	2467.352421
991.582262	2464.549539
991.878217	2464.489045
992.174136	2466.084571
992.470019	2464.980558
992.765865	2462.225567
993.061676	2462.220526
993.357450	2462.429734
993.653188	2459.405042
993.948890	2463.843778
994.244556	2462.525516
994.540186	2466.876032
994.835780	2465.862760
995.131337	2466.659262
995.426859	2464.405866
995.722345	2464.645321
996.017795	2462.936370
996.313208	2465.290589
996.608586	2463.909313
996.903928	2465.590537
997.199234	2465.832513
997.494504	2464.171453
997.789738	2465.267904
998.084936	2467.816207
998.380099	2465.918212
998.675225	2464.310084
998.970316	2467.869139
999.265371	2465.088943
999.560390	2463.347224
999.855373	2465.184725
1000.150320	2465.242698
1000.445232	2467.584314
1000.740108	2465.764457
1001.034948	2466.818058
1001.329752	2465.691361
1001.624521	2464.801597
1001.919254	2463.475773
1002.213951	2465.918213
1002.508613	2467.944756
1002.803239	2465.318315
1003.097829	2465.855198
1003.392384	2466.896196
1003.686903	2464.970476
1003.981386	2464.574745
1004.275834	2464.247070
1004.570246	2464.436113
1004.864623	2466.286217
1005.158964	2464.927626
1005.453270	2463.730352
1005.747540	2466.931484
1006.041775	2467.463326
1006.335974	2463.896710
1006.630138	2465.666155
1006.924266	2462.863273
1007.218359	2463.682461
1007.512416	2462.051648
1007.806438	2462.580969
1008.100425	2461.358489
1008.394376	2459.049640
1008.688292	2461.499641
1008.982172	2466.160188
1009.276017	2465.388891
1009.569827	2463.543829
1009.863602	2466.324025
1010.157341	2464.201700
1010.451045	2465.144395
1010.744714	2463.614405
1011.038347	2465.709005
1011.331945	2462.827985
1011.625508	2463.001905
1011.919036	2462.512913
1012.212528	2464.937708
1012.505986	2465.577935
1012.799408	2464.685650
1013.092795	2461.686164
1013.386147	2464.955352
1013.679464	2465.570373
1013.972745	2466.223202
1014.265992	2462.311267
1014.559204	2464.509210
1014.852380	2465.030969
1015.145521	2466.225723
1015.438628	2463.760599
1015.731699	2464.809159
1016.024736	2461.446709
1016.317737	2463.891669
1016.610703	2464.652883
1016.903635	2461.915536
1017.196531	2463.785804
1017.489393	2465.164560
1017.782219	2463.805969
1018.075011	2463.760599
1018.367768	2464.110959
1018.660490	2464.083233
1018.953177	2464.083233
1019.245829	2464.083233
