Dividing Wavelength (nm)	Counts (n)	Blue Motor Position (mm): 0.000000	Red Motor Position (mm): 35.000000	
326.493990	2052.110058
326.888308	2052.110058
327.282561	2052.110058
327.676750	2025.843126
328.070874	2029.187931
328.464933	2034.360155
328.858929	2042.214273
329.252859	2051.384132
329.646726	2062.908209
330.040528	2081.825139
330.434265	2098.060175
330.827938	2120.906684
331.221547	2140.794036
331.615091	2160.089053
332.008571	2181.869358
332.401986	2200.209076
332.795338	2221.838146
333.188625	2243.215159
333.581847	2258.263003
333.975006	2278.306631
334.368100	2294.637449
334.761129	2312.944399
335.154095	2329.149188
335.546996	2350.377487
335.939833	2384.422919
336.332606	2398.517986
336.725315	2412.900398
337.117960	2420.255441
337.510540	2429.652152
337.903056	2442.993565
338.295508	2445.877105
338.687896	2456.501337
339.080220	2461.499641
339.472480	2466.823100
339.864676	2467.279324
340.256807	2472.532206
340.648875	2474.324337
341.040879	2473.225365
341.432818	2477.787609
341.824694	2478.931951
342.216506	2477.192753
342.608253	2477.775006
342.999937	2477.134780
343.391557	2474.672176
343.783113	2474.331898
344.174605	2475.357773
344.566033	2472.857361
344.957397	2470.823255
345.348697	2469.452061
345.739934	2467.317133
346.131106	2465.361165
346.522215	2464.360496
346.913260	2460.423355
347.304241	2459.558797
347.695159	2457.063426
348.086012	2455.757767
348.476802	2455.530915
348.867528	2450.482199
349.258191	2450.318362
349.648789	2450.895574
350.039324	2449.569751
350.429796	2450.953547
350.820203	2449.617642
351.210548	2448.097734
351.600828	2446.217383
351.991045	2448.851386
352.381198	2444.949533
352.771288	2447.638989
353.161314	2446.945830
353.551276	2448.145625
353.941175	2447.220573
354.331010	2445.045315
354.720782	2444.256374
355.110490	2449.194185
355.500135	2448.006993
355.889717	2449.955399
356.279235	2449.141252
356.668689	2449.211829
357.058080	2447.959102
357.447408	2449.973043
357.836672	2452.954885
358.225873	2452.211315
358.615010	2451.704679
359.004084	2453.509412
359.393095	2451.555965
359.782043	2451.639144
360.170927	2455.961934
360.559748	2455.672067
360.948505	2456.652572
361.337199	2457.350772
361.725830	2457.381018
362.114398	2461.605505
362.502903	2457.149125
362.891344	2461.212295
363.279722	2459.163066
363.668037	2459.309260
364.056289	2459.732717
364.444478	2462.520475
364.832603	2461.431586
365.220665	2465.456947
365.608665	2459.896554
365.996601	2461.892851
366.384474	2463.387553
366.772284	2467.692699
367.160031	2463.816051
367.547715	2467.438120
367.935336	2462.034003
368.322893	2460.819085
368.710388	2465.645990
369.097820	2464.617595
369.485189	2462.923767
369.872495	2468.806794
370.259738	2466.545836
370.646918	2472.794346
371.034035	2469.419294
371.421090	2469.308388
371.808081	2468.519448
372.195010	2473.495067
372.581875	2473.782413
372.968678	2474.485653
373.355418	2476.350880
373.742096	2479.110912
374.128710	2480.043526
374.515262	2482.639720
374.901751	2489.712459
375.288177	2489.697335
375.674540	2493.866369
376.060841	2496.190341
376.447079	2501.317195
376.833254	2508.677279
377.219367	2512.972342
377.605417	2517.085924
377.991404	2519.929135
378.377329	2528.617563
378.763191	2536.191897
379.148991	2544.729091
379.534727	2553.427602
379.920402	2560.517985
380.306013	2570.045766
380.691563	2586.492530
381.077049	2595.435537
381.462474	2605.225458
381.847835	2615.862292
382.233134	2634.839716
382.618371	2641.456231
383.003545	2660.174035
383.388657	2674.014523
383.773706	2692.550845
384.158693	2704.720191
384.543618	2723.362378
384.928480	2738.475757
385.313280	2757.798500
385.698017	2776.430604
386.082692	2804.051086
386.467305	2817.001810
386.851856	2842.139524
387.236344	2870.639687
387.620770	2884.424723
388.005133	2906.394071
388.389435	2938.657456
388.773674	2951.898046
389.157851	2984.650423
389.541965	3011.169413
389.926018	3024.886392
390.310008	3056.325548
390.693936	3080.011409
391.077802	3110.074330
391.461606	3141.576501
391.845348	3160.727844
392.229027	3189.616176
392.612645	3226.003225
392.996200	3258.158225
393.379694	3296.586940
393.763125	3340.218127
394.146494	3364.208978
394.529801	3399.426479
394.913047	3445.507666
395.296230	3451.519242
395.679351	3473.299547
396.062410	3524.747043
396.445408	3503.667458
396.828343	3543.182542
397.211217	3578.243767
397.594028	3550.512380
397.976778	3597.080039
398.359466	3632.617653
398.742092	3643.796412
399.124656	3655.970798
399.507158	3716.930951
399.889598	3722.962692
400.271977	3786.352681
400.654294	3773.159981
401.036549	3833.623580
401.418742	3834.992253
401.800874	3902.783170
402.182944	3929.551697
402.564952	4011.967000
402.946898	4009.990868
403.328783	4004.788397
403.710606	4054.602559
404.092367	4125.120740
404.474067	4188.974515
404.855705	4169.742513
405.237282	4141.133965
405.618797	4242.720777
406.000250	4318.053259
406.381642	4398.575609
406.762972	4406.180190
407.144240	4365.979509
407.525447	4430.660033
407.906593	4451.842962
408.287677	4532.874468
408.668700	4559.600146
409.049661	4599.649592
409.430560	4634.657885
409.811399	4619.589876
410.192176	4671.576775
410.572891	4750.349845
410.953545	4853.108725
411.334138	4754.415536
411.714669	4865.381414
412.095139	4775.578300
412.475547	4885.241040
412.855894	4890.834200
413.236180	4994.145087
413.616405	4919.447789
413.996568	5022.715826
414.376670	5029.937279
414.756711	5021.977297
415.136691	5092.936578
415.516609	5177.854815
415.896466	5211.370926
416.276262	5289.319768
416.655997	5404.573147
417.035670	5500.914639
417.415283	5640.098376
417.794834	5709.991453
418.174324	5669.523591
418.553753	5677.024828
418.933121	5837.235218
419.312428	5849.868349
419.691674	5777.714314
420.070859	5999.273026
420.449983	5879.888420
420.829045	6070.741464
421.208047	6000.298900
421.586988	6158.109701
421.965867	6234.715075
422.344686	6312.341282
422.723444	6478.805223
423.102141	6096.053097
423.480777	6487.065154
423.859352	6301.084386
424.237866	6665.582494
424.616319	6663.024108
424.994712	6821.086967
425.373044	6739.785758
425.751314	7051.928963
426.129524	6776.097189
426.507673	7035.562857
426.885762	7080.063643
427.263789	7126.679192
427.641756	7214.286884
428.019662	7295.358721
428.397508	7339.259609
428.775292	7307.429763
429.153016	7487.272927
429.530679	7414.980260
429.908282	7470.127963
430.285824	7408.141935
430.663305	7697.272273
431.040726	7577.310455
431.418086	7584.466373
431.795385	7710.573357
432.172624	7900.455978
432.549802	7787.745861
432.926920	7924.761902
433.303977	7858.470729
433.680974	7904.773727
434.057910	8115.405737
434.434786	8156.105493
434.811601	8114.556303
435.188355	8455.900392
435.565050	8339.752207
435.941683	8350.595729
436.318257	8688.345475
436.694770	8636.696333
437.071222	8867.603864
437.447614	8649.563878
437.823946	8609.733722
438.200218	8760.940611
438.576429	8641.213207
438.952580	8802.956107
439.328670	8811.258888
439.704700	8892.716372
440.080670	8783.814846
440.456580	9051.822749
440.832429	9030.274337
441.208218	8767.867156
441.583947	8879.087613
441.959616	9001.562446
442.335224	9033.558649
442.710773	9111.462120
443.086261	9298.136047
443.461689	9015.165999
443.837057	9184.077421
444.212365	9398.780163
444.587612	9379.512873
444.962800	9273.731821
445.337927	9406.946832
445.712995	8949.167213
446.088002	9622.617476
446.462949	9676.915744
446.837837	9659.730451
447.212664	9688.694400
447.587431	10510.263845
447.962139	11517.504028
448.336786	12461.596197
448.711374	12246.631314
449.085901	11035.005111
449.460369	10960.872423
449.834776	10733.997815
450.209124	11651.994451
450.583412	11461.564864
450.957640	11786.406736
451.331808	11376.772656
451.705917	10805.650255
452.079965	10684.894456
452.453954	10886.248223
452.827883	10837.117137
453.201752	10799.978957
453.575562	10805.546911
453.949311	11144.350258
454.323001	11212.516741
454.696632	11131.371808
455.070202	11724.975235
455.443713	11785.539657
455.817164	11948.492435
456.190556	12267.539500
456.563888	12134.813481
456.937160	12399.214438
457.310373	11883.567414
457.683526	11899.046277
458.056619	11912.342320
458.429653	11984.322436
458.802628	12117.023249
459.175542	12174.701611
459.548398	12713.921070
459.921194	13290.745017
460.293930	13573.483171
460.666607	14436.266570
461.039224	15232.975565
461.411782	15586.214256
461.784280	15257.977167
462.156719	15201.372571
462.529099	15109.190032
462.901419	14481.747860
463.273680	14067.097832
463.645882	14287.613025
464.018024	14168.425025
464.390106	14544.782447
464.762130	15596.515854
465.134094	17119.962628
465.505999	19415.003369
465.877845	21677.422804
466.249631	22949.406743
466.621358	22496.907732
466.993026	21690.353364
467.364634	20946.420208
467.736184	20142.824997
468.107674	19530.488642
468.479105	19386.404904
468.850477	19115.460528
469.221790	18689.972020
469.593043	18011.659565
469.964238	17616.773381
470.335373	17669.965116
470.706449	18402.495181
471.077467	19239.097347
471.448425	21714.528217
471.819324	23591.586728
472.190164	23518.278269
472.560945	21763.019076
472.931667	20189.511123
473.302330	19857.883858
473.672934	19298.441810
474.043479	19716.809688
474.413965	19501.824642
474.784393	19314.641558
475.154761	19984.646192
475.525070	20112.958681
475.895321	19949.489185
476.265513	20474.860595
476.635645	21062.701983
477.005719	21128.773866
477.375734	21496.876400
477.745691	22118.735494
478.115588	22759.985387
478.485427	23959.696823
478.855207	25763.214982
479.224928	27565.941680
479.594591	29017.930098
479.964194	28655.571960
480.333739	29142.313008
480.703226	29363.929693
481.072653	29785.080288
481.442022	30312.238787
481.811333	30720.400849
482.180584	30289.054520
482.549777	30061.637988
482.918912	29823.176288
483.287988	29773.442784
483.657005	29621.366296
484.025964	29254.516490
484.394864	29455.963518
484.763706	29380.731858
485.132489	28822.739142
485.501213	28909.880528
485.869879	29080.135416
486.238487	29019.013947
486.607036	29276.747978
486.975527	28968.141142
487.343959	29323.330760
487.712333	29674.666416
488.080648	29627.919796
488.448905	30059.787884
488.817104	29938.454873
489.185244	30777.315476
489.553326	31717.115102
489.921350	33600.225519
490.289315	36132.591180
490.657222	37059.089722
491.025070	37643.072107
491.392861	37369.576908
491.760593	36601.597449
492.128267	35617.407942
492.495883	34632.860514
492.863440	33722.173551
493.230939	32752.263113
493.598380	32178.915042
493.965763	32011.309279
494.333088	31502.959325
494.700354	31312.302887
495.067563	31282.557558
495.434713	31158.099032
495.801805	31440.864913
496.168839	31277.806271
496.535815	31119.536725
496.902733	31249.054050
497.269593	31068.119477
497.636395	31222.807283
498.003139	31500.408501
498.369825	31246.742681
498.736453	31651.665802
499.103023	31488.229074
499.469535	31578.223752
499.835989	31699.967617
500.202385	31571.584552
500.568723	31610.504781
500.935003	31901.427249
501.301226	31752.745978
501.667390	32497.831037
502.033497	32707.064127
502.399546	32506.353107
502.765537	32108.396861
503.131470	32580.677359
503.497345	33023.162117
503.863163	31942.880657
504.228923	32736.161667
504.594625	33117.615696
504.960269	32584.233893
505.325856	33258.654578
505.691385	32909.728594
506.056856	33245.973556
506.422270	33735.819954
506.787625	33239.969541
507.152924	33693.343192
507.518164	33864.324007
507.883347	33432.249231
508.248472	33583.526697
508.613540	34268.803506
508.978550	34467.891275
509.343503	34306.970082
509.708398	34652.364738
510.073236	35231.026185
510.438016	35323.889280
510.802738	34988.067775
511.167403	35526.256319
511.532010	35762.913286
511.896561	36271.117047
512.261053	37022.737962
512.625488	36777.004397
512.989866	36684.509306
513.354186	36717.276806
513.718449	36667.160175
514.082655	37534.468009
514.446803	37202.858388
514.810894	37819.270516
515.174927	37797.475088
515.538904	37787.395300
515.902822	38393.785614
516.266684	38064.411745
516.630488	38402.685771
516.994235	38365.487097
517.357925	38923.810009
517.721558	39152.217128
518.085133	39516.143065
518.448651	39655.644395
518.812112	39532.569665
519.175516	39642.474381
519.538863	40052.950333
519.902152	40083.146844
520.265385	40600.712027
520.628560	40568.713303
520.991678	40478.033028
521.354739	40679.815293
521.717743	40976.033493
522.080690	40829.313231
522.443580	41476.715852
522.806413	41426.906731
523.169189	41513.004598
523.531908	41675.617097
523.894569	41475.785759
524.257174	41621.911165
524.619722	41910.305494
524.982213	42008.819723
525.344647	41986.820127
525.707025	42045.509240
526.069345	42410.856783
526.431608	42275.801751
526.793815	42587.453443
527.155964	42069.154772
527.518057	42242.971236
527.880093	42050.842781
528.242072	42596.257818
528.603995	42252.448606
528.965860	42088.969028
529.327669	42244.896957
529.689421	42234.872623
530.051117	42119.110086
530.412755	42300.538693
530.774337	42278.521453
531.135862	42139.262099
531.497331	42192.005171
531.858743	42103.066614
532.220098	42401.409661
532.581396	42046.225084
532.942638	41742.626635
533.303824	41886.538974
533.664953	41859.195756
534.026025	41447.272993
534.387040	41896.326374
534.747999	41852.274252
535.108902	42058.767475
535.469748	41329.423419
535.830537	41491.907369
536.191270	41617.144754
536.551947	41269.375715
536.912567	41407.336972
537.273131	41433.608945
537.633638	40986.045224
537.994089	41032.169262
538.354483	40698.255834
538.714821	41160.358242
539.075103	41322.224651
539.435328	41072.380025
539.795497	40722.135779
540.155609	40730.166337
540.515665	41153.635863
540.875665	40360.589267
541.235609	40480.351959
541.595496	40483.195169
541.955328	40878.552701
542.315102	40244.819169
542.674821	40003.148774
543.034483	39785.277666
543.394090	39667.710397
543.753640	39509.715594
544.113134	40303.624228
544.472571	39364.472390
544.831953	40228.130429
545.191278	39429.810785
545.550548	39014.863330
545.909761	39416.529865
546.268918	39370.559583
546.628019	39577.907282
546.987064	38944.771127
547.346053	38199.771767
547.704986	38815.165582
548.063863	38354.187351
548.422684	38376.663335
548.781449	37824.271341
549.140158	38124.250242
549.498811	37745.420133
549.857408	37076.385921
550.215949	37617.851214
550.574434	37301.793553
550.932864	37098.531710
551.291237	37508.571602
551.649555	37101.994982
552.007817	37076.325427
552.366022	36658.960738
552.724173	36530.600358
553.082267	36655.600809
553.440305	36773.296628
553.798288	35987.920147
554.156215	36109.434640
554.514086	36074.070946
554.871902	35573.217187
555.229661	35514.016397
555.587365	35067.546607
555.945014	34980.569059
556.302606	34802.611287
556.660143	34677.401628
557.017625	34649.443389
557.375050	34203.528126
557.732421	34301.896161
558.089735	34151.851258
558.446994	33858.325034
558.804197	34011.021584
559.161345	33691.167934
559.518437	33007.360621
559.875474	32990.198012
560.232455	32934.715073
560.589381	32734.031780
560.946251	32415.622420
561.303065	32659.273989
561.659825	32232.194997
562.016528	31870.383823
562.373177	31380.862579
562.729770	31607.391868
563.086307	31050.051981
563.442789	31203.141741
563.799216	30887.442002
564.155587	30603.935072
564.511904	30362.057990
564.868164	30163.222279
565.224370	30158.206331
565.580520	29765.634037
565.936615	29678.270841
566.292654	29234.946730
566.648638	29237.734488
567.004567	28973.494848
567.360441	28801.147880
567.716260	28414.871987
568.072023	28425.687783
568.427732	28142.611871
568.783385	27634.314849
569.138982	27671.173246
569.494525	27516.845882
569.850013	27083.031909
570.205445	26934.446420
570.560823	26567.518475
570.916145	26292.979757
571.271412	26206.281993
571.626625	25783.583764
571.981782	25618.488496
572.336884	25181.206209
572.691931	25144.763708
573.046923	24741.005093
573.401860	24425.549850
573.756743	24227.873605
574.111570	24089.549384
574.466342	23836.622093
574.821059	23691.585576
575.175722	23217.621333
575.530330	23058.913207
575.884882	22680.811545
576.239380	22413.307757
576.593823	22255.786823
576.948211	22015.752283
577.302544	21599.063109
577.656823	21387.183413
578.011047	21308.828758
578.365216	21038.567459
578.719330	20698.118176
579.073389	20496.857670
579.427394	20316.006276
579.781344	20081.592622
580.135239	19781.626324
580.489080	19613.370253
580.842866	19206.962512
581.196597	19216.003821
581.550273	19040.690135
581.903895	18801.983938
582.257463	18796.199214
582.610975	18391.293737
582.964434	18324.755548
583.317837	17938.703986
583.671186	17748.357579
584.024481	17658.357859
584.377721	17307.914488
584.730906	17196.762087
585.084037	17076.754899
585.437113	16797.999256
585.790135	16660.597566
586.143103	16330.253275
586.496016	16202.384408
586.848874	16073.207361
587.201679	15909.934471
587.554428	15583.681076
587.907124	15502.770557
588.259765	15270.602737
588.612352	15161.391180
588.964884	14838.953939
589.317362	14763.618936
589.669786	14614.882212
590.022155	14419.290484
590.374470	14391.556576
590.726731	14116.070121
591.078937	13782.030665
591.431090	13716.281416
591.783188	13438.276904
592.135232	13230.946850
592.487222	13151.026917
592.839157	13043.446173
593.191038	12806.312817
593.542866	12604.555758
593.894639	12310.827888
594.246358	12241.476734
594.598022	12104.813574
594.949633	11866.056966
595.301190	11722.061448
595.652692	11583.376785
596.004141	11563.723847
596.355535	11184.437514
596.706876	11056.422453
597.058162	10862.774090
597.409395	10850.314878
597.760573	10773.240677
598.111698	10572.862373
598.462768	10424.133211
598.813785	10316.144134
599.164748	10126.082552
599.515657	10061.185258
599.866511	9849.315644
600.217312	9871.184169
600.568060	9571.666534
600.918753	9604.923026
601.269392	9483.842072
601.619978	9329.207199
601.970510	9260.629862
602.320988	9173.843878
602.671412	9114.930434
603.021783	8989.637596
603.372100	8825.285898
603.722363	8741.138958
604.072572	8645.115060
604.422728	8543.452631
604.772830	8413.385821
605.122878	8340.165582
605.472872	8233.469560
605.822813	8181.313783
606.172701	8055.282416
606.522534	8003.003130
606.872314	7941.145652
607.222041	7832.123138
607.571714	7781.905684
607.921333	7629.516644
608.270899	7574.316010
608.620411	7533.517952
608.969870	7426.864780
609.319276	7351.862493
609.668627	7273.525483
610.017926	7238.237406
610.367171	7181.267327
610.716362	7108.757890
611.065500	7020.328490
611.414585	6967.620706
611.763616	6918.696308
612.112594	6833.674728
612.461518	6769.389934
612.810389	6746.757674
613.159207	6650.111193
613.507971	6576.066725
613.856682	6565.092133
614.205340	6476.703062
614.553945	6476.609801
614.902496	6348.050296
615.250994	6323.731769
615.599439	6267.671618
615.947830	6215.341921
616.296169	6158.308827
616.644454	6103.418223
616.992686	6058.597324
617.340864	6038.893974
617.688990	5945.887206
618.037063	5945.267144
618.385082	5879.222988
618.733048	5851.105952
619.080961	5791.098578
619.428821	5739.373818
619.776628	5686.345921
620.124382	5617.677844
620.472083	5569.471810
620.819731	5519.166136
621.167326	5431.258495
621.514868	5375.944435
621.862357	5281.231236
622.209793	5229.415737
622.557176	5144.623529
622.904506	5076.031069
623.251783	4999.052650
623.599007	4932.587557
623.946179	4874.011870
624.293297	4816.346111
624.640363	4738.493052
624.987376	4682.929454
625.334336	4624.431905
625.681243	4565.571392
626.028097	4522.824928
626.374899	4477.681396
626.721647	4438.816620
627.068343	4392.460690
627.414987	4343.311960
627.761577	4298.511226
628.108115	4279.823669
628.454600	4217.368814
628.801032	4192.019372
629.147412	4156.862365
629.493739	4121.604535
629.840014	4079.160540
630.186236	4065.143612
630.532405	4020.456303
630.878521	4005.300074
631.224585	3970.201041
631.570597	3934.181997
631.916556	3919.703803
632.262462	3893.419227
632.608316	3869.309908
632.954117	3842.148171
633.299866	3819.601611
633.645562	3787.118936
633.991206	3746.673759
634.336797	3709.623798
634.682336	3678.741690
635.027823	3648.865292
635.373257	3620.470993
635.718639	3586.849017
636.063968	3565.552663
636.409245	3523.481713
636.754470	3501.376254
637.099642	3476.014209
637.444762	3443.418108
637.789829	3430.585851
638.134845	3404.505441
638.479808	3388.736712
638.824719	3371.012015
639.169577	3341.826255
639.514383	3331.595233
639.859137	3309.396512
640.203839	3294.557876
640.548489	3279.232768
640.893086	3266.985285
641.237632	3248.212028
641.582125	3239.309350
641.926566	3221.877040
642.270955	3211.434290
642.615292	3196.454502
642.959576	3182.621575
643.303809	3174.154957
643.647990	3167.379647
643.992118	3157.257010
644.336195	3147.378869
644.680219	3139.083650
645.024192	3136.424442
645.368112	3135.968217
645.711981	3128.701394
646.055797	3131.322794
646.399562	3125.613687
646.743274	3132.388998
647.086935	3132.144502
647.430544	3128.799696
647.774101	3119.836525
648.117606	3118.356946
648.461059	3115.634723
648.804460	3102.868001
649.147810	3085.077769
649.491108	3071.978331
649.834354	3066.460788
650.177548	3044.922458
650.520690	3033.292516
650.863781	3025.599715
651.206820	3018.327851
651.549807	3007.721263
651.892742	2992.819613
652.235626	2988.285095
652.578458	2978.865699
652.921238	2965.214254
653.263967	2966.005715
653.606644	2953.874178
653.949269	2950.420988
654.291843	2943.723815
654.634365	2944.048970
654.976836	2928.476845
655.319255	2929.782504
655.661622	2923.516350
656.003938	2916.577202
656.346203	2911.175605
656.688416	2909.025553
657.030577	2902.222516
657.372687	2896.289078
657.714746	2895.832854
658.056753	2896.314284
658.398708	2885.196019
658.740612	2884.394476
659.082465	2884.011348
659.424266	2874.135728
659.766016	2870.647249
660.107715	2870.881663
660.449362	2861.968903
660.790958	2869.709594
661.132503	2863.216588
661.473996	2859.833974
661.815438	2858.223325
662.156829	2858.056967
662.498168	2853.010772
662.839456	2851.823581
663.180693	2849.194619
663.521879	2846.953826
663.863013	2843.019205
664.204097	2840.919565
664.545129	2842.820080
664.886110	2841.022908
665.227040	2840.997703
665.567918	2838.033504
665.908746	2836.992506
666.249522	2835.119717
666.590248	2832.526044
666.930922	2831.802638
667.271545	2830.280210
667.612118	2828.588902
667.952639	2824.273675
668.293109	2825.723007
668.633528	2823.436843
668.973896	2815.870071
669.314213	2815.431491
669.654480	2811.771613
669.994695	2812.704227
670.334859	2809.407312
670.674973	2804.363638
671.015035	2804.708957
671.355047	2801.709470
671.695008	2799.077988
672.034918	2797.316105
672.374777	2795.652524
672.714585	2794.888789
673.054342	2794.500620
673.394049	2792.277471
673.733705	2792.038017
674.073310	2786.777572
674.412864	2784.413271
674.752368	2780.715585
675.091820	2782.343878
675.431223	2774.789709
675.770574	2773.637805
676.109875	2769.070520
676.449125	2766.928029
676.788324	2759.822523
677.127473	2758.005187
677.466571	2753.679877
677.805619	2754.360433
678.144616	2753.631986
678.483562	2752.263313
678.822458	2744.303331
679.161303	2745.208218
679.500098	2743.549678
679.838842	2742.289390
680.177535	2739.736045
680.516179	2738.654718
680.854771	2741.266036
681.193314	2745.097312
681.531805	2750.791296
681.870247	2756.407141
682.208638	2758.705907
682.546978	2764.349479
682.885268	2762.814448
683.223508	2760.248500
683.561697	2755.580392
683.899836	2756.394538
684.237925	2753.768097
684.575963	2746.627303
684.913951	2743.325347
685.251889	2742.848958
685.589776	2741.704616
685.927614	2742.251581
686.265401	2741.510532
686.603137	2738.369893
686.940824	2744.401633
687.278460	2746.281984
687.616046	2744.618403
687.953582	2750.771131
688.291068	2747.529669
688.628504	2749.130236
688.965889	2749.341964
689.303224	2749.916656
689.640510	2746.150914
689.977745	2740.585480
690.314930	2731.156002
690.652065	2731.095508
690.989150	2722.845659
691.326185	2717.013044
691.663170	2710.036087
692.000105	2706.988710
692.336990	2698.799356
692.673825	2698.277596
693.010610	2687.915504
693.347345	2684.752180
693.684030	2677.334122
694.020665	2679.446366
694.357251	2667.902124
694.693786	2675.201714
695.030272	2669.439676
695.366707	2666.712411
695.703093	2661.827533
696.039429	2661.482214
696.375716	2660.476504
696.711952	2660.441216
697.048139	2659.052378
697.384276	2658.215547
697.720363	2659.241421
698.056400	2657.814775
698.392388	2654.394352
698.728326	2653.484424
699.064214	2654.890906
699.400053	2651.785555
699.735842	2649.443939
700.071581	2649.849752
700.407270	2643.830614
700.742910	2644.370017
701.078501	2641.254584
701.414042	2640.102681
701.749533	2634.544809
702.084974	2633.448358
702.420366	2636.190745
702.755709	2631.184880
703.091002	2630.736217
703.426246	2629.700260
703.761440	2628.876031
704.096584	2631.683954
704.431679	2625.730351
704.766725	2626.363016
705.101721	2622.791358
705.436668	2624.704476
705.771565	2621.374794
706.106413	2625.805968
706.441212	2627.348562
706.775961	2625.803448
707.110661	2622.269599
707.445311	2627.333438
707.779913	2625.382512
708.114465	2627.048613
708.448967	2628.785290
708.783421	2631.943573
709.117825	2634.088584
709.452180	2637.191414
709.786485	2639.462454
710.120742	2640.256436
710.454949	2641.645274
710.789107	2644.238947
711.123216	2647.361942
711.457275	2655.947027
711.791286	2659.039775
712.125247	2662.019097
712.459159	2655.241266
712.793023	2663.954900
713.126837	2659.553973
713.460602	2659.485917
713.794318	2656.877120
714.127985	2653.660864
714.461602	2649.053249
714.795171	2646.545275
715.128691	2641.320119
715.462162	2637.345170
715.795584	2633.997843
716.128957	2630.380816
716.462281	2629.664972
716.795556	2627.240177
717.128782	2623.232459
717.461960	2620.737088
717.795088	2617.939248
718.128167	2618.110647
718.461198	2614.153341
718.794180	2612.709051
719.127113	2609.729729
719.459997	2611.511777
719.792833	2604.935592
720.125619	2607.410798
720.458357	2601.159767
720.791046	2601.119438
721.123686	2600.469129
721.456278	2600.872422
721.788821	2597.885538
722.121315	2598.172884
722.453761	2601.139603
722.786158	2596.589961
723.118506	2594.833119
723.450805	2594.591144
723.783056	2597.809921
724.115259	2598.127513
724.447412	2595.523757
724.779518	2597.167173
725.111574	2595.438058
725.443582	2598.981989
725.775542	2599.642380
726.107453	2602.578852
726.439315	2601.661362
726.771129	2603.564398
727.102895	2602.677155
727.434612	2608.267794
727.766281	2607.040273
728.097901	2612.512446
728.429473	2614.266767
728.760996	2616.313476
729.092471	2614.985132
729.423897	2615.085955
729.755276	2614.735595
730.086606	2614.750718
730.417887	2616.235338
730.749120	2619.554938
731.080305	2621.001749
731.411442	2625.390073
731.742530	2625.589199
732.073570	2626.428551
732.404562	2630.688326
732.735506	2629.370064
733.066401	2625.135495
733.397249	2624.270937
733.728048	2620.454784
734.058798	2614.428084
734.389501	2610.075048
734.720156	2606.142948
735.050762	2602.725046
735.381320	2599.355034
735.711831	2596.118613
736.042293	2592.899837
736.372707	2593.711462
736.703073	2592.027717
737.033391	2592.725917
737.363661	2592.637697
737.693883	2595.594333
738.024056	2594.777667
738.354182	2594.051740
738.684260	2597.570466
739.014290	2600.443923
739.344272	2604.922989
739.674207	2606.921806
740.004093	2603.544233
740.333931	2607.947681
740.663722	2609.795264
740.993464	2607.695623
741.323159	2606.659666
741.652806	2605.318719
741.982405	2602.924171
742.311956	2599.917123
742.641460	2602.563729
742.970915	2598.898810
743.300323	2597.121803
743.629683	2589.562593
743.958996	2588.297263
744.288260	2585.020513
744.617477	2586.676532
744.946647	2589.537387
745.275768	2586.217787
745.604842	2585.650657
745.933869	2585.154104
746.262847	2582.714185
746.591778	2581.038002
746.920662	2579.064390
747.249498	2583.576223
747.578286	2579.220666
747.907027	2580.163362
748.235720	2582.963722
748.564365	2583.876171
748.892963	2582.376428
749.221514	2586.114444
749.550017	2580.785944
749.878473	2585.227201
750.206881	2582.782241
750.535242	2580.599421
750.863555	2577.204204
751.191821	2580.087744
751.520039	2581.416088
751.848210	2581.698393
752.176334	2578.726633
752.504411	2579.818043
752.832440	2578.991293
753.160421	2578.391396
753.488356	2579.145048
753.816243	2575.691858
754.144082	2576.866447
754.471875	2575.883422
754.799620	2577.080696
755.127318	2576.407702
755.454969	2574.615572
755.782572	2575.865778
756.110129	2575.802763
756.437638	2577.703278
756.765100	2575.606158
757.092515	2576.410223
757.419882	2575.061714
757.747203	2577.415933
758.074477	2577.408371
758.401703	2576.309399
758.728882	2576.402661
759.056014	2578.124215
759.383099	2579.634040
759.710138	2577.839390
760.037129	2576.876529
760.364073	2578.966088
760.690970	2577.131107
761.017820	2580.523804
761.344623	2583.493044
761.671379	2588.415730
761.998088	2589.981009
762.324751	2602.959459
762.651366	2623.484517
762.977935	2653.915442
763.304456	2680.245389
763.630931	2689.992460
763.957359	2687.008097
764.283740	2674.788340
764.610074	2660.620177
764.936362	2641.569657
765.262602	2627.620784
765.588796	2609.515480
765.914943	2597.192379
766.241044	2591.092583
766.567097	2583.911459
766.893104	2578.555233
767.219064	2572.054666
767.544978	2571.227916
767.870845	2565.082750
768.196665	2562.975547
768.522438	2560.674261
768.848165	2557.586554
769.173846	2560.114693
769.499479	2555.504558
769.825066	2555.454146
770.150607	2554.824002
770.476101	2552.598332
770.801548	2550.012220
771.126949	2549.248486
771.452303	2550.246634
771.777611	2547.221942
772.102872	2548.204967
772.428087	2545.946530
772.753256	2543.244471
773.078378	2544.698844
773.403453	2545.923845
773.728482	2542.379913
774.053465	2539.622402
774.378401	2538.142824
774.703291	2537.111908
775.028135	2537.875643
775.352932	2537.409336
775.677683	2535.501259
776.002388	2531.697708
776.327046	2531.584283
776.651658	2531.412883
776.976224	2527.538757
777.300743	2534.109901
777.625216	2533.061341
777.949643	2532.859694
778.274024	2531.627132
778.598359	2530.606299
778.922647	2531.473377
779.246889	2535.932278
779.571086	2530.936494
779.895236	2534.268697
780.219339	2533.464633
780.543397	2530.203006
780.867409	2535.748276
781.191374	2532.403470
781.515294	2533.434386
781.839167	2534.384643
782.162995	2533.565456
782.486776	2533.656197
782.810511	2532.405991
783.134201	2531.276772
783.457844	2532.063192
783.781441	2531.914478
784.104993	2530.472708
784.428498	2531.415404
784.751958	2528.909950
785.075372	2529.714014
785.398739	2529.139323
785.722061	2528.829292
786.045337	2532.625281
786.368568	2531.667462
786.691752	2533.419262
787.014891	2532.728624
787.337983	2536.459078
787.661030	2540.471837
787.984031	2548.784699
788.306987	2554.244269
788.629897	2554.453477
788.952760	2553.961964
789.275579	2547.968033
789.598351	2550.284443
789.921078	2549.031716
790.243759	2544.920655
790.566395	2539.929913
790.888984	2539.025026
791.211529	2538.243647
791.534027	2536.020498
791.856480	2531.647297
792.178888	2533.061341
792.501249	2525.267717
792.823566	2528.985568
793.145836	2524.057840
793.468062	2530.223171
793.790241	2527.465660
794.112375	2530.792821
794.434464	2530.591175
794.756507	2528.415917
795.078505	2531.077647
795.400457	2531.985054
795.722364	2538.783050
796.044226	2542.218597
796.366042	2544.109029
796.687812	2539.723225
797.009538	2546.004503
797.331218	2543.541899
797.652852	2543.569626
797.974442	2542.652136
798.295986	2538.208359
798.617484	2541.328833
798.938938	2536.761547
799.260346	2539.526620
799.581709	2535.009747
799.903026	2535.211393
800.224299	2532.877338
800.545526	2533.900693
800.866708	2532.642925
801.187845	2529.227543
801.508936	2529.983716
801.829983	2528.453726
802.150984	2527.163191
802.471940	2528.191586
802.792851	2525.691174
803.113717	2522.603467
803.434538	2526.288550
803.755314	2524.642614
804.076045	2525.350896
804.396731	2523.886441
804.717372	2526.525485
805.037967	2523.278982
805.358518	2527.538757
805.679024	2527.022038
805.999485	2525.519774
806.319901	2526.069260
806.640272	2525.665968
806.960598	2526.109589
807.280879	2528.017666
807.601115	2530.114786
807.921306	2526.583458
808.241453	2526.565814
808.561554	2526.283509
808.881611	2526.686802
809.201623	2523.432737
809.521590	2527.899199
809.841513	2525.713859
810.161390	2529.522451
810.481223	2526.880886
810.801011	2528.375588
811.120755	2526.606143
811.440453	2527.011956
811.760107	2526.119672
812.079716	2526.918695
812.399281	2525.484486
812.718801	2526.613705
813.038276	2524.325021
813.357707	2524.259486
813.677093	2527.599250
813.996434	2525.174455
814.315731	2525.691174
814.634983	2525.202182
814.954191	2524.730834
815.273354	2525.547501
815.592473	2528.940197
815.911547	2527.304343
816.230577	2529.245187
816.549562	2529.068747
816.868502	2533.391536
817.187399	2532.368182
817.506250	2531.929602
817.825058	2533.633512
818.143821	2536.736342
818.462539	2542.853782
818.781213	2544.721529
819.099843	2551.741336
819.418429	2557.775597
819.736970	2570.822103
820.055466	2579.414750
820.373919	2594.112234
820.692327	2618.282046
821.010691	2650.651295
821.329011	2727.964951
821.647286	2857.126874
821.965517	3022.307842
822.283704	3146.352994
822.601847	3217.140876
822.919945	3171.417611
823.237999	3102.706684
823.556010	3023.414375
823.873976	2944.837910
824.191897	2873.878629
824.509775	2819.328303
824.827609	2770.003133
825.145398	2735.357803
825.463144	2718.739640
825.780845	2710.101622
826.098502	2720.103272
826.416116	2752.076790
826.733685	2788.713376
827.051210	2807.234575
827.368692	2802.795839
827.686129	2771.613782
828.003522	2731.791187
828.320872	2692.636545
828.638177	2659.727893
828.955439	2635.966414
829.272656	2619.239866
829.589830	2597.862853
829.906960	2581.779051
830.224046	2573.216652
830.541088	2563.754406
830.858086	2551.968188
831.175041	2551.882488
831.491952	2546.221273
831.808819	2548.467107
832.125642	2552.114382
832.442421	2560.182748
832.759157	2573.904769
833.075849	2602.737648
833.392497	2638.741569
833.709101	2664.930363
834.025662	2669.462361
834.342179	2657.262768
834.658653	2636.316774
834.975083	2617.072169
835.291469	2599.586927
835.607811	2584.082859
835.924110	2572.649522
836.240366	2564.240877
836.556578	2553.929197
836.872746	2544.028371
837.188871	2537.326157
837.504952	2530.276103
837.820990	2528.297450
838.136984	2526.036493
838.452935	2523.682274
838.768842	2524.884589
839.084706	2523.843591
839.400526	2538.258770
839.716303	2555.481872
840.032037	2565.392781
840.347727	2569.907134
840.663373	2562.446226
840.978977	2547.834442
841.294537	2540.192053
841.610054	2533.855322
841.925527	2527.742923
842.240957	2525.774353
842.556344	2518.744464
842.871687	2514.144411
843.186987	2512.095182
843.502244	2509.388082
843.817458	2506.842299
844.132629	2505.766013
844.447756	2505.292145
844.762840	2503.293327
845.077881	2501.050014
845.392879	2503.028667
845.707833	2499.792246
846.022745	2498.723521
846.337613	2500.465240
846.652438	2498.665548
846.967221	2497.201093
847.281960	2499.338542
847.596656	2499.446927
847.911309	2501.234016
848.225919	2496.971720
848.540485	2496.341576
848.855009	2497.233860
849.169490	2495.522388
849.483928	2495.756802
849.798323	2494.551966
850.112675	2495.368633
850.426984	2495.648417
850.741251	2498.045486
851.055474	2493.745382
851.369654	2492.520381
851.683792	2497.231340
851.997887	2498.635301
852.311938	2497.014570
852.625947	2496.069354
852.939914	2494.834271
853.253837	2498.705877
853.567718	2496.865856
853.881555	2497.533809
854.195350	2496.150012
854.509103	2496.913747
854.822812	2496.359220
855.136479	2497.753099
855.450103	2493.828561
855.763685	2495.600526
856.077224	2490.811430
856.390720	2495.552635
856.704173	2491.817140
857.017584	2499.139416
857.330953	2494.940135
857.644278	2500.034221
857.957561	2500.588748
858.270802	2498.670589
858.584000	2497.884169
858.897155	2493.173211
859.210268	2497.349807
859.523339	2498.166474
859.836367	2497.473315
860.149352	2499.270486
860.462295	2494.614981
860.775195	2497.848881
861.088054	2495.567759
861.400869	2498.403408
861.713642	2496.712101
862.026373	2494.423417
862.339062	2496.903665
862.651708	2498.418531
862.964312	2496.424755
863.276873	2496.676813
863.589392	2497.531288
863.901869	2499.076402
864.214303	2498.685712
864.526696	2501.773419
864.839045	2500.853409
865.151353	2499.792246
865.463619	2501.750734
865.775842	2501.854078
866.088023	2498.955414
866.400162	2502.459016
866.712258	2501.980107
867.024313	2500.608913
867.336325	2501.251660
867.648296	2503.247957
867.960224	2500.243429
868.272110	2502.733759
868.583954	2502.380878
868.895755	2505.518997
869.207515	2503.247957
869.519233	2501.957421
869.830909	2504.258708
870.142542	2502.922802
870.454134	2505.907165
870.765684	2503.643687
871.077191	2503.268121
871.388657	2504.785509
871.700081	2503.000940
872.011463	2505.803822
872.322803	2503.041269
872.634101	2507.043946
872.945357	2510.192146
873.256571	2508.410098
873.567744	2509.899759
873.878874	2508.694923
874.189963	2512.387569
874.501010	2510.416478
874.812015	2510.723988
875.122979	2513.020233
875.433900	2512.516118
875.744780	2513.794051
876.055618	2514.502333
876.366415	2513.912518
876.677169	2513.040398
876.987882	2517.070801
877.298554	2517.685821
877.609183	2516.544000
877.919771	2520.680267
878.230317	2525.923067
878.540822	2526.482635
878.851285	2528.239477
879.161707	2537.051414
879.472087	2547.410985
879.782425	2565.314643
880.092722	2594.833119
880.402977	2641.385654
880.713191	2705.814121
881.023363	2769.262083
881.333494	2818.103302
881.643583	2846.495081
881.953631	2846.585822
882.263637	2834.814727
882.573602	2809.435038
882.883526	2786.901081
883.193408	2762.511978
883.503248	2731.692884
883.813048	2711.009030
884.122806	2687.759229
884.432522	2664.461536
884.742197	2643.641571
885.051831	2622.982922
885.361424	2605.139758
885.670975	2591.175762
885.980485	2574.827300
886.289954	2566.635425
886.599382	2556.114537
886.908768	2549.603887
887.218113	2536.600231
887.527417	2535.445806
887.836680	2527.301822
888.145901	2531.208717
888.455082	2526.497758
888.764221	2524.733354
889.073319	2523.894002
889.382376	2517.413599
889.691392	2519.697242
890.000366	2518.789834
890.309300	2516.632220
890.618193	2518.729340
890.927044	2515.301356
891.235855	2519.379649
891.544625	2517.695904
891.853353	2518.769669
892.162041	2519.818229
892.470687	2524.985412
892.779293	2525.570186
893.087858	2534.626619
893.396381	2539.642567
893.704864	2556.764846
894.013306	2570.504511
894.321707	2591.415217
894.630068	2607.723350
894.938387	2616.305914
895.246665	2614.705348
895.554903	2607.131014
895.863100	2593.900506
896.171256	2585.607808
896.479371	2578.948443
896.787446	2569.846640
897.095480	2561.052347
897.403473	2554.443395
897.711425	2549.936603
898.019336	2545.833104
898.327207	2540.832279
898.635038	2537.419418
898.942827	2535.276928
899.250576	2530.240815
899.558284	2524.675381
899.865952	2522.021214
900.173579	2521.290246
900.481165	2515.107271
900.788711	2515.692045
901.096216	2514.698938
901.403681	2513.889833
901.711105	2514.076355
902.018489	2511.553258
902.325832	2508.798267
902.633135	2510.194667
902.940397	2515.319000
903.247619	2527.959693
903.554800	2555.323076
903.861941	2590.860690
904.169041	2622.388066
904.476101	2639.308699
904.783121	2638.469347
905.090100	2625.659775
905.397039	2613.979422
905.703938	2595.695157
906.010796	2587.422623
906.317614	2576.508525
906.624391	2561.921946
906.931129	2555.202088
907.237826	2545.560882
907.544483	2542.432846
907.851099	2532.980682
908.157675	2526.719569
908.464211	2517.247241
908.770707	2515.218177
909.077163	2507.616117
909.383578	2503.457165
909.689954	2506.154182
909.996289	2502.514469
910.302584	2500.649242
910.608839	2498.214365
910.915054	2496.694457
911.221229	2498.244612
911.527363	2499.051196
911.833458	2499.157060
912.139513	2500.561022
912.445527	2499.192348
912.751502	2501.390292
913.057436	2506.068482
913.363331	2506.721312
913.669186	2509.297341
913.975000	2513.448732
914.280775	2522.427027
914.586510	2532.816845
914.892205	2548.724206
915.197859	2567.464695
915.503475	2587.586461
915.809050	2614.234000
916.114585	2629.302009
916.420081	2636.069758
916.725536	2639.074285
917.030952	2631.507513
917.336328	2622.594753
917.641665	2613.341716
917.946961	2601.563060
918.252218	2599.087853
918.557435	2583.109916
918.862612	2578.381314
919.167750	2573.327557
919.472848	2563.764488
919.777906	2554.244269
920.082925	2550.050029
920.387904	2537.885725
920.692843	2531.485980
920.997743	2530.807945
921.302603	2523.473066
921.607423	2519.697242
921.912204	2514.492250
922.216946	2514.101561
922.521647	2509.945130
922.826310	2508.757938
923.130932	2504.851044
923.435516	2504.906496
923.740059	2501.312154
924.044564	2501.591938
924.349028	2499.709067
924.653454	2500.492966
924.957840	2495.461895
925.262186	2495.658500
925.566493	2496.175218
925.870761	2492.800165
926.174989	2492.943838
926.479178	2493.581544
926.783328	2490.927377
927.087438	2491.078611
927.391509	2491.043323
927.695541	2488.560555
927.999533	2492.774960
928.303486	2486.672643
928.607400	2487.212046
928.911275	2487.007880
929.215110	2488.099289
929.518906	2486.370174
929.822663	2487.088538
930.126381	2489.909064
930.430060	2487.224649
930.733699	2487.726244
931.037299	2488.106851
931.340861	2485.321614
931.644383	2486.029896
931.947866	2488.210195
932.251309	2487.973261
932.554714	2487.673312
932.858080	2484.429329
933.161407	2483.073259
933.464694	2486.718013
933.767943	2480.474544
934.071153	2486.465956
934.374323	2484.746922
934.677455	2486.899495
934.980548	2486.534011
935.283602	2483.244658
935.586617	2485.208188
935.889593	2484.880513
936.192530	2485.939155
936.495428	2485.182982
936.798287	2485.772797
937.101108	2486.591984
937.403890	2486.753301
937.706632	2491.945690
938.009336	2489.939311
938.312002	2492.298571
938.614628	2492.117089
938.917216	2497.004488
939.219765	2495.411483
939.522275	2497.004488
939.824747	2495.950887
940.127179	2500.167812
940.429573	2496.669251
940.731929	2497.533809
941.034246	2495.391318
941.336524	2499.310816
941.638763	2492.636328
941.940964	2498.809221
942.243126	2494.093221
942.545250	2496.344097
942.847335	2492.550628
943.149381	2493.909219
943.451389	2492.487614
943.753359	2492.485093
944.055290	2491.683550
944.357182	2491.008035
944.659036	2487.975781
944.960851	2490.718169
945.262628	2489.558703
945.564367	2488.275730
945.866067	2489.369660
946.167729	2485.336737
946.469352	2487.708600
946.770937	2488.139619
947.072484	2487.403610
947.373992	2488.162304
947.675462	2486.672643
947.976893	2487.496872
948.278286	2482.538897
948.579641	2485.974443
948.880958	2482.173413
949.182236	2486.591984
949.483476	2489.783035
949.784678	2487.857314
950.085841	2486.166007
950.386967	2488.434526
950.688054	2486.259268
950.989103	2485.588795
951.290114	2486.329844
951.591087	2487.035606
951.892021	2489.793117
952.192917	2486.808754
952.493776	2488.966368
952.794596	2491.648262
953.095378	2491.244969
953.396122	2491.983498
953.696828	2490.123313
953.997496	2490.435864
954.298126	2491.212202
954.598718	2490.892089
954.899272	2490.151039
955.199788	2488.774804
955.500266	2487.012921
955.800706	2487.315390
956.101108	2487.575009
956.401472	2483.738691
956.701798	2484.671305
957.002087	2481.994452
957.302337	2481.886067
957.602550	2480.285501
957.902724	2482.604432
958.202861	2478.442959
958.502960	2482.067549
958.803022	2479.274750
959.103045	2478.412712
959.403031	2482.032261
959.702979	2477.323823
960.002889	2478.934472
960.302762	2479.100830
960.602596	2478.349698
960.902393	2473.497587
961.202153	2476.297948
961.501875	2477.608648
961.801559	2475.466158
962.101205	2476.827269
962.400814	2477.452372
962.700385	2474.717547
962.999918	2473.474902
963.299414	2471.292083
963.598873	2475.342650
963.898293	2469.613378
964.197677	2476.028247
964.497022	2473.396764
964.796331	2474.470530
965.095601	2475.153606
965.394835	2472.980869
965.694030	2471.269397
965.993189	2474.460448
966.292309	2473.956332
966.591393	2475.778709
966.890439	2473.913483
967.189447	2475.637557
967.488419	2474.311734
967.787353	2474.616723
968.086249	2474.425160
968.385108	2476.111426
968.683930	2474.717547
968.982714	2473.789974
969.281462	2473.328709
969.580172	2475.105715
969.878844	2473.830303
970.177480	2477.742239
970.476078	2473.391723
970.774639	2475.405664
971.073162	2472.943060
971.371649	2478.329533
971.670098	2475.415746
971.968510	2477.835500
972.266885	2473.452217
972.565223	2479.846921
972.863524	2475.733339
973.161788	2477.517907
973.460014	2474.120170
973.758204	2478.949595
974.056356	2477.616210
974.354471	2474.800726
974.652550	2476.978504
974.950591	2475.272073
975.248595	2477.217959
975.546563	2474.127732
975.844493	2477.510346
976.142386	2474.394913
976.440243	2473.971456
976.738062	2476.297948
977.035845	2476.103864
977.333590	2477.301138
977.631299	2475.362814
977.928971	2473.691672
978.226606	2470.225878
978.524204	2473.726960
978.821765	2468.680765
979.119290	2474.772999
979.416777	2473.447176
979.714228	2475.526652
980.011642	2473.401805
980.309020	2477.318782
980.606360	2475.415746
980.903664	2476.270222
981.200931	2475.534213
981.498162	2478.962198
981.795356	2478.596714
982.092513	2480.623258
982.389633	2484.820019
982.686717	2489.941831
982.983764	2488.585761
983.280775	2493.745382
983.577749	2491.418889
983.874686	2493.891575
984.171587	2491.733961
984.468451	2491.219764
984.765279	2490.171204
985.062070	2490.604743
985.358824	2485.550986
985.655543	2483.620224
985.952224	2484.126860
986.248869	2483.458907
986.545478	2477.313741
986.842050	2481.271047
987.138586	2472.766620
987.435086	2477.333905
987.731549	2473.583287
988.027975	2477.059162
988.324366	2471.846609
988.620719	2474.503298
988.917037	2472.388533
989.213318	2469.416773
989.509563	2470.591362
989.805772	2470.702267
990.101944	2467.649849
990.398080	2470.490539
990.694180	2469.963738
990.990244	2473.243009
991.286271	2468.768985
991.582262	2472.438945
991.878217	2470.344346
992.174136	2472.743935
992.470019	2468.642956
992.765865	2470.432566
993.061676	2465.683799
993.357450	2470.858543
993.653188	2465.502317
993.948890	2473.033801
994.244556	2469.903245
994.540186	2474.583956
994.835780	2471.720581
995.131337	2474.972125
995.426859	2475.617392
995.722345	2474.591518
996.017795	2479.562095
996.313208	2480.577888
996.608586	2483.375728
996.903928	2482.294401
997.199234	2483.264823
997.494504	2482.725419
997.789738	2481.550831
998.084936	2480.071252
998.380099	2479.153762
998.675225	2478.924389
998.970316	2480.217445
999.265371	2477.916159
999.560390	2475.254429
999.855373	2474.699902
1000.150320	2474.299131
1000.445232	2472.811990
1000.740108	2471.191259
1001.034948	2471.765951
1001.329752	2471.060189
1001.624521	2470.762761
1001.919254	2468.763944
1002.213951	2470.878708
1002.508613	2470.384675
1002.803239	2468.300158
1003.097829	2466.881073
1003.392384	2471.939871
1003.686903	2467.624643
1003.981386	2469.600775
1004.275834	2468.831999
1004.570246	2470.404839
1004.864623	2467.052472
1005.158964	2468.395940
1005.453270	2469.474747
1005.747540	2468.695888
1006.041775	2467.791001
1006.335974	2468.232102
1006.630138	2467.879221
1006.924266	2467.859057
1007.218359	2469.580611
1007.512416	2464.315126
1007.806438	2462.954014
1008.100425	2464.352934
1008.394376	2463.392594
1008.688292	2467.433079
1008.982172	2467.543985
1009.276017	2467.962400
1009.569827	2465.346042
1009.863602	2469.447020
1010.157341	2466.218161
1010.451045	2467.339818
1010.744714	2466.795373
1011.038347	2466.089612
1011.331945	2465.943418
1011.625508	2466.255970
1011.919036	2468.181691
1012.212528	2467.070116
1012.505986	2466.087091
1012.799408	2466.029118
1013.092795	2462.170115
1013.386147	2467.294447
1013.679464	2468.252267
1013.972745	2467.826289
1014.265992	2466.334108
1014.559204	2467.891824
1014.852380	2468.647997
1015.145521	2465.666155
1015.438628	2468.521968
1015.731699	2466.548357
1016.024736	2466.535754
1016.317737	2466.508027
1016.610703	2467.004581
1016.903635	2463.755558
1017.196531	2467.196145
1017.489393	2466.629015
1017.782219	2468.935343
1018.075011	2466.102215
1018.367768	2466.006433
1018.660490	2465.393933
1018.953177	2465.393933
1019.245829	2465.393933
