Dividing Wavelength (nm)	Counts (n)	Blue Motor Position (mm): 0.000000	Red Motor Position (mm): 24.000000	
326.493990	2051.016128
326.888308	2051.016128
327.282561	2051.016128
327.676750	2025.586027
328.070874	2029.533250
328.464933	2032.827644
328.858929	2038.672862
329.252859	2050.144008
329.646726	2064.503735
330.040528	2081.852866
330.434265	2098.397933
330.827938	2120.127826
331.221547	2139.324540
331.615091	2160.696512
332.008571	2178.653102
332.401986	2199.173118
332.795338	2218.637013
333.188625	2237.773233
333.581847	2261.572521
333.975006	2276.345622
334.368100	2294.697943
334.761129	2311.515232
335.154095	2323.372026
335.546996	2342.160406
335.939833	2357.724969
336.332606	2375.333719
336.725315	2385.879813
337.117960	2394.575803
337.510540	2406.475447
337.903056	2415.405851
338.295508	2420.951120
338.687896	2429.637028
339.080220	2433.037287
339.472480	2437.992741
339.864676	2440.465427
340.256807	2444.687393
340.648875	2445.068000
341.040879	2446.487085
341.432818	2453.083435
341.824694	2451.077056
342.216506	2450.827518
342.608253	2449.262240
342.999937	2448.866510
343.391557	2447.878443
343.783113	2445.340223
344.174605	2445.105809
344.566033	2444.614296
344.957397	2441.196394
345.348697	2442.038267
345.739934	2440.034408
346.131106	2438.887546
346.522215	2435.759510
346.913260	2436.203131
347.304241	2433.468305
347.695159	2432.485280
348.086012	2432.157605
348.476802	2427.602923
348.867528	2423.736358
349.258191	2422.050092
349.648789	2422.100503
350.039324	2421.142684
350.429796	2424.764753
350.820203	2422.506316
351.210548	2423.333065
351.600828	2421.293919
351.991045	2419.290060
352.381198	2421.729978
352.771288	2418.639751
353.161314	2420.875503
353.551276	2418.528846
353.941175	2418.208732
354.331010	2419.897519
354.720782	2421.160328
355.110490	2421.682087
355.500135	2420.716707
355.889717	2418.579257
356.279235	2419.514391
356.668689	2423.552356
357.058080	2421.692170
357.447408	2420.623445
357.836672	2420.999011
358.225873	2420.941038
358.615010	2423.174269
359.004084	2423.728796
359.393095	2424.061512
359.782043	2424.726944
360.170927	2424.540422
360.559748	2427.083684
360.948505	2427.517223
361.337199	2431.401432
361.725830	2428.185176
362.114398	2429.382450
362.502903	2428.971596
362.891344	2428.212902
363.279722	2430.874632
363.668037	2433.112904
364.056289	2429.314394
364.444478	2431.560228
364.832603	2429.815989
365.220665	2435.666248
365.608665	2431.955959
365.996601	2433.934612
366.384474	2434.607606
366.772284	2433.405291
367.160031	2432.840682
367.547715	2435.787236
367.935336	2434.342945
368.322893	2434.413522
368.710388	2431.227512
369.097820	2434.179108
369.485189	2433.034766
369.872495	2438.406115
370.259738	2437.939809
370.646918	2436.893769
371.034035	2440.034408
371.421090	2442.592794
371.808081	2440.583894
372.195010	2447.114709
372.581875	2444.619338
372.968678	2447.530604
373.355418	2448.090172
373.742096	2449.390790
374.128710	2450.865327
374.515262	2455.858590
374.901751	2457.527212
375.288177	2461.280351
375.674540	2460.768674
376.060841	2466.802935
376.447079	2470.331743
376.833254	2479.839359
377.219367	2477.417084
377.605417	2487.847232
377.991404	2492.802686
378.377329	2500.261073
378.763191	2504.868688
379.148991	2518.900739
379.534727	2524.957686
379.920402	2530.649148
380.306013	2542.032074
380.691563	2553.422561
381.077049	2563.134344
381.462474	2576.049780
381.847835	2589.708786
382.233134	2604.101281
382.618371	2614.349946
383.003545	2629.238994
383.388657	2643.555871
383.773706	2664.083450
384.158693	2675.718433
384.543618	2694.264838
384.928480	2708.312013
385.313280	2729.396639
385.698017	2751.136615
386.082692	2774.083947
386.467305	2789.903088
386.851856	2811.443938
387.236344	2839.437466
387.620770	2857.250383
388.005133	2877.173023
388.389435	2910.958836
388.773674	2920.443767
389.157851	2958.186886
389.541965	2982.724702
389.926018	2996.688698
390.310008	3030.953421
390.693936	3056.771690
391.077802	3083.615834
391.461606	3113.348560
391.845348	3131.037969
392.229027	3161.224398
392.612645	3202.544215
392.996200	3231.767784
393.379694	3267.128958
393.763125	3311.024805
394.146494	3336.525482
394.529801	3374.921430
394.913047	3416.624375
395.296230	3423.553441
395.679351	3447.135959
396.062410	3497.640759
396.445408	3480.072338
396.828343	3520.819984
397.211217	3550.315775
397.594028	3528.139739
397.976778	3574.586410
398.359466	3605.113117
398.742092	3618.724233
399.124656	3634.250987
399.507158	3693.156869
399.889598	3696.882282
400.271977	3764.547170
400.654294	3754.772372
401.036549	3809.300013
401.418742	3811.160199
401.800874	3878.673852
402.182944	3906.117893
402.564952	3991.245337
402.946898	3987.151921
403.328783	3982.690499
403.710606	4032.542470
404.092367	4102.561576
404.474067	4164.698838
404.855705	4146.311230
405.237282	4119.406592
405.618797	4219.092888
406.000250	4293.515443
406.381642	4377.039800
406.762972	4376.850757
407.144240	4345.227599
407.525447	4415.014812
407.906593	4428.346143
408.287677	4515.195142
408.668700	4540.489131
409.049661	4580.399946
409.430560	4617.999392
409.811399	4597.474334
410.192176	4649.340246
410.572891	4730.737236
410.953545	4836.543494
411.334138	4737.149584
411.714669	4841.380481
412.095139	4756.731946
412.475547	4870.099934
412.855894	4873.482549
413.236180	4974.802179
413.616405	4902.585130
413.996568	5009.273589
414.376670	5009.452550
414.756711	4999.685315
415.136691	5075.161470
415.516609	5157.523842
415.896466	5194.576322
416.276262	5273.268734
416.655997	5389.694182
417.035670	5480.031659
417.415283	5622.371158
417.794834	5690.908165
418.174324	5652.822248
418.553753	5655.788967
418.933121	5818.562784
419.312428	5835.652295
419.691674	5756.465851
420.070859	5986.410522
420.449983	5861.268918
420.829045	6058.922478
421.208047	5982.528833
421.586988	6142.197299
421.965867	6215.384770
422.344686	6299.347708
422.723444	6460.931812
423.102141	6080.899389
423.480777	6469.761393
423.859352	6284.410769
424.237866	6655.104456
424.616319	6651.167315
424.994712	6810.235883
425.373044	6719.908488
425.751314	7046.492079
426.129524	6759.138748
426.507673	7029.092536
426.885762	7067.843886
427.263789	7110.131605
427.641756	7192.307454
428.019662	7272.605473
428.397508	7314.116854
428.775292	7289.425282
429.153016	7461.898279
429.530679	7390.538226
429.908282	7449.292874
430.285824	7386.913636
430.663305	7673.157913
431.040726	7550.864562
431.418086	7554.116106
431.795385	7685.937238
432.172624	7878.390848
432.549802	7761.357941
432.926920	7894.250318
433.303977	7833.748910
433.680974	7865.394753
434.057910	8072.492915
434.434786	8116.741643
434.811601	8069.369920
435.188355	8404.896518
435.565050	8291.989795
435.941683	8296.688150
436.318257	8626.175445
436.694770	8571.857012
437.071222	8791.610991
437.447614	8569.394409
437.823946	8525.753140
438.200218	8670.766971
438.576429	8541.153865
438.952580	8700.721507
439.328670	8687.911936
439.704700	8749.756811
440.080670	8640.068865
440.456580	8897.039162
440.832429	8857.045168
441.208218	8587.935773
441.583947	8674.179832
441.959616	8780.583467
442.335224	8794.431516
442.710773	8858.494499
443.086261	9012.741204
443.461689	8720.560968
443.837057	8861.746044
444.212365	9042.017705
444.587612	8991.081887
444.962800	8867.129996
445.337927	8966.884348
445.712995	8496.816917
446.088002	9101.619267
446.462949	9123.840673
446.837837	9073.713960
447.212664	9047.474754
447.587431	9745.558615
447.962139	10611.593558
448.336786	11407.216184
448.711374	11167.910091
449.085901	10049.194873
449.460369	9917.625799
449.834776	9655.221138
450.209124	10382.742817
450.583412	10163.001442
450.957640	10363.725065
451.331808	9957.203898
451.705917	9404.033045
452.079965	9230.761026
452.453954	9328.027569
452.827883	9202.785143
453.201752	9104.923743
453.575562	9035.683495
453.949311	9219.478923
454.323001	9183.298562
454.696632	9031.332980
455.070202	9381.529334
455.443713	9334.772633
455.817164	9355.017906
456.190556	9487.849790
456.563888	9285.404613
456.937160	9373.486173
457.310373	8912.031553
457.683526	8811.231162
458.056619	8713.503353
458.429653	8647.479361
458.802628	8622.497923
459.175542	8540.712764
459.548398	8750.157583
459.921194	8961.570972
460.293930	9007.064865
460.666607	9361.533598
461.039224	9678.823821
461.411782	9737.800280
461.784280	9423.955685
462.156719	9249.385569
462.529099	9049.113129
462.901419	8571.751148
463.273680	8219.407262
463.645882	8179.728340
464.018024	7979.019841
464.390106	7998.569435
464.762130	8331.797266
465.134094	8847.661060
465.505999	9655.198453
465.877845	10437.535119
466.249631	10768.141550
466.621358	10380.716274
466.993026	9860.519608
467.364634	9369.791008
467.736184	8876.614927
468.107674	8471.739697
468.479105	8248.451870
468.850477	7982.692321
469.221790	7683.940941
469.593043	7322.649007
469.964238	7061.252577
470.335373	6926.815086
470.706449	6974.033054
471.077467	7065.340953
471.448425	7570.789723
471.819324	7922.533712
472.190164	7767.382120
472.560945	7189.905344
472.931667	6670.593401
473.302330	6444.570748
473.672934	6195.139497
474.043479	6159.233878
474.413965	5999.525083
474.784393	5847.123441
475.154761	5863.587849
475.525070	5779.350168
475.895321	5645.696577
476.265513	5625.642867
476.635645	5618.562567
477.005719	5527.085789
477.375734	5483.215147
477.745691	5476.523016
478.115588	5463.040450
478.485427	5534.077869
478.855207	5682.933060
479.224928	5828.854299
479.594591	5906.712400
479.964194	5741.629735
480.333739	5669.810937
480.703226	5581.227781
481.072653	5522.195870
481.442022	5476.722141
481.811333	5415.262914
482.180584	5266.629534
482.549777	5149.682327
482.918912	5026.237072
483.287988	4928.789048
483.657005	4830.683152
484.025964	4709.987847
484.394864	4638.887413
484.763706	4555.347932
485.132489	4433.591464
485.501213	4359.000031
485.869879	4299.963078
486.238487	4226.490782
486.607036	4175.600334
486.975527	4090.931634
487.343959	4047.212227
487.712333	4002.719004
488.080648	3942.194911
488.448905	3906.581679
488.817104	3841.220599
489.185244	3822.326354
489.553326	3813.852175
489.921350	3838.475691
490.289315	3884.395561
490.657222	3871.913664
491.025070	3841.833099
491.392861	3774.909261
491.760593	3693.275337
492.128267	3605.944908
492.495883	3525.939276
492.863440	3450.339612
493.230939	3380.350753
493.598380	3327.562310
493.965763	3283.530352
494.333088	3236.960173
494.700354	3204.159905
495.067563	3169.282682
495.434713	3136.323618
495.801805	3115.317130
496.168839	3085.465938
496.535815	3059.554407
496.902733	3038.439534
497.269593	3013.712675
497.636395	2992.164263
498.003139	2978.104484
498.369825	2953.604477
498.736453	2941.873712
499.103023	2921.651123
499.469535	2908.158475
499.835989	2895.512740
500.202385	2875.980790
500.568723	2858.654344
500.935003	2854.137470
501.301226	2842.043742
501.667390	2844.801253
502.033497	2835.359172
502.399546	2821.508602
502.765537	2808.552837
503.131470	2808.537713
503.497345	2803.879687
503.863163	2786.293622
504.228923	2786.253292
504.594625	2782.784979
504.960269	2772.216200
505.325856	2771.931374
505.691385	2762.486773
506.056856	2762.721186
506.422270	2759.242790
506.787625	2751.431522
507.152924	2751.807088
507.518164	2745.987076
507.883347	2739.859554
508.248472	2738.765623
508.613540	2739.983062
508.978550	2738.483319
509.343503	2735.062896
509.708398	2733.328739
510.073236	2735.370406
510.438016	2733.522823
510.802738	2724.484034
511.167403	2725.824981
511.532010	2724.395814
511.896561	2725.764487
512.261053	2729.202554
512.625488	2723.102758
512.989866	2720.955227
513.354186	2719.299208
513.718449	2713.317879
514.082655	2718.056563
514.446803	2714.293342
514.810894	2714.862992
515.174927	2710.315872
515.538904	2710.278063
515.902822	2711.956767
516.266684	2707.034080
516.630488	2705.410829
516.994235	2704.377392
517.357925	2704.768082
517.721558	2707.437373
518.085133	2705.277238
518.448651	2704.006867
518.812112	2696.545960
519.175516	2699.449664
519.538863	2696.787935
519.902152	2703.500232
520.265385	2700.384798
520.628560	2701.516537
520.991678	2697.511341
521.354739	2695.446988
521.717743	2693.221319
522.080690	2694.653007
522.443580	2699.437062
522.806413	2694.831967
523.169189	2695.038655
523.531908	2693.062522
523.894569	2691.817357
524.257174	2692.076977
524.619722	2690.909950
524.982213	2691.852646
525.344647	2688.953982
525.707025	2689.828622
526.069345	2690.592357
526.431608	2688.659075
526.793815	2691.877851
527.155964	2684.928621
527.518057	2686.723272
527.880093	2685.657068
528.242072	2685.092458
528.603995	2685.447860
528.965860	2683.895184
529.327669	2681.674556
529.689421	2680.056346
530.051117	2683.063394
530.412755	2677.339164
530.774337	2679.496778
531.135862	2678.251612
531.497331	2676.915707
531.858743	2676.298165
532.220098	2677.354287
532.581396	2673.843123
532.942638	2669.885818
533.303824	2673.260870
533.664953	2673.170129
534.026025	2669.648883
534.387040	2672.509738
534.747999	2670.684841
535.108902	2670.301713
535.469748	2667.980262
535.830537	2668.020591
536.191270	2668.249963
536.551947	2661.915753
536.912567	2663.107986
537.273131	2663.342400
537.633638	2658.737306
537.994089	2664.612771
538.354483	2659.813592
538.714821	2662.520692
539.075103	2664.464057
539.435328	2661.895589
539.795497	2661.469611
540.155609	2660.670588
540.515665	2658.102121
540.875665	2657.918118
541.235609	2660.847029
541.595496	2657.920639
541.955328	2658.528098
542.315102	2657.247645
542.674821	2653.481903
543.034483	2656.468787
543.394090	2655.309321
543.753640	2650.968888
544.113134	2655.952068
544.472571	2652.725730
544.831953	2654.633807
545.191278	2649.829587
545.550548	2650.454690
545.909761	2650.444608
546.268918	2651.651964
546.628019	2653.746564
546.987064	2650.671460
547.346053	2647.114926
547.704986	2651.024341
548.063863	2648.181130
548.422684	2649.103661
548.781449	2647.137611
549.140158	2646.202477
549.498811	2649.489309
549.857408	2646.721716
550.215949	2645.955460
550.574434	2647.490492
550.932864	2644.864051
551.291237	2648.841521
551.649555	2646.431849
552.007817	2646.401602
552.366022	2645.771458
552.724173	2645.743732
553.082267	2646.346150
553.440305	2649.915287
553.798288	2646.963691
554.156215	2646.023516
554.514086	2642.456900
554.871902	2639.689306
555.229661	2643.016468
555.587365	2637.738380
555.945014	2644.291880
556.302606	2645.010244
556.660143	2645.219452
557.017625	2646.058804
557.375050	2643.775161
557.732421	2645.509318
558.089735	2644.584267
558.446994	2642.116622
558.804197	2646.678866
559.161345	2645.978146
559.518437	2644.508649
559.875474	2642.905562
560.232455	2644.700213
560.589381	2646.144504
560.946251	2645.824390
561.303065	2646.575522
561.659825	2646.504946
562.016528	2646.141983
562.373177	2642.479585
562.729770	2645.123670
563.086307	2642.711478
563.442789	2644.065028
563.799216	2642.961015
564.155587	2641.577218
564.511904	2642.073772
564.868164	2645.484112
565.224370	2644.170892
565.580520	2646.341109
565.936615	2645.514359
566.292654	2642.572846
566.648638	2642.093937
567.004567	2645.484112
567.360441	2644.314565
567.716260	2644.112919
568.072023	2646.295738
568.427732	2644.652322
568.783385	2644.664925
569.138982	2641.579739
569.494525	2643.250881
569.850013	2644.942188
570.205445	2643.951602
570.560823	2642.366159
570.916145	2642.247692
571.271412	2643.291211
571.626625	2644.307003
571.981782	2640.662249
572.336884	2638.358442
572.691931	2638.421456
573.046923	2639.343987
573.401860	2634.771661
573.756743	2640.334574
574.111570	2640.909265
574.466342	2640.387506
574.821059	2642.845068
575.175722	2638.759213
575.530330	2638.507156
575.884882	2639.391878
576.239380	2636.276445
576.593823	2637.856847
576.948211	2638.819707
577.302544	2635.726959
577.656823	2636.836013
578.011047	2637.327526
578.365216	2637.297279
578.719330	2633.395426
579.073389	2634.154119
579.427394	2633.090436
579.781344	2634.408697
580.135239	2632.039355
580.489080	2633.944911
580.842866	2632.210754
581.196597	2631.237812
581.550273	2632.089767
581.903895	2631.620939
582.257463	2635.545478
582.610975	2630.973151
582.964434	2636.122690
583.317837	2629.576752
583.671186	2633.241670
584.024481	2633.339973
584.377721	2629.677575
584.730906	2628.621453
585.084037	2631.068933
585.437113	2630.431227
585.790135	2630.882410
586.143103	2629.241515
586.496016	2631.016001
586.848874	2630.819396
587.201679	2632.200672
587.554428	2629.334776
587.907124	2633.012298
588.259765	2630.577421
588.612352	2629.536422
588.964884	2628.311422
589.317362	2629.566669
589.669786	2628.034158
590.022155	2626.771349
590.374470	2624.255814
590.726731	2629.238994
591.078937	2621.218518
591.431090	2624.752367
591.783188	2625.674898
592.135232	2624.268417
592.487222	2624.674229
592.839157	2626.201699
593.191038	2625.979888
593.542866	2626.055506
593.894639	2622.879579
594.246358	2623.522326
594.598022	2620.923611
594.949633	2618.839094
595.301190	2622.471245
595.652692	2621.077366
596.004141	2620.805144
596.355535	2619.151645
596.706876	2616.568054
597.058162	2618.987808
597.409395	2617.004114
597.760573	2619.280195
598.111698	2616.043774
598.462768	2618.113168
598.813785	2615.625358
599.164748	2613.523197
599.515657	2616.666357
599.866511	2613.319030
600.217312	2613.997066
600.568060	2610.896756
600.918753	2616.305914
601.269392	2613.566047
601.619978	2616.933538
601.970510	2614.319699
602.320988	2616.530245
602.671412	2617.374639
603.021783	2616.023609
603.372100	2615.459000
603.722363	2612.204935
604.072572	2614.803650
604.422728	2613.961777
604.772830	2613.533279
605.122878	2613.923969
605.472872	2613.092178
605.822813	2613.510594
606.172701	2611.776437
606.522534	2613.329113
606.872314	2613.888681
607.222041	2613.092178
607.571714	2612.827518
607.921333	2609.618823
608.270899	2610.080089
608.620411	2608.431632
608.969870	2615.267436
609.319276	2612.923300
609.668627	2615.264916
610.017926	2615.940430
610.367171	2614.687704
610.716362	2614.725512
611.065500	2613.558485
611.414585	2611.849534
611.763616	2617.316665
612.112594	2613.409771
612.461518	2615.136366
612.810389	2616.089144
613.159207	2615.035543
613.507971	2612.600666
613.856682	2616.126953
614.205340	2617.341871
614.553945	2616.757097
614.902496	2614.322220
615.250994	2615.680811
615.599439	2616.585698
615.947830	2620.172479
616.296169	2617.296501
616.644454	2617.137704
616.992686	2618.093003
617.340864	2620.031327
617.688990	2615.947992
618.037063	2620.492592
618.385082	2618.410596
618.733048	2619.759104
619.080961	2620.769856
619.428821	2619.459156
619.776628	2618.811367
620.124382	2619.020575
620.472083	2620.308590
620.819731	2619.315483
621.167326	2619.670884
621.514868	2617.525873
621.862357	2615.287601
622.209793	2617.339351
622.557176	2614.544031
622.904506	2615.534617
623.251783	2611.983125
623.599007	2611.289966
623.946179	2609.202928
624.293297	2608.789554
624.640363	2606.173195
624.987376	2607.055397
625.334336	2601.079109
625.681243	2604.532299
626.028097	2601.706733
626.374899	2602.218410
626.721647	2601.774788
627.068343	2600.600199
627.414987	2600.630446
627.761577	2601.774788
628.108115	2603.007350
628.454600	2600.867380
628.801032	2600.156578
629.147412	2602.480550
629.493739	2601.124479
629.840014	2597.184817
630.186236	2600.108687
630.532405	2597.898141
630.878521	2597.305805
631.224585	2599.307143
631.570597	2596.244642
631.916556	2596.448809
632.262462	2599.793615
632.608316	2597.973758
632.954117	2594.901175
633.299866	2598.671958
633.645562	2596.481577
633.991206	2594.697008
634.336797	2593.356061
634.682336	2591.059816
635.027823	2589.207192
635.373257	2588.319948
635.718639	2591.140474
636.063968	2588.178796
636.409245	2586.459763
636.754470	2585.685946
637.099642	2584.917170
637.444762	2581.894998
637.789829	2583.195616
638.134845	2583.641758
638.479808	2581.237127
638.824719	2583.596387
639.169577	2583.082190
639.514383	2582.744432
639.859137	2580.654874
640.203839	2579.195460
640.548489	2579.296283
640.893086	2576.531210
641.237632	2576.216138
641.582125	2578.330902
641.926566	2579.671849
642.270955	2573.072979
642.615292	2575.107084
642.959576	2573.256981
643.303809	2572.465520
643.647990	2576.987435
643.992118	2576.407702
644.336195	2577.925089
644.680219	2576.024574
645.024192	2575.885942
645.368112	2579.311407
645.711981	2579.941551
646.055797	2580.695203
646.399562	2579.853331
646.743274	2581.751325
647.086935	2583.167889
647.430544	2585.741398
647.774101	2582.341140
648.117606	2585.088569
648.461059	2586.222828
648.804460	2587.135277
649.147810	2584.561768
649.491108	2581.080852
649.834354	2582.086562
650.177548	2578.577919
650.520690	2578.013309
650.863781	2575.356621
651.206820	2577.451221
651.549807	2577.582291
651.892742	2574.139183
652.235626	2574.487022
652.578458	2572.583987
652.921238	2568.972000
653.263967	2570.771692
653.606644	2570.897721
653.949269	2568.697257
654.291843	2570.297823
654.634365	2568.374623
654.976836	2569.839078
655.319255	2566.401012
655.661622	2567.474777
656.003938	2572.215982
656.346203	2567.752041
656.688416	2570.144068
657.030577	2568.845971
657.372687	2567.472257
657.714746	2567.389078
658.056753	2571.162381
658.398708	2565.377657
658.740612	2566.927812
659.082465	2570.401167
659.424266	2563.908161
659.766016	2562.685681
660.107715	2565.380178
660.449362	2559.807182
660.790958	2564.182904
661.132503	2563.550239
661.473996	2565.788511
661.815438	2566.653069
662.156829	2566.353121
662.498168	2566.272462
662.839456	2566.663152
663.180693	2566.418656
663.521879	2564.321536
663.863013	2566.370765
664.204097	2563.519992
664.545129	2567.426886
664.886110	2568.092319
665.227040	2565.274314
665.567918	2565.420507
665.908746	2565.259190
666.249522	2566.090981
666.590248	2569.425704
666.930922	2570.557443
667.271545	2566.630384
667.612118	2568.442679
667.952639	2569.176167
668.293109	2565.554098
668.633528	2570.368400
668.973896	2566.458985
669.314213	2564.571073
669.654480	2569.163564
669.994695	2565.503686
670.334859	2566.511917
670.674973	2564.646690
671.015035	2566.622822
671.355047	2564.354303
671.695008	2564.727348
672.034918	2564.132492
672.374777	2566.499314
672.714585	2565.997719
673.054342	2566.642987
673.394049	2562.453788
673.733705	2564.238357
674.073310	2567.386557
674.412864	2562.771381
674.752368	2564.621484
675.091820	2567.489901
675.431223	2560.492779
675.770574	2560.505382
676.109875	2560.891030
676.449125	2559.101421
676.788324	2558.788869
677.127473	2557.009342
677.466571	2552.711758
677.805619	2558.067984
678.144616	2557.815927
678.483562	2559.610577
678.822458	2557.069836
679.161303	2558.042778
679.500098	2558.758622
679.838842	2556.744681
680.177535	2557.372305
680.516179	2559.802141
680.854771	2558.342727
681.193314	2560.074363
681.531805	2559.900444
681.870247	2567.651218
682.208638	2565.695250
682.546978	2570.189439
682.885268	2568.286403
683.223508	2565.859087
683.561697	2565.811197
683.899836	2567.862946
684.237925	2563.938408
684.575963	2563.774570
684.913951	2561.876576
685.251889	2563.814900
685.589776	2561.616957
685.927614	2562.627708
686.265401	2563.290620
686.603137	2563.804817
686.940824	2564.666855
687.278460	2566.494273
687.616046	2565.891855
687.953582	2569.642473
688.291068	2567.157185
688.628504	2565.896896
688.965889	2567.689026
689.303224	2569.997875
689.640510	2566.305230
689.977745	2564.324056
690.314930	2567.252967
690.652065	2561.564024
690.989150	2560.742316
691.326185	2559.076215
691.663170	2557.578992
692.000105	2554.680329
692.336990	2552.394166
692.673825	2552.590771
693.010610	2550.355019
693.347345	2546.664894
693.684030	2543.241951
694.020665	2543.519214
694.357251	2539.655170
694.693786	2544.519883
695.030272	2543.988042
695.366707	2540.534851
695.703093	2540.880170
696.039429	2537.842875
696.375716	2538.067206
696.711952	2540.804553
697.048139	2539.113246
697.384276	2538.430169
697.720363	2539.962680
698.056400	2539.176260
698.392388	2535.758358
698.728326	2539.773637
699.064214	2536.403626
699.400053	2535.849099
699.735842	2535.455889
700.071581	2537.129552
700.407270	2536.517052
700.742910	2533.787267
701.078501	2533.605785
701.414042	2533.557894
701.749533	2532.849612
702.084974	2530.056813
702.420366	2533.104190
702.755709	2530.046731
703.091002	2531.143182
703.426246	2528.178983
703.761440	2529.492204
704.096584	2527.700073
704.431679	2528.254600
704.766725	2530.659231
705.101721	2530.271062
705.436668	2530.379447
705.771565	2526.898530
706.106413	2528.015146
706.441212	2527.019518
706.775961	2528.345341
707.110661	2530.505476
707.445311	2531.808614
707.779913	2529.199817
708.114465	2531.400280
708.448967	2529.761905
708.783421	2531.818696
709.117825	2533.547812
709.452180	2533.668800
709.786485	2534.858512
710.120742	2536.421270
710.454949	2533.268028
710.789107	2535.871784
711.123216	2537.600900
711.457275	2540.670962
711.791286	2543.312527
712.125247	2546.435522
712.459159	2542.238761
712.793023	2545.875954
713.126837	2545.858310
713.460602	2545.129863
713.794318	2543.022661
714.127985	2543.332692
714.461602	2539.153575
714.795171	2541.245654
715.128691	2536.121321
715.462162	2536.302803
715.795584	2534.979500
716.128957	2530.374406
716.462281	2530.109745
716.795556	2532.771474
717.128782	2528.153777
717.461960	2524.972809
717.795088	2528.352903
718.128167	2528.904909
718.461198	2527.387522
718.794180	2527.455578
719.127113	2523.793179
719.459997	2524.612367
719.792833	2519.654392
720.125619	2522.011131
720.458357	2521.900226
720.791046	2519.893847
721.123686	2519.271264
721.456278	2522.064063
721.788821	2520.982736
722.121315	2518.507529
722.453761	2520.201357
722.786158	2518.220184
723.118506	2522.003570
723.450805	2519.805627
723.783056	2519.344361
724.115259	2520.309742
724.447412	2518.099196
724.779518	2519.724968
725.111574	2519.591378
725.443582	2519.891326
725.775542	2519.770338
726.107453	2523.722603
726.439315	2521.464166
726.771129	2523.155473
727.102895	2521.370905
727.434612	2522.903416
727.766281	2519.578775
728.097901	2526.790145
728.429473	2528.110927
728.760996	2525.902902
729.092471	2523.546163
729.423897	2527.344672
729.755276	2527.143026
730.086606	2529.035979
730.417887	2530.087060
730.749120	2529.845084
731.080305	2532.227030
731.411442	2532.519417
731.742530	2534.372041
732.073570	2533.837678
732.404562	2536.080992
732.735506	2534.563604
733.066401	2535.841537
733.397249	2534.735004
733.728048	2533.562935
734.058798	2528.221833
734.389501	2527.561442
734.720156	2524.526667
735.050762	2523.210926
735.381320	2523.026924
735.711831	2520.904598
736.042293	2519.782941
736.372707	2520.806296
736.703073	2519.614063
737.033391	2518.121881
737.363661	2520.103055
737.693883	2520.400483
738.024056	2518.031140
738.354182	2519.901408
738.684260	2521.491893
739.014290	2521.872500
739.344272	2522.777387
739.674207	2522.605987
740.004093	2527.216123
740.333931	2521.239835
740.663722	2523.520957
740.993464	2526.790145
741.323159	2524.672861
741.652806	2521.348220
741.982405	2525.665968
742.311956	2523.435257
742.641460	2525.055988
742.970915	2523.795700
743.300323	2516.533918
743.629683	2516.561644
743.958996	2518.152128
744.288260	2512.034688
744.617477	2515.886129
744.946647	2518.474762
745.275768	2516.423012
745.604842	2514.552744
745.933869	2513.859586
746.262847	2513.126098
746.591778	2512.538803
746.920662	2513.841942
747.249498	2517.774042
747.578286	2513.993176
747.907027	2514.948475
748.235720	2514.852693
748.564365	2516.327230
748.892963	2516.791017
749.221514	2515.122395
749.550017	2516.203722
749.878473	2513.814215
750.206881	2513.650378
750.535242	2515.127436
750.863555	2512.753052
751.191821	2515.155162
751.520039	2510.335819
751.848210	2511.538134
752.176334	2512.243896
752.504411	2514.126767
752.832440	2512.201046
753.160421	2512.095182
753.488356	2511.981756
753.816243	2514.646006
754.144082	2508.515963
754.471875	2510.902949
754.799620	2507.381703
755.127318	2512.211128
755.454969	2514.318331
755.782572	2512.732888
756.110129	2510.628206
756.437638	2512.427898
756.765100	2511.434791
757.092515	2511.646519
757.419882	2509.163751
757.747203	2509.352794
758.074477	2512.422857
758.401703	2513.138701
758.728882	2511.454955
759.056014	2514.109123
759.383099	2512.266581
759.710138	2512.188443
760.037129	2506.050838
760.364073	2513.078207
760.690970	2509.539317
761.017820	2514.865296
761.344623	2514.703979
761.671379	2515.969308
761.998088	2518.575585
762.324751	2522.991636
762.651366	2533.983872
762.977935	2550.518856
763.304456	2559.908005
763.630931	2565.816238
763.957359	2562.279868
764.283740	2557.508416
764.610074	2550.428116
764.936362	2544.164482
765.262602	2534.112421
765.588796	2529.250228
765.914943	2523.551204
766.241044	2520.392921
766.567097	2515.374452
766.893104	2512.437980
767.219064	2511.404544
767.544978	2509.511590
767.870845	2507.885818
768.196665	2505.143431
768.522438	2504.573780
768.848165	2503.046311
769.173846	2504.193173
769.499479	2502.580004
769.825066	2501.115549
770.150607	2502.602689
770.476101	2500.346773
770.801548	2498.892400
771.126949	2499.091525
771.452303	2501.521362
771.777611	2502.204438
772.102872	2500.611433
772.428087	2497.710249
772.753256	2497.659838
773.078378	2497.095228
773.403453	2493.700011
773.728482	2496.013901
774.053465	2494.531802
774.378401	2496.575990
774.703291	2494.882162
775.028135	2495.361072
775.352932	2495.114055
775.677683	2495.429127
776.002388	2491.408807
776.327046	2489.853611
776.651658	2490.297233
776.976224	2489.094917
777.300743	2493.105155
777.625216	2489.639362
777.949643	2491.328148
778.274024	2490.947541
778.598359	2492.391832
778.922647	2493.838643
779.246889	2493.619353
779.571086	2493.148005
779.895236	2493.039620
780.219339	2491.794455
780.543397	2494.597337
780.867409	2490.529126
781.191374	2495.908037
781.515294	2491.693632
781.839167	2494.743530
782.162995	2494.854436
782.486776	2490.491317
782.810511	2492.061636
783.134201	2493.148005
783.457844	2489.596512
783.781441	2492.885865
784.104993	2490.955103
784.428498	2490.380412
784.751958	2489.697335
785.075372	2493.521050
785.398739	2489.856132
785.722061	2492.301091
786.045337	2490.657675
786.368568	2493.788232
786.691752	2491.675988
787.014891	2492.515340
787.337983	2492.094404
787.661030	2494.178921
787.984031	2498.521875
788.306987	2499.187307
788.629897	2500.124962
788.952760	2501.647390
789.275579	2499.429283
789.598351	2499.693943
789.921078	2497.886690
790.243759	2497.909375
790.566395	2494.436020
790.888984	2494.899806
791.211529	2495.330825
791.534027	2490.645072
791.856480	2492.207830
792.178888	2489.215905
792.501249	2488.298415
792.823566	2487.867396
793.145836	2484.462097
793.468062	2491.847387
793.790241	2491.000473
794.112375	2493.447954
794.434464	2490.380412
794.756507	2492.046513
795.078505	2489.520895
795.400457	2493.924343
795.722364	2495.887872
796.044226	2494.257059
796.366042	2497.352327
796.687812	2496.306288
797.009538	2498.426093
797.331218	2497.702688
797.652852	2497.725373
797.974442	2494.975423
798.295986	2493.886534
798.617484	2495.149343
798.938938	2494.821668
799.260346	2496.979282
799.581709	2491.416369
799.903026	2492.880824
800.224299	2493.178252
800.545526	2491.963334
800.866708	2492.056595
801.187845	2492.822851
801.508936	2489.977119
801.829983	2491.663385
802.150984	2489.125164
802.471940	2491.544918
802.792851	2489.362098
803.113717	2488.633652
803.434538	2492.260762
803.755314	2488.928559
804.076045	2487.965699
804.396731	2489.314207
804.717372	2489.273878
805.037967	2488.442088
805.358518	2488.434526
805.679024	2489.634321
805.999485	2490.135916
806.319901	2488.976450
806.640272	2489.193220
806.960598	2487.910246
807.280879	2490.118272
807.601115	2492.112048
807.921306	2489.934269
808.241453	2487.690956
808.561554	2487.794300
808.881611	2490.188848
809.201623	2487.897643
809.521590	2490.279588
809.841513	2491.088694
810.161390	2492.626246
810.481223	2489.467963
810.801011	2490.314877
811.120755	2487.166676
811.440453	2489.062150
811.760107	2490.962665
812.079716	2490.246821
812.399281	2487.852273
812.718801	2489.384784
813.038276	2488.772283
813.357707	2487.655668
813.677093	2486.440750
813.996434	2488.356388
814.315731	2487.680874
814.634983	2487.275061
814.954191	2487.131388
815.273354	2492.081801
815.592473	2490.836636
815.911547	2490.589619
816.230577	2492.154898
816.549562	2491.081132
816.868502	2492.948879
817.187399	2492.220433
817.506250	2493.500886
817.825058	2494.304950
818.143821	2495.567759
818.462539	2497.445589
818.781213	2497.183449
819.099843	2500.271155
819.418429	2506.063441
819.736970	2509.970335
820.055466	2514.474606
820.373919	2525.930628
820.692327	2534.762730
821.010691	2555.071018
821.329011	2588.718200
821.647286	2656.211688
821.965517	2739.191601
822.283704	2801.147382
822.601847	2831.129644
822.919945	2809.409833
823.237999	2774.517486
823.556010	2738.684965
823.873976	2700.289017
824.191897	2661.966165
824.509775	2634.809469
824.827609	2613.636623
825.145398	2592.226843
825.463144	2583.356932
825.780845	2583.929103
826.098502	2588.163673
826.416116	2603.617330
826.733685	2623.323200
827.051210	2631.439458
827.368692	2629.632204
827.686129	2610.344750
828.003522	2594.651638
828.320872	2571.553071
828.638177	2556.553118
828.955439	2542.402599
829.272656	2532.927750
829.589830	2525.083715
829.906960	2517.864782
830.224046	2512.064935
830.541088	2505.922289
830.858086	2504.898935
831.175041	2501.901969
831.491952	2500.434993
831.808819	2501.365086
832.125642	2502.731238
832.442421	2506.338184
832.759157	2512.490912
833.075849	2527.049765
833.392497	2542.384955
833.709101	2557.556307
834.025662	2560.560835
834.342179	2557.142932
834.658653	2544.792106
834.975083	2531.942204
835.291469	2527.251411
835.607811	2517.161541
835.924110	2512.937054
836.240366	2505.004799
836.556578	2501.846516
836.872746	2499.819972
837.188871	2494.627584
837.504952	2490.703045
837.820990	2490.304794
838.136984	2488.827736
838.452935	2489.934269
838.768842	2485.596357
839.084706	2490.549290
839.400526	2496.102121
839.716303	2503.275683
840.032037	2507.792557
840.347727	2507.054028
840.663373	2505.450941
840.978977	2495.776967
841.294537	2498.852071
841.610054	2494.670433
841.925527	2489.311687
842.240957	2488.613487
842.556344	2485.445122
842.871687	2484.164669
843.186987	2485.208188
843.502244	2483.166520
843.817458	2480.751808
844.132629	2479.983032
844.447756	2477.502784
844.762840	2477.613689
845.077881	2475.929944
845.392879	2477.412043
845.707833	2478.453042
846.022745	2476.514718
846.337613	2477.457414
846.652438	2478.942033
846.967221	2477.386838
847.281960	2472.890128
847.596656	2475.929944
847.911309	2474.836014
848.225919	2475.982876
848.540485	2476.504636
848.855009	2476.197125
849.169490	2475.821559
849.483928	2475.544296
849.798323	2473.971456
850.112675	2477.069245
850.426984	2473.991620
850.741251	2475.851806
851.055474	2472.869964
851.369654	2476.499594
851.683792	2475.118318
851.997887	2474.304172
852.311938	2471.576908
852.625947	2473.122021
852.939914	2472.242340
853.253837	2475.791312
853.567718	2474.142855
853.881555	2471.249233
854.195350	2473.800057
854.509103	2473.671507
854.822812	2476.013123
855.136479	2475.309882
855.450103	2474.788123
855.763685	2472.575056
856.077224	2470.765282
856.390720	2473.026239
856.704173	2473.031281
857.017584	2476.600417
857.330953	2474.974645
857.644278	2477.475058
857.957561	2477.863227
858.270802	2477.220479
858.584000	2476.423977
858.897155	2474.699903
859.210268	2475.566981
859.523339	2474.425160
859.836367	2475.640078
860.149352	2476.224852
860.462295	2475.244347
860.775195	2475.574543
861.088054	2474.631847
861.400869	2475.088071
861.713642	2475.771148
862.026373	2475.219141
862.339062	2476.892804
862.651708	2474.294090
862.964312	2477.205356
863.276873	2474.699902
863.589392	2476.791981
863.901869	2477.321303
864.214303	2474.836014
864.526696	2476.812146
864.839045	2475.793833
865.151353	2476.403813
865.463619	2478.763072
865.775842	2478.637044
866.088023	2478.271560
866.400162	2477.084368
866.712258	2476.550006
867.024313	2478.858854
867.336325	2475.738380
867.648296	2477.525469
867.960224	2475.811477
868.272110	2478.684935
868.583954	2479.985552
868.895755	2477.648977
869.207515	2475.307362
869.519233	2478.528659
869.830909	2477.651498
870.142542	2478.135449
870.454134	2479.836838
870.765684	2477.187712
871.077191	2479.158803
871.388657	2476.567650
871.700081	2473.810139
872.011463	2479.839359
872.322803	2475.801395
872.634101	2480.509832
872.945357	2480.991262
873.256571	2483.302632
873.567744	2481.684421
873.878874	2479.574698
874.189963	2481.190388
874.501010	2481.076962
874.812015	2481.071921
875.122979	2486.370174
875.433900	2481.800368
875.744780	2481.208032
876.055618	2483.131232
876.366415	2485.354381
876.677169	2479.579739
876.987882	2486.201295
877.298554	2485.296408
877.609183	2485.722385
877.919771	2484.981336
878.230317	2487.499392
878.540822	2486.372694
878.851285	2491.812099
879.161707	2495.250166
879.472087	2502.091012
879.782425	2508.374810
880.092722	2525.829805
880.402977	2548.706562
880.713191	2581.998342
881.023363	2616.777262
881.333494	2642.393885
881.643583	2652.967705
881.953631	2656.211688
882.263637	2647.127529
882.573602	2636.644449
882.883526	2623.746657
883.193408	2612.557816
883.503248	2596.481577
883.813048	2584.065215
884.122806	2574.897876
884.432522	2560.228119
884.742197	2550.833928
885.051831	2537.419418
885.361424	2530.739889
885.670975	2522.154804
885.980485	2517.297653
886.289954	2513.544513
886.599382	2505.158554
886.908768	2501.798625
887.218113	2494.786380
887.527417	2495.519868
887.836680	2488.888230
888.145901	2493.105155
888.455082	2489.215905
888.764221	2487.363281
889.073319	2487.007880
889.382376	2486.609628
889.691392	2485.682056
890.000366	2487.927890
890.309300	2485.117447
890.618193	2484.504947
890.927044	2485.674494
891.235855	2485.356902
891.544625	2485.324134
891.853353	2486.360091
892.162041	2486.793631
892.470687	2489.336893
892.779293	2489.914105
893.087858	2494.630104
893.396381	2497.193531
893.704864	2503.046311
894.013306	2514.779596
894.321707	2521.207067
894.630068	2530.487832
894.938387	2532.169056
895.246665	2533.041176
895.554903	2531.110414
895.863100	2525.630680
896.171256	2517.436284
896.479371	2515.538290
896.787446	2513.748680
897.095480	2509.904800
897.403473	2501.987668
897.711425	2499.399036
898.019336	2498.363079
898.327207	2494.002481
898.635038	2493.707573
898.942827	2490.274547
899.250576	2488.807572
899.558284	2489.321769
899.865952	2489.031903
900.173579	2487.398569
900.481165	2487.048209
900.788711	2482.032261
901.096216	2481.389514
901.403681	2485.044350
901.711105	2484.217601
902.018489	2481.863382
902.325832	2482.170893
902.633135	2478.836169
902.940397	2485.281284
903.247619	2484.154587
903.554800	2503.331136
903.861941	2519.805627
904.169041	2536.249870
904.476101	2545.472661
904.783121	2546.183464
905.090100	2536.340611
905.397039	2530.407173
905.703938	2526.885927
906.010796	2521.592716
906.317614	2512.828670
906.624391	2506.323061
906.931129	2502.406084
907.237826	2500.472802
907.544483	2497.843840
907.851099	2492.265803
908.157675	2490.433344
908.464211	2486.566779
908.770707	2483.025368
909.077163	2478.841210
909.383578	2480.648464
909.689954	2479.168885
909.996289	2477.840541
910.302584	2475.544296
910.608839	2473.742083
910.915054	2477.091930
911.221229	2473.782413
911.527363	2476.580253
911.833458	2474.919193
912.139513	2479.070583
912.445527	2476.809625
912.751502	2478.001858
913.057436	2477.722074
913.363331	2479.436067
913.669186	2479.562095
913.975000	2483.292549
914.280775	2487.819505
914.586510	2492.318735
914.892205	2501.811228
915.197859	2509.642660
915.503475	2520.828981
915.809050	2532.537061
916.114585	2538.190715
916.420081	2544.713968
916.725536	2544.887887
917.030952	2539.393030
917.336328	2537.094264
917.641665	2531.609488
917.946961	2526.543129
918.252218	2521.171779
918.557435	2514.703979
918.862612	2514.991325
919.167750	2512.891684
919.472848	2507.059069
919.777906	2504.457834
920.082925	2501.481032
920.387904	2496.492811
920.692843	2493.213540
920.997743	2489.266317
921.302603	2486.173569
921.607423	2483.647951
921.912204	2484.124340
922.216946	2482.997642
922.521647	2481.996973
922.826310	2482.803557
923.130932	2480.434215
923.435516	2478.417753
923.740059	2477.916159
924.044564	2475.204018
924.349028	2474.692341
924.653454	2475.912300
924.957840	2474.024388
925.262186	2472.113791
925.566493	2476.182002
925.870761	2470.702268
926.174989	2472.401136
926.479178	2471.488687
926.783328	2473.011116
927.087438	2469.389047
927.391509	2472.975828
927.695541	2469.404170
927.999533	2472.580097
928.303486	2468.166567
928.607400	2471.198821
928.911275	2468.925261
929.215110	2469.290744
929.518906	2467.937195
929.822663	2469.804942
930.126381	2469.605817
930.430060	2470.707309
930.733699	2468.211938
931.037299	2470.311578
931.340861	2471.574387
931.644383	2469.883080
931.947866	2470.072123
932.251309	2468.690847
932.554714	2468.728656
932.858080	2467.675055
933.161407	2465.114148
933.464694	2469.096660
933.767943	2465.887966
934.071153	2469.822586
934.374323	2469.205045
934.677455	2469.550364
934.980548	2469.716722
935.283602	2469.762092
935.586617	2469.872998
935.889593	2469.913327
936.192530	2466.606330
936.495428	2467.118007
936.798287	2469.618419
937.101108	2468.388378
937.403890	2470.634212
937.706632	2470.412401
938.009336	2470.024232
938.312002	2474.079841
938.614628	2472.164202
938.917216	2472.887608
939.219765	2475.509008
939.522275	2476.907928
939.824747	2471.700416
940.127179	2475.322485
940.429573	2475.370376
940.731929	2478.886581
941.034246	2473.167392
941.336524	2474.508339
941.638763	2474.803246
941.940964	2470.515745
942.243126	2472.580097
942.545250	2473.774851
942.847335	2470.034315
943.149381	2474.241158
943.451389	2472.320478
943.753359	2471.513893
944.055290	2473.994141
944.357182	2470.939202
944.659036	2471.236630
944.960851	2473.474902
945.262628	2469.532720
945.564367	2471.183698
945.866067	2471.362659
946.167729	2470.639253
946.469352	2469.623461
946.770937	2467.871660
947.072484	2470.977010
947.373992	2469.084057
947.675462	2471.503811
947.976893	2466.167750
948.278286	2465.023408
948.579641	2467.201186
948.880958	2465.761937
949.182236	2470.765282
949.483476	2466.926443
949.784678	2471.826445
950.085841	2469.890642
950.386967	2469.880559
950.688054	2471.793677
950.989103	2469.767133
951.290114	2473.361476
951.591087	2470.971969
951.892021	2470.336784
952.192917	2469.265539
952.493776	2467.791001
952.794596	2471.387864
953.095378	2470.515745
953.396122	2471.352576
953.696828	2470.614047
953.997496	2472.353245
954.298126	2471.806280
954.598718	2472.005406
954.899272	2470.883749
955.199788	2473.868112
955.500266	2471.256794
955.800706	2469.288224
956.101108	2470.092288
956.401472	2466.253449
956.701798	2469.794860
957.002087	2468.264870
957.302337	2465.449385
957.602550	2469.704119
957.902724	2467.838892
958.202861	2466.908799
958.502960	2466.026597
958.803022	2464.859570
959.103045	2466.132462
959.403031	2463.669858
959.702979	2465.426700
960.002889	2464.647842
960.302762	2462.122224
960.602596	2466.129941
960.902393	2464.393263
961.202153	2465.028449
961.501875	2463.513582
961.801559	2465.774540
962.101205	2465.943418
962.400814	2466.981896
962.700385	2464.292440
962.999918	2460.912347
963.299414	2460.574589
963.598873	2461.532409
963.898293	2459.389918
964.197677	2464.176494
964.497022	2461.890331
964.796331	2464.451237
965.095601	2466.674386
965.394835	2461.771863
965.694030	2464.499128
965.993189	2463.780763
966.292309	2465.343521
966.591393	2462.570886
966.890439	2463.445527
967.189447	2464.052986
967.488419	2462.424693
967.787353	2463.004426
968.086249	2461.676082
968.385108	2464.030300
968.683930	2463.715228
968.982714	2464.292440
969.281462	2464.347893
969.580172	2463.374950
969.878844	2463.964765
970.177480	2464.602471
970.476078	2463.621967
970.774639	2466.860908
971.073162	2463.889148
971.371649	2462.427213
971.670098	2464.476443
971.968510	2463.972327
972.266885	2463.594241
972.565223	2465.220013
972.863524	2463.256483
973.161788	2462.651545
973.460014	2466.896196
973.758204	2464.841926
974.056356	2465.537605
974.354471	2465.020887
974.652550	2466.654221
974.950591	2463.443006
975.248595	2467.302009
975.546563	2465.315795
975.844493	2465.547688
976.142386	2464.163891
976.440243	2463.415280
976.738062	2463.448047
977.035845	2467.412915
977.333590	2463.130454
977.631299	2465.822431
977.928971	2462.855712
978.226606	2459.523509
978.524204	2459.798252
978.821765	2458.684157
979.119290	2463.841257
979.416777	2462.860753
979.714228	2464.821762
980.011642	2464.970476
980.309020	2461.955866
980.606360	2464.930146
980.903664	2464.912502
981.200931	2464.511731
981.498162	2465.036011
981.795356	2465.842595
982.092513	2467.354941
982.389633	2470.062041
982.686717	2472.133955
982.983764	2473.018678
983.280775	2471.861733
983.577749	2472.789305
983.874686	2473.066569
984.171587	2473.225365
984.468451	2470.941722
984.765279	2473.061528
985.062070	2468.713532
985.358824	2470.919037
985.655543	2467.365024
985.952224	2468.837041
986.248869	2468.186732
986.545478	2467.402832
986.842050	2465.111628
987.138586	2464.103397
987.435086	2464.305043
987.731549	2463.274127
988.027975	2462.654065
988.324366	2462.258335
988.620719	2464.090794
988.917037	2463.606843
989.213318	2465.013325
989.509563	2461.345886
989.805772	2462.003757
990.101944	2462.825465
990.398080	2461.633232
990.694180	2462.152471
990.990244	2462.167594
991.286271	2461.797069
991.582262	2460.264558
991.878217	2462.601133
992.174136	2463.475773
992.470019	2462.172635
992.765865	2459.684826
993.061676	2458.911009
993.357450	2459.770525
993.653188	2457.713735
993.948890	2463.553911
994.244556	2462.465022
994.540186	2463.241360
994.835780	2465.189766
995.131337	2465.088943
995.426859	2464.761268
995.722345	2464.405866
996.017795	2463.790846
996.313208	2467.700260
996.608586	2465.199848
996.903928	2467.922071
997.199234	2468.201855
997.494504	2465.872842
997.789738	2466.013994
998.084936	2467.208748
998.380099	2467.977524
998.675225	2465.053655
998.970316	2466.750003
999.265371	2464.859570
999.560390	2464.052986
999.855373	2463.256483
1000.150320	2464.085753
1000.445232	2463.566514
1000.740108	2462.974179
1001.034948	2463.029631
1001.329752	2460.312449
1001.624521	2461.567697
1001.919254	2460.473766
1002.213951	2460.877059
1002.508613	2461.910495
1002.803239	2459.463015
1003.097829	2460.448561
1003.392384	2460.599795
1003.686903	2461.502162
1003.981386	2459.702470
1004.275834	2462.379322
1004.570246	2460.965279
1004.864623	2461.345886
1005.158964	2459.964610
1005.453270	2462.396967
1005.747540	2461.315639
1006.041775	2458.275823
1006.335974	2458.933694
1006.630138	2460.428396
1006.924266	2462.399487
1007.218359	2461.620629
1007.512416	2459.067284
1007.806438	2459.793211
1008.100425	2461.267748
1008.394376	2456.735751
1008.688292	2465.265383
1008.982172	2461.686164
1009.276017	2461.618108
1009.569827	2461.872687
1009.863602	2461.892851
1010.157341	2459.808334
1010.451045	2461.076184
1010.744714	2460.632563
1011.038347	2463.090125
1011.331945	2458.122068
1011.625508	2462.417131
1011.919036	2460.814044
1012.212528	2459.710032
1012.505986	2460.627522
1012.799408	2462.281020
1013.092795	2461.479477
1013.386147	2462.608695
1013.679464	2459.946966
1013.972745	2462.311267
1014.265992	2461.187090
1014.559204	2459.170628
1014.852380	2461.915536
1015.145521	2461.653396
1015.438628	2461.897892
1015.731699	2458.815227
1016.024736	2460.335135
1016.317737	2458.742130
1016.610703	2460.279682
1016.903635	2461.529888
1017.196531	2459.694908
1017.489393	2459.891513
1017.782219	2459.271451
1018.075011	2460.955197
1018.367768	2459.047120
1018.660490	2460.975361
1018.953177	2460.975361
1019.245829	2460.975361
