Dividing Wavelength (nm)	Counts (n)	Blue Motor Position (mm): 0.000000	Red Motor Position (mm): 46.000000	
326.493990	2054.744061
326.888308	2054.744061
327.282561	2054.744061
327.676750	2030.576769
328.070874	2032.336132
328.464933	2036.792512
328.858929	2043.565302
329.252859	2053.219112
329.646726	2066.933571
330.040528	2085.283371
330.434265	2102.204004
330.827938	2121.975409
331.221547	2143.861578
331.615091	2161.450164
332.008571	2183.598474
332.401986	2204.617565
332.795338	2225.553477
333.188625	2241.985118
333.581847	2262.023704
333.975006	2279.082969
334.368100	2297.095011
334.761129	2316.435398
335.154095	2330.263283
335.546996	2379.485109
335.939833	2482.150728
336.332606	2489.135247
336.725315	2503.497494
337.117960	2514.956037
337.510540	2523.231091
337.903056	2532.844571
338.295508	2538.644418
338.687896	2547.302600
339.080220	2549.402241
339.472480	2556.104455
339.864676	2560.447409
340.256807	2564.497976
340.648875	2567.313460
341.040879	2563.063768
341.432818	2567.530230
341.824694	2569.818914
342.216506	2566.327915
342.608253	2567.759602
342.999937	2563.577965
343.391557	2566.706001
343.783113	2567.830179
344.174605	2564.986968
344.566033	2563.293140
344.957397	2558.219219
345.348697	2558.748540
345.739934	2559.003118
346.131106	2558.257028
346.522215	2553.730071
346.913260	2552.915925
347.304241	2549.387117
347.695159	2550.549103
348.086012	2546.420398
348.476802	2546.299411
348.867528	2542.266487
349.258191	2540.653318
349.648789	2539.012423
350.039324	2537.371527
350.429796	2541.986703
350.820203	2541.172557
351.210548	2540.476878
351.600828	2536.118800
351.991045	2540.045859
352.381198	2538.820859
352.771288	2539.065355
353.161314	2536.138965
353.551276	2536.534696
353.941175	2535.576876
354.331010	2533.930940
354.720782	2536.625436
355.110490	2541.863195
355.500135	2538.052083
355.889717	2539.876981
356.279235	2538.760365
356.668689	2538.460416
357.058080	2538.924203
357.447408	2540.423946
357.836672	2539.985365
358.225873	2539.261960
358.615010	2543.882177
359.004084	2541.817825
359.393095	2539.035108
359.782043	2543.206663
360.170927	2544.719009
360.559748	2544.343443
360.948505	2544.716488
361.337199	2545.991900
361.725830	2545.051725
362.114398	2548.487271
362.502903	2546.382590
362.891344	2547.456355
363.279722	2546.553989
363.668037	2549.256047
364.056289	2548.063814
364.444478	2549.235883
364.832603	2550.307128
365.220665	2550.707900
365.608665	2550.647406
365.996601	2550.914587
366.384474	2550.579350
366.772284	2551.953065
367.160031	2552.492468
367.547715	2554.808878
367.935336	2553.430123
368.322893	2551.252344
368.710388	2549.571119
369.097820	2554.075390
369.485189	2551.285112
369.872495	2558.115875
370.259738	2559.174517
370.646918	2557.785680
371.034035	2558.710731
371.421090	2558.683005
371.808081	2560.964127
372.195010	2560.417162
372.581875	2563.716597
372.968678	2562.272307
373.355418	2566.005281
373.742096	2569.302196
374.128710	2569.556774
374.515262	2574.040880
374.901751	2579.490368
375.288177	2581.080852
375.674540	2581.958012
376.060841	2590.502768
376.447079	2590.003694
376.833254	2592.993098
377.219367	2601.719335
377.605417	2608.610593
377.991404	2609.742332
378.377329	2620.689197
378.763191	2626.307563
379.148991	2636.904069
379.534727	2641.781385
379.920402	2654.013745
380.306013	2659.291833
380.691563	2671.375479
381.077049	2682.324865
381.462474	2689.069929
381.847835	2705.246991
382.233134	2719.717623
382.618371	2727.304560
383.003545	2745.256109
383.388657	2758.327821
383.773706	2782.888322
384.158693	2792.711011
384.543618	2810.516366
384.928480	2826.786690
385.313280	2847.122705
385.698017	2864.555015
386.082692	2890.839591
386.467305	2906.893145
386.851856	2930.337031
387.236344	2956.856021
387.620770	2975.309165
388.005133	2994.107627
388.389435	3028.538708
388.773674	3041.756613
389.157851	3075.882704
389.541965	3103.016715
389.926018	3113.890484
390.310008	3148.835762
390.693936	3174.674196
391.077802	3201.856098
391.461606	3236.609812
391.845348	3251.912235
392.229027	3283.328706
392.612645	3322.637103
392.996200	3351.790096
393.379694	3387.302504
393.763125	3432.695574
394.146494	3457.523256
394.529801	3497.804596
394.913047	3542.290258
395.296230	3548.871485
395.679351	3570.994588
396.062410	3622.414357
396.445408	3598.723455
396.828343	3643.748521
397.211217	3677.763706
397.594028	3650.866630
397.976778	3697.983774
398.359466	3728.598702
398.742092	3740.226123
399.124656	3757.517281
399.507158	3816.927279
399.889598	3822.654029
400.271977	3890.986870
400.654294	3875.011453
401.036549	3938.587965
401.418742	3939.513017
401.800874	4007.913913
402.182944	4034.662275
402.564952	4120.578660
402.946898	4111.519707
403.328783	4113.551292
403.710606	4161.258251
404.092367	4235.917739
404.474067	4294.397645
404.855705	4281.577990
405.237282	4252.838372
405.618797	4352.645657
406.000250	4429.104837
406.381642	4515.681613
406.762972	4512.125079
407.144240	4478.273731
407.525447	4547.733269
407.906593	4564.772369
408.287677	4649.930061
408.668700	4672.040562
409.049661	4711.714442
409.430560	4748.981172
409.811399	4730.553234
410.192176	4782.656080
410.572891	4865.605746
410.953545	4974.008197
411.334138	4870.546077
411.714669	4977.796625
412.095139	4892.023912
412.475547	5004.537425
412.855894	5012.242829
413.236180	5106.323363
413.616405	5039.205440
413.996568	5141.480369
414.376670	5149.556298
414.756711	5145.326770
415.136691	5211.174321
415.516609	5300.614473
415.896466	5338.314742
416.276262	5412.245784
416.655997	5523.340212
417.035670	5624.301920
417.415283	5764.133446
417.794834	5833.535011
418.174324	5792.663856
418.553753	5802.305063
418.933121	5962.911183
419.312428	5981.245859
419.691674	5905.023613
420.070859	6132.034333
420.449983	6008.319376
420.829045	6206.756836
421.208047	6129.745649
421.586988	6289.736748
421.965867	6365.379262
422.344686	6448.908661
422.723444	6616.912674
423.102141	6233.805147
423.480777	6628.714015
423.859352	6434.291835
424.237866	6814.044475
424.616319	6800.889584
424.994712	6967.411498
425.373044	6878.883796
425.751314	7204.121398
426.129524	6919.414673
426.507673	7187.961979
426.885762	7229.206179
427.263789	7270.054649
427.641756	7359.925819
428.019662	7443.682070
428.397508	7485.132957
428.775292	7462.840975
429.153016	7637.595093
429.530679	7565.335194
429.908282	7619.371322
430.285824	7564.309319
430.663305	7850.213319
431.040726	7731.738642
431.418086	7733.992037
431.795385	7858.390070
432.172624	8057.029176
432.549802	7946.080941
432.926920	8080.233607
433.303977	8021.461315
433.680974	8063.638128
434.057910	8263.182121
434.434786	8321.967016
434.811601	8275.916076
435.188355	8617.066080
435.565050	8503.526693
435.941683	8510.319647
436.318257	8858.572637
436.694770	8800.738000
437.071222	9035.381026
437.447614	8807.157909
437.823946	8776.343856
438.200218	8930.174666
438.576429	8803.520717
438.952580	8975.383734
439.328670	8981.133170
439.704700	9060.347341
440.080670	8949.988921
440.456580	9225.125016
440.832429	9203.006953
441.208218	8934.499976
441.583947	9056.077483
441.959616	9171.550153
442.335224	9210.344353
442.710773	9294.604719
443.086261	9470.331780
443.461689	9190.608235
443.837057	9356.610911
444.212365	9580.763296
444.587612	9561.581706
444.962800	9454.956261
445.337927	9581.585004
445.712995	9124.397721
446.088002	9803.995671
446.462949	9865.278458
446.837837	9848.123411
447.212664	9877.692299
447.587431	10708.406397
447.962139	11726.878270
448.336786	12691.193028
448.711374	12466.712968
449.085901	11235.794268
449.460369	11165.770121
449.834776	10934.285378
450.209124	11853.532220
450.583412	11670.626555
450.957640	11997.805002
451.331808	11586.953484
451.705917	11004.077632
452.079965	10881.315453
452.453954	11079.790722
452.827883	11032.600480
453.201752	11005.572334
453.575562	11005.897488
453.949311	11354.674758
454.323001	11422.810994
454.696632	11338.384270
455.070202	11935.594642
455.443713	11996.620330
455.817164	12168.856393
456.190556	12487.837923
456.563888	12356.752799
456.937160	12627.291362
457.310373	12087.850092
457.683526	12118.132303
458.056619	12129.427008
458.429653	12200.565250
458.802628	12342.519102
459.175542	12398.095302
459.548398	12960.062968
459.921194	13524.798228
460.293930	13801.388695
460.666607	14682.342933
461.039224	15488.511653
461.411782	15854.562437
461.784280	15512.109294
462.156719	15469.541791
462.529099	15389.364760
462.901419	14729.003853
463.273680	14331.100539
463.645882	14545.982242
464.018024	14422.688222
464.390106	14803.872549
464.762130	15863.056781
465.134094	17400.790186
465.505999	19707.591939
465.877845	22003.277948
466.249631	23297.218632
466.621358	22854.207073
466.993026	22052.945916
467.364634	21308.548974
467.736184	20489.873151
468.107674	19865.722852
468.479105	19719.993177
468.850477	19448.327917
469.221790	19008.101596
469.593043	18337.376076
469.964238	17944.866797
470.335373	17984.457498
470.706449	18717.905054
471.077467	19566.903417
471.448425	22069.876631
471.819324	23975.105110
472.190164	23895.815322
472.560945	22142.539823
472.931667	20542.396933
473.302330	20198.285251
473.672934	19624.266707
474.043479	20062.632842
474.413965	19845.981694
474.784393	19649.502723
475.154761	20340.221458
475.525070	20465.491611
475.895321	20287.838829
476.265513	20830.367806
476.635645	21433.194024
477.005719	21483.540027
477.375734	21859.214373
477.745691	22498.820850
478.115588	23145.129541
478.485427	24352.062430
478.855207	26169.892424
479.224928	28008.882662
479.594591	29468.475662
479.964194	29137.110537
480.333739	29605.842063
480.703226	29836.144656
481.072653	30260.140982
481.442022	30786.119851
481.811333	31218.595398
482.180584	30770.308272
482.549777	30549.344417
482.918912	30315.381946
483.287988	30257.154099
483.657005	30105.183475
484.025964	29732.614479
484.394864	29945.341089
484.763706	29869.333092
485.132489	29327.744290
485.501213	29402.265147
485.869879	29576.860469
486.238487	29500.655867
486.607036	29784.631625
486.975527	29466.030702
487.343959	29813.320832
487.712333	30169.652271
488.080648	30139.218825
488.448905	30573.839383
488.817104	30448.475969
489.185244	31306.404737
489.553326	32264.168515
489.921350	34168.008156
490.289315	36728.498414
490.657222	37660.164139
491.025070	38254.811085
491.392861	37993.719645
491.760593	37232.722184
492.128267	36213.869703
492.495883	35254.833034
492.863440	34316.167667
493.230939	33320.585153
493.598380	32751.708586
493.965763	32590.288319
494.333088	32085.759560
494.700354	31886.598695
495.067563	31842.604545
495.434713	31719.179455
495.801805	32004.080264
496.168839	31842.360049
496.535815	31690.744827
496.902733	31821.363643
497.269593	31641.293628
497.636395	31790.983130
498.003139	32067.462692
498.369825	31834.105160
498.736453	32245.125556
499.103023	32073.575091
499.469535	32167.091015
499.835989	32282.856072
500.202385	32157.096928
500.568723	32194.827444
500.935003	32506.196832
501.301226	32363.920347
501.667390	33123.450832
502.033497	33335.259952
502.399546	33145.470592
502.765537	32727.253948
503.131470	33221.410533
503.497345	33659.847245
503.863163	32583.666763
504.228923	33382.462796
504.594625	33771.281951
504.960269	33245.845006
505.325856	33913.752520
505.691385	33576.998402
506.056856	33932.036785
506.422270	34417.325981
506.787625	33915.703447
507.152924	34414.356741
507.518164	34575.149384
507.883347	34134.527332
508.248472	34283.364879
508.613540	34985.022918
508.978550	35226.910083
509.343503	35066.709775
509.708398	35420.298827
510.073236	36050.218726
510.438016	36114.478314
510.802738	35796.746990
511.167403	36350.303491
511.532010	36603.931503
511.896561	37123.424927
512.261053	37904.503825
512.625488	37688.376957
512.989866	37594.094777
513.354186	37642.056314
513.718449	37613.815771
514.082655	38503.899538
514.446803	38189.515540
514.810894	38821.703958
515.174927	38842.042494
515.538904	38843.779171
515.902822	39481.709464
516.266684	39175.802166
516.630488	39533.703925
516.994235	39537.446982
517.357925	40114.286052
517.721558	40385.537937
518.085133	40763.579105
518.448651	40943.762547
518.812112	40827.664773
519.175516	41003.389314
519.538863	41451.908334
519.902152	41520.190763
520.265385	42068.905235
520.628560	42098.461520
520.991678	42046.472101
521.354739	42269.273457
521.717743	42647.155828
522.080690	42535.968139
522.443580	43238.838576
522.806413	43253.248714
523.169189	43381.047005
523.531908	43603.407260
523.894569	43462.108759
524.257174	43644.293538
524.619722	44012.698541
524.982213	44163.877704
525.344647	44219.849635
525.707025	44327.863918
526.069345	44779.962156
526.431608	44692.929156
526.793815	45077.289410
527.155964	44625.239063
527.518057	44872.568153
527.880093	44728.693622
528.242072	45362.144849
528.603995	45089.451194
528.965860	44987.498898
529.327669	45219.596142
529.689421	45294.076670
530.051117	45254.191060
530.412755	45520.772317
530.774337	45583.055773
531.135862	45515.176636
531.497331	45691.221290
531.858743	45668.992322
532.220098	46085.414315
532.581396	45805.814279
532.942638	45557.749180
533.303824	45818.041598
533.664953	45880.854374
534.026025	45535.840326
534.387040	46118.937988
534.747999	46185.496343
535.108902	46532.824281
535.469748	45830.130284
535.830537	46111.086391
536.191270	46367.781945
536.551947	46086.326764
536.912567	46385.902373
537.273131	46503.126843
537.633638	46140.874569
537.994089	46315.187587
538.354483	46063.283650
538.714821	46725.976090
539.075103	47009.858587
539.435328	46881.599030
539.795497	46635.411762
540.155609	46756.996831
540.515665	47358.058645
540.875665	46642.812175
541.235609	46908.501148
541.595496	47067.390755
541.955328	47650.921957
542.315102	47069.419820
542.674821	46963.626165
543.034483	46865.701752
543.394090	46866.362143
543.753640	46856.131121
544.113134	47932.485523
544.472571	47017.062396
544.831953	48172.331020
545.191278	47425.320240
545.550548	47114.933877
545.909761	47763.276673
546.268918	47892.259636
546.628019	48301.185433
546.987064	47731.489678
547.346053	47044.617343
547.704986	47981.888830
548.063863	47612.042058
548.422684	47808.750402
548.781449	47366.323617
549.140158	47911.582378
549.498811	47662.072989
549.857408	47052.194197
550.215949	47905.696831
550.574434	47737.859176
550.932864	47702.881130
551.291237	48399.976925
551.649555	48142.310949
552.007817	48314.015169
552.366022	48036.308086
552.724173	48103.103375
553.082267	48497.770268
553.440305	48869.804901
553.798288	48104.973643
554.156215	48508.223101
554.514086	48699.166885
554.871902	48273.108726
555.229661	48459.107139
555.587365	48150.238163
555.945014	48270.880536
556.302606	48289.031211
556.660143	48390.131551
557.017625	48616.121437
557.375050	48307.512081
557.732421	48695.559939
558.089735	48788.455802
558.446994	48627.033014
558.804197	49122.238160
559.161345	48980.722889
559.518437	48320.084718
559.875474	48550.062157
560.232455	48781.148649
560.589381	48813.681736
560.946251	48653.113424
561.303065	49320.574796
561.659825	48992.690588
562.016528	48782.174524
562.373177	48375.955827
562.729770	49014.612046
563.086307	48499.499384
563.442789	49078.034802
563.799216	48921.070915
564.155587	48824.026183
564.511904	48782.000604
564.868164	48837.475982
565.224370	49145.825718
565.580520	48863.082523
565.936615	49073.497764
566.292654	48715.938804
566.648638	49072.144214
567.004567	49020.515237
567.360441	49092.749930
567.716260	48786.038568
568.072023	49196.711125
568.427732	49100.130179
568.783385	48618.541191
569.138982	49043.865861
569.494525	49201.074244
569.850013	48790.396646
570.205445	48924.304816
570.560823	48685.333959
570.916145	48568.207790
571.271412	48807.980191
571.626625	48432.630999
571.981782	48521.814051
572.336884	48119.585427
572.691931	48454.156726
573.046923	48092.469061
573.401860	47924.686858
573.756743	47934.980894
574.111570	48071.911235
574.466342	47996.346860
574.821059	48165.316254
575.175722	47640.229670
575.530330	47729.942043
575.884882	47361.945374
576.239380	47258.301772
576.593823	47353.841720
576.948211	47312.642890
577.302544	46821.763055
577.656823	46824.805391
578.011047	47108.720655
578.365216	46944.726879
578.719330	46622.496325
579.073389	46614.254039
579.427394	46662.034095
579.781344	46565.208653
580.135239	46323.581108
580.489080	46386.782054
580.842866	45875.730042
581.196597	46368.555762
581.550273	46357.566047
581.903895	46276.849612
582.257463	46717.895121
582.610975	46143.894220
582.964434	46458.923486
583.317837	45953.535210
583.671186	45940.929805
584.024481	46210.437451
584.377721	45738.635863
584.730906	45943.372244
585.084037	46104.013652
585.437113	45815.848696
585.790135	45945.023222
586.143103	45501.323545
586.496016	45654.728377
586.848874	45779.237316
587.201679	45803.999463
587.554428	45272.626560
587.907124	45540.977262
588.259765	45323.612790
588.612352	45484.959960
588.964884	44939.802021
589.317362	45228.201392
589.669786	45236.168935
590.022155	45116.686027
590.374470	45594.481548
590.726731	45177.900759
591.078937	44483.171785
591.431090	44839.104973
591.783188	44353.223442
592.135232	44156.222712
592.487222	44427.504844
592.839157	44591.909474
593.191038	44234.337911
593.542866	44031.159246
593.894639	43396.480498
594.246358	43713.427922
594.598022	43704.936099
594.949633	43261.322122
595.301190	43257.735341
595.652692	43203.605952
596.004141	43716.699631
596.355535	42577.781990
596.706876	42590.992333
597.058162	42302.628251
597.409395	42816.954493
597.760573	43037.908266
598.111698	42635.921617
598.462768	42536.946123
598.813785	42564.279259
599.164748	42171.641430
599.515657	42433.171450
599.866511	41947.567183
600.217312	42638.795075
600.568060	41558.347256
600.918753	42415.398863
601.269392	42311.372132
601.619978	42024.495190
601.970510	42250.719490
602.320988	42366.058569
602.671412	42661.167715
603.021783	42510.510312
603.372100	42070.594022
603.722363	42185.575179
604.072572	42206.256513
604.422728	42212.134498
604.772830	41993.958401
605.122878	42161.624657
605.472872	42021.281455
605.822813	42278.067749
606.172701	42012.353571
606.522534	42329.684124
606.872314	42542.695559
607.222041	42384.930129
607.571714	42722.596696
607.921333	42180.251721
608.270899	42403.073241
608.620411	42781.331179
608.969870	42547.197309
609.319276	42554.307857
609.668627	42586.326745
610.017926	42974.777896
610.367171	43116.197385
610.716362	43154.278261
611.065500	43063.595465
611.414585	43282.842808
611.763616	43444.421871
612.112594	43346.063918
612.461518	43449.067294
612.810389	43853.045199
613.159207	43640.069052
613.507971	43595.359058
613.856682	44103.550216
614.205340	43926.915747
614.553945	44644.234130
614.902496	43959.975633
615.250994	44377.685641
615.599439	44466.470443
615.947830	44576.181074
616.296169	44555.330862
616.644454	44583.556282
616.992686	44748.840593
617.340864	45189.334096
617.688990	44666.488304
618.037063	45359.528491
618.385082	45183.403178
618.733048	45530.282454
619.080961	45385.699641
619.428821	45433.167145
619.776628	45457.296628
620.124382	45297.189582
620.472083	45417.874805
620.819731	45556.539303
621.167326	45122.392614
621.514868	45114.777951
621.862357	44563.719342
622.209793	44670.065002
622.557176	44238.859826
622.904506	44002.134803
623.251783	43652.624045
623.599007	43315.640555
623.946179	43234.931682
624.293297	42956.836430
624.640363	42411.373501
624.987376	42265.293466
625.334336	42077.835639
625.681243	41652.440393
626.028097	41555.393140
626.374899	41387.502552
626.721647	41348.317663
627.068343	41088.685637
627.414987	40803.633593
627.761577	40524.003310
628.108115	40868.112471
628.454600	40094.617990
628.801032	40320.998565
629.147412	40205.851049
629.493739	40103.316501
629.840014	39641.012446
630.186236	40073.752654
630.532405	39466.679264
630.878521	39729.998894
631.224585	39501.793421
631.570597	39148.753855
631.916556	39317.826594
632.262462	39230.370136
632.608316	39148.499277
632.954117	39018.223259
633.299866	38969.412287
633.645562	38890.430009
633.991206	38368.552119
634.336797	37949.196174
634.682336	37828.195879
635.027823	37606.838814
635.373257	37490.083170
635.718639	37148.613053
636.063968	37040.298821
636.409245	36373.369291
636.754470	36329.912024
637.099642	36116.270444
637.444762	35537.296446
637.789829	35676.850708
638.134845	35267.967760
638.479808	35201.066608
638.824719	35143.970499
639.169577	34619.236795
639.514383	34718.267742
639.859137	34291.584481
640.203839	34465.378259
640.548489	34182.982903
640.893086	34162.344419
641.237632	33873.188876
641.582125	33959.987463
641.926566	33738.620315
642.270955	33784.746873
642.615292	33719.184147
642.959576	33582.200873
643.303809	33589.550875
643.647990	33664.840508
643.992118	33645.878208
644.336195	33469.145436
644.680219	33516.812067
645.024192	33712.088722
645.368112	34237.011470
645.711981	34259.623565
646.055797	34947.360458
646.399562	34713.556784
646.743274	35572.453453
647.086935	35964.995500
647.430544	35947.043951
647.774101	35999.754256
648.117606	36323.847516
648.461059	36479.936762
648.804460	36102.918948
649.147810	35609.294205
649.491108	35316.942570
649.834354	35204.121547
650.177548	34384.099736
650.520690	33860.117164
650.863781	33822.550486
651.206820	33654.420443
651.549807	33243.669748
651.892742	32608.801956
652.235626	32524.390356
652.578458	32373.795967
652.921238	31661.826247
653.263967	31945.668415
653.606644	31625.393829
653.949269	31524.916071
654.291843	31108.952823
654.634365	31473.035036
654.976836	30992.093836
655.319255	31098.825145
655.661622	30938.960074
656.003938	30802.359928
656.346203	30627.583124
656.688416	30861.999299
657.030577	30649.635652
657.372687	30444.591760
657.714746	30587.274058
658.056753	30787.065068
658.398708	30143.289557
658.740612	30214.969723
659.082465	30413.719734
659.424266	30330.591107
659.766016	30303.273095
660.107715	30140.910132
660.449362	30239.542828
660.790958	30183.331442
661.132503	30109.609608
661.473996	30201.121674
661.815438	30284.333480
662.156829	30399.780944
662.498168	30172.755101
662.839456	30143.649999
663.180693	30283.547060
663.521879	30343.541832
663.863013	30310.991101
664.204097	30273.603384
664.545129	30675.665650
664.886110	30605.951533
665.227040	30710.797451
665.567918	30686.806600
665.908746	30739.894991
666.249522	30825.037559
666.590248	30875.733923
666.930922	30955.711828
667.271545	30974.379221
667.612118	31038.961443
667.952639	30836.561637
668.293109	30872.351308
668.633528	30718.064274
668.973896	30683.328204
669.314213	30646.028706
669.654480	30466.941716
669.994695	30441.395669
670.334859	30367.089061
670.674973	30154.276752
671.015035	30322.149695
671.355047	30264.148700
671.695008	30166.761169
672.034918	30069.799616
672.374777	30165.788226
672.714585	30033.712516
673.054342	30153.691978
673.394049	30006.162610
673.733705	30212.187006
674.073310	29925.811659
674.412864	29983.079167
674.752368	29684.998261
675.091820	29939.528639
675.431223	29547.606654
675.770574	29337.614870
676.109875	29162.225566
676.449125	28960.453383
676.788324	28846.793008
677.127473	28341.530761
677.466571	28251.914169
677.805619	27964.139901
678.144616	27903.157063
678.483562	27836.422269
678.822458	27501.944232
679.161303	27432.000743
679.500098	27357.323610
679.838842	27255.111695
680.177535	27297.220453
680.516179	27501.130085
680.854771	27557.515391
681.193314	28217.896462
681.531805	29129.989907
681.870247	29866.401661
682.208638	30674.453252
682.546978	31041.277853
682.885268	31240.935272
683.223508	30831.437304
683.561697	30577.741236
683.899836	30419.587637
684.237925	29989.597379
684.575963	29799.646702
684.913951	29409.174048
685.251889	29539.838236
685.589776	29500.983542
685.927614	29473.584871
686.265401	29626.021802
686.603137	29705.190602
686.940824	30144.040689
687.278460	30442.300556
687.616046	30612.068973
687.953582	31261.997213
688.291068	31173.759376
688.628504	31522.637469
688.965889	31566.724880
689.303224	31343.048884
689.640510	31080.077094
689.977745	30496.934061
690.314930	29798.525045
690.652065	29409.146322
690.989150	28737.397449
691.326185	27908.319205
691.663170	27288.378269
692.000105	26580.716216
692.336990	25968.773071
692.673825	25539.803646
693.010610	25031.204155
693.347345	24520.131978
693.684030	23884.533219
694.020665	23684.197765
694.357251	22990.290500
694.693786	22996.544052
695.030272	22755.067741
695.366707	22248.885483
695.703093	21947.961366
696.039429	22001.117813
696.375716	21729.258468
696.711952	21717.731870
697.048139	21574.689130
697.384276	21395.501316
697.720363	21508.707988
698.056400	21391.430585
698.392388	21225.634596
698.728326	21220.157383
699.064214	21068.927808
699.400053	21083.411043
699.735842	20691.095848
700.071581	20513.543889
700.407270	20275.724936
700.742910	20101.651373
701.078501	19848.053608
701.414042	19632.652666
701.749533	19328.940791
702.084974	19024.160191
702.420366	19249.928266
702.755709	18840.609259
703.091002	18547.430875
703.426246	18592.017360
703.761440	18503.056118
704.096584	18268.823946
704.431679	18198.008337
704.766725	18150.203075
705.101721	18046.849339
705.436668	18155.037542
705.771565	17863.278242
706.106413	18149.136871
706.441212	18213.406542
706.775961	18301.321744
707.110661	18371.434112
707.445311	18717.733655
707.779913	18578.892716
708.114465	18853.711218
708.448967	19136.509866
708.783421	19714.190809
709.117825	20040.872702
709.452180	20219.379959
709.786485	20643.247737
710.120742	21336.789518
710.454949	21415.802043
710.789107	21890.081358
711.123216	22569.223084
711.457275	22778.894755
711.791286	23323.142765
712.125247	23501.362677
712.459159	23266.661678
712.793023	24035.430077
713.126837	23078.198141
713.460602	23361.631975
713.794318	23056.606879
714.127985	22820.141476
714.461602	21976.005305
714.795171	21971.057413
715.128691	21028.971623
715.462162	20517.521360
715.795584	20099.118193
716.128957	19828.425876
716.462281	19465.251070
716.795556	19182.835550
717.128782	18709.781234
717.461960	18106.067773
717.795088	18079.150532
718.128167	17742.840036
718.461198	17290.913196
718.794180	17170.084300
719.127113	16835.172724
719.459997	16647.326729
719.792833	16268.403359
720.125619	16299.605581
720.458357	15971.923019
720.791046	15829.994373
721.123686	15674.527709
721.456278	15429.358754
721.788821	15426.999494
722.121315	15165.592982
722.453761	15251.922741
722.786158	15133.742972
723.118506	15212.354725
723.450805	15086.030971
723.783056	15236.670730
724.115259	15121.482886
724.447412	15095.344503
724.779518	15293.482014
725.111574	15324.739688
725.443582	15566.077367
725.775542	15508.867832
726.107453	15983.406767
726.439315	15873.169336
726.771129	16251.276039
727.102895	16625.231352
727.434612	16883.348511
727.766281	17045.240125
728.097901	17365.625617
728.429473	17456.129452
728.760996	17483.558370
729.092471	17600.351822
729.423897	17489.733783
729.755276	17339.938418
730.086606	17408.074653
730.417887	17919.194721
730.749120	18446.007901
731.080305	18644.745309
731.411442	19044.597029
731.742530	19158.912754
732.073570	19292.710018
732.404562	19604.943964
732.735506	19524.096459
733.066401	19413.339789
733.397249	19002.205966
733.728048	18440.671839
734.058798	17625.318137
734.389501	16904.889361
734.720156	16395.896660
735.050762	15824.940617
735.381320	15426.379432
735.711831	15134.209278
736.042293	14767.868628
736.372707	14783.718016
736.703073	14550.282346
737.033391	14719.707965
737.363661	14690.096228
737.693883	14775.445483
738.024056	14932.104380
738.354182	15096.950110
738.684260	15414.129428
739.014290	15655.807385
739.344272	15865.085845
739.674207	16196.594643
740.004093	16360.875764
740.333931	16424.548058
740.663722	16514.751944
740.993464	16572.097590
741.323159	16463.501054
741.652806	16198.033892
741.982405	16053.975359
742.311956	15718.826849
742.641460	15626.856038
742.970915	15319.287680
743.300323	14995.781714
743.629683	14793.341579
743.958996	14502.396426
744.288260	14207.350294
744.617477	13905.833841
744.946647	13865.875135
745.275768	13557.081777
745.604842	13366.203528
745.933869	13182.420703
746.262847	13146.552893
746.591778	13048.623438
746.920662	12916.673757
747.249498	12909.540524
747.578286	13021.209644
747.907027	13171.839321
748.235720	13424.847271
748.564365	13485.096621
748.892963	13423.511365
749.221514	13520.427547
749.550017	13410.941248
749.878473	13378.980332
750.206881	13177.858458
750.535242	13101.311058
750.863555	13021.602854
751.191821	12912.136719
751.520039	12918.511258
751.848210	12838.908918
752.176334	12873.100544
752.504411	12788.388995
752.832440	12616.571348
753.160421	12727.552350
753.488356	12621.700722
753.816243	12537.452959
754.144082	12366.593132
754.471875	12319.947335
754.799620	12279.867642
755.127318	12256.443920
755.454969	12234.335940
755.782572	12191.965042
756.110129	12207.131353
756.437638	12114.033845
756.765100	12111.684667
757.092515	12129.593366
757.419882	12146.269503
757.747203	12141.530818
758.074477	12208.177393
758.401703	12183.543794
758.728882	12342.597239
759.056014	12378.727189
759.383099	12522.082481
759.710138	12640.375677
760.037129	12761.784305
760.364073	12832.741066
760.690970	12847.342768
761.017820	12854.375178
761.344623	13035.418136
761.671379	13327.041324
761.998088	13808.791630
762.324751	15065.710080
762.651366	17673.602308
762.977935	21620.097323
763.304456	24687.730179
763.630931	26268.585614
763.957359	25625.546112
764.283740	23783.145533
764.610074	21825.078200
764.936362	19411.025899
765.262602	17641.994274
765.588796	15811.236240
765.914943	14558.726279
766.241044	13489.333711
766.567097	12693.837113
766.893104	12001.608552
767.219064	11556.724205
767.544978	11092.869995
767.870845	10717.571215
768.196665	10495.636937
768.522438	10274.378174
768.848165	10086.343136
769.173846	9886.302590
769.499479	9757.982539
769.825066	9609.883521
770.150607	9396.057940
770.476101	9312.422677
770.801548	9205.487201
771.126949	9055.722082
771.452303	8953.517729
771.777611	8769.366899
772.102872	8760.358357
772.428087	8624.025393
772.753256	8487.631934
773.078378	8403.096826
773.403453	8237.532730
773.728482	8124.661296
774.053465	8049.177579
774.378401	7958.971172
774.703291	7844.264757
775.028135	7726.425265
775.352932	7694.479473
775.677683	7599.201666
776.002388	7495.968917
776.327046	7505.678180
776.651658	7412.033706
776.976224	7317.310425
777.300743	7308.838766
777.625216	7233.347487
777.949643	7191.407608
778.274024	7199.506221
778.598359	7117.463963
778.922647	7128.851930
779.246889	7081.094559
779.571086	7085.782832
779.895236	7081.389466
780.219339	7084.802327
780.543397	7082.410300
780.867409	7155.471742
781.191374	7166.252250
781.515294	7133.719164
781.839167	7211.615073
782.162995	7186.928543
782.486776	7143.186451
782.810511	7105.634896
783.134201	7030.136055
783.457844	7021.989550
783.781441	6971.305790
784.104993	6912.601553
784.428498	6888.739251
784.751958	6873.272991
785.075372	6840.114802
785.398739	6791.442462
785.722061	6825.704664
786.045337	6822.561504
786.368568	6935.266581
786.691752	6941.575585
787.014891	7190.046496
787.337983	7450.525436
787.661030	7949.234183
787.984031	8502.039552
788.306987	8887.564313
788.629897	9136.244432
788.952760	9145.605855
789.275579	8985.975198
789.598351	8663.606012
789.921078	8365.048717
790.243759	7994.430648
790.566395	7728.333342
790.888984	7497.614854
791.211529	7309.199208
791.534027	7100.407219
791.856480	6912.402428
792.178888	6839.661098
792.501249	6749.361430
792.823566	6601.461538
793.145836	6602.232834
793.468062	6562.931999
793.790241	6508.764801
794.112375	6556.585186
794.434464	6686.034455
794.756507	6693.969231
795.078505	6809.925852
795.400457	7048.342182
795.722364	7335.272056
796.044226	7603.887418
796.366042	7860.467026
796.687812	7841.560178
797.009538	7932.905886
797.331218	7851.864297
797.652852	7793.086963
797.974442	7659.622415
798.295986	7579.331958
798.617484	7419.681136
798.938938	7292.018956
799.260346	7207.357818
799.581709	7028.598503
799.903026	6959.663245
800.224299	6862.411825
800.545526	6716.669547
800.866708	6622.266380
801.187845	6564.993831
801.508936	6469.542103
801.829983	6434.259067
802.150984	6295.904600
802.471940	6254.680565
802.792851	6235.521659
803.113717	6202.686104
803.434538	6176.885478
803.755314	6124.674248
804.076045	6122.171315
804.396731	6066.668211
804.717372	6085.501962
805.037967	6080.314615
805.358518	6106.926866
805.679024	6177.961765
805.999485	6179.544687
806.319901	6209.070725
806.640272	6226.581173
806.960598	6296.988448
807.280879	6301.084386
807.601115	6365.769951
807.921306	6319.028373
808.241453	6334.189643
808.561554	6353.068764
808.881611	6322.849567
809.201623	6331.127142
809.521590	6291.760772
809.841513	6271.623883
810.161390	6303.138656
810.481223	6195.497418
810.801011	6179.358164
811.120755	6156.733466
811.440453	6090.386840
811.760107	6056.535492
812.079716	6028.443662
812.399281	5976.872658
812.718801	5964.617613
813.038276	5929.984887
813.357707	5874.940528
813.677093	5905.310959
813.996434	5822.068906
814.315731	5852.192321
814.634983	5842.558676
814.954191	5843.201423
815.273354	5925.039515
815.592473	5973.830322
815.911547	6070.688532
816.230577	6143.545807
816.549562	6267.074241
816.868502	6346.976530
817.187399	6426.967038
817.506250	6548.899947
817.825058	6569.639254
818.143821	6779.121882
818.462539	6977.196378
818.781213	7252.375322
819.099843	7659.203999
819.418429	8435.309799
819.736970	9200.128454
820.055466	10139.721393
820.373919	11304.742130
820.692327	13026.122248
821.010691	15815.929554
821.329011	22180.161954
821.647286	32363.224667
821.965517	45004.306105
822.283704	53135.059636
822.601847	57110.561450
822.919945	54555.200565
823.237999	50078.890363
823.556010	44144.653263
823.873976	38138.115935
824.191897	32385.892216
824.509775	28125.136711
824.827609	24038.898391
825.145398	21526.689783
825.463144	20030.858450
825.780845	19867.814931
826.098502	20849.635096
826.416116	23644.972547
826.733685	26785.291280
827.051210	28364.347023
827.368692	27578.980624
827.686129	24609.516677
828.003522	21169.942449
828.320872	17972.376373
828.638177	15504.353479
828.955439	13619.917239
829.272656	12011.088442
829.589830	10745.627757
829.906960	9621.475655
830.224046	8773.321685
830.541088	8093.421265
830.858086	7646.843090
831.175041	7288.585930
831.491952	7146.374980
831.808819	7122.658872
832.125642	7357.017073
832.442421	7944.147659
832.759157	9180.472996
833.075849	11308.046606
833.392497	13961.596565
833.709101	16038.768719
834.025662	16399.821198
834.342179	15343.354149
834.658653	13628.928302
834.975083	11963.971297
835.291469	10596.828018
835.607811	9451.036764
835.924110	8656.109817
836.240366	7918.243690
836.556578	7220.789973
836.872746	6668.544172
837.188871	6222.775102
837.504952	5847.194017
837.820990	5569.388631
838.136984	5360.647053
838.452935	5260.353298
838.768842	5238.283126
839.084706	5465.384586
839.400526	6262.837152
839.716303	7508.314703
840.032037	8572.361128
840.347727	8790.441443
840.663373	8141.375241
840.978977	7266.472909
841.294537	6561.896042
841.610054	6034.747625
841.925527	5656.978679
842.240957	5351.938460
842.556344	5075.630297
842.871687	4832.664326
843.186987	4591.082151
843.502244	4391.686873
843.817458	4246.118514
844.132629	4126.121409
844.447756	4044.016136
844.762840	3972.341011
845.077881	3908.386412
845.392879	3852.984132
845.707833	3813.216989
846.022745	3774.233747
846.337613	3747.230806
846.652438	3711.327708
846.967221	3696.408414
847.281960	3667.888086
847.596656	3652.565499
847.911309	3628.897281
848.225919	3615.286166
848.540485	3598.012652
848.855009	3587.975715
849.169490	3570.805545
849.483928	3559.455387
849.798323	3551.336609
850.112675	3538.849671
850.426984	3538.804300
850.741251	3526.511447
851.055474	3524.608411
851.369654	3523.471631
851.683792	3520.013399
851.997887	3525.367105
852.311938	3528.366591
852.625947	3530.481355
852.939914	3521.046836
853.253837	3529.478166
853.567718	3526.546735
853.881555	3515.846886
854.195350	3525.021786
854.509103	3524.106816
854.822812	3524.835263
855.136479	3512.940661
855.450103	3521.676980
855.763685	3508.045700
856.077224	3511.408150
856.390720	3519.211856
856.704173	3537.977551
857.017584	3548.654715
857.330953	3555.679563
857.644278	3572.506934
857.957561	3579.521700
858.270802	3581.283583
858.584000	3580.363573
858.897155	3574.830906
859.210268	3565.426634
859.523339	3546.040877
859.836367	3546.300496
860.149352	3539.920916
860.462295	3531.194679
860.775195	3518.445601
861.088054	3519.068183
861.400869	3516.688758
861.713642	3514.581556
862.026373	3522.100437
862.339062	3522.738143
862.651708	3535.943446
862.964312	3563.702559
863.276873	3569.484763
863.589392	3609.030094
863.901869	3637.966317
864.214303	3677.128521
864.526696	3706.299157
864.839045	3743.253336
865.151353	3764.617746
865.463619	3778.775826
865.775842	3777.812966
866.088023	3794.726037
866.400162	3787.320582
866.712258	3793.148156
867.024313	3796.596305
867.336325	3794.083290
867.648296	3795.255358
867.960224	3795.784679
868.272110	3805.468736
868.583954	3804.531081
868.895755	3813.206907
869.207515	3807.840599
869.519233	3840.761854
869.830909	3846.977597
870.142542	3865.284547
870.454134	3879.354407
870.765684	3897.056419
871.077191	3928.006583
871.388657	3942.938481
871.700081	3969.306236
872.011463	4005.393336
872.322803	4028.199516
872.634101	4054.249678
872.945357	4085.615737
873.256571	4127.540493
873.567744	4150.840707
873.878874	4169.775280
874.189963	4202.368861
874.501010	4208.012432
874.812015	4208.385478
875.122979	4240.827823
875.433900	4237.513265
875.744780	4247.036004
876.055618	4261.788941
876.366415	4259.205350
876.677169	4277.650932
876.987882	4309.556394
877.298554	4344.252136
877.609183	4400.140888
877.919771	4470.127227
878.230317	4574.892486
878.540822	4717.617633
878.851285	4940.577786
879.161707	5254.187967
879.472087	5769.630824
879.782425	6577.362302
880.092722	8057.377015
880.402977	10424.609600
880.713191	13407.077203
881.023363	16559.577884
881.333494	18768.074617
881.643583	20035.440858
881.953631	20185.173210
882.263637	19584.509647
882.573602	18453.183983
882.883526	17203.073611
883.193408	15873.892741
883.503248	14559.064036
883.813048	13330.098784
884.122806	12171.737412
884.432522	10999.409523
884.742197	9972.763419
885.051831	9067.848578
885.361424	8230.989313
885.670975	7527.234153
885.980485	6954.019673
886.289954	6482.883517
886.599382	6086.883238
886.908768	5775.473521
887.218113	5473.026976
887.527417	5234.724072
887.836680	5014.796173
888.145901	4834.786652
888.455082	4703.857804
888.764221	4575.968772
889.073319	4465.706135
889.382376	4402.898399
889.691392	4352.315461
890.000366	4323.974094
890.309300	4303.975837
890.618193	4306.554387
890.927044	4297.409734
891.235855	4304.636228
891.544625	4324.389989
891.853353	4361.787789
892.162041	4436.215385
892.470687	4563.368408
892.779293	4730.954006
893.087858	4987.788192
893.396381	5381.645980
893.704864	5926.521614
894.013306	6749.764722
894.321707	7662.899165
894.630068	8383.038074
894.938387	8654.587388
895.246665	8570.387516
895.554903	8148.566447
895.863100	7625.715614
896.171256	7194.570932
896.479371	6801.890253
896.787446	6421.331028
897.095480	6087.218475
897.403473	5831.085010
897.711425	5583.932360
898.019336	5373.728848
898.327207	5158.365714
898.635038	4980.576821
898.942827	4777.148619
899.250576	4623.038026
899.558284	4469.323163
899.865952	4372.807752
900.173579	4256.833487
900.481165	4170.740661
900.788711	4095.854321
901.096216	4036.048592
901.403681	3980.366527
901.711105	3954.782672
902.018489	3935.079322
902.325832	3972.467039
902.633135	4040.240312
902.940397	4239.554932
903.247619	4718.673755
903.554800	5671.356050
903.861941	7093.067299
904.169041	8401.476095
904.476101	9106.509186
904.783121	9007.755503
905.090100	8498.087288
905.397039	7860.172118
905.703938	7263.652383
906.010796	6728.677576
906.317614	6301.951464
906.624391	5880.904213
906.931129	5554.000509
907.237826	5246.510289
907.544483	4949.230926
907.851099	4655.603879
908.157675	4375.545098
908.464211	4106.574335
908.770707	3914.657608
909.077163	3743.560846
909.383578	3618.762042
909.689954	3520.741846
909.996289	3461.467959
910.302584	3408.747572
910.608839	3376.819424
910.915054	3353.136084
911.221229	3343.419260
911.527363	3347.358921
911.833458	3351.780013
912.139513	3369.066130
912.445527	3385.649005
912.751502	3441.056327
913.057436	3507.473529
913.363331	3597.548866
913.669186	3734.701018
913.975000	3906.490938
914.280775	4187.033671
914.586510	4581.922375
914.892205	5125.532679
915.197859	5865.667325
915.503475	6777.838908
915.809050	7632.367417
916.114585	8218.799803
916.420081	8509.664297
916.725536	8547.230976
917.030952	8255.000328
917.336328	7960.544012
917.641665	7662.299268
917.946961	7300.513300
918.252218	6981.070505
918.557435	6595.462565
918.862612	6272.720334
919.167750	5981.074460
919.472848	5657.170243
919.777906	5374.437130
920.082925	5095.754583
920.387904	4806.142816
920.692843	4586.184670
920.997743	4384.107498
921.302603	4198.988767
921.607423	4071.392122
921.912204	3944.511321
922.216946	3846.838965
922.521647	3756.037702
922.826310	3674.287831
923.130932	3601.564145
923.435516	3527.275182
923.740059	3473.995227
924.044564	3414.320568
924.349028	3371.163250
924.653454	3321.540652
924.957840	3267.391098
925.262186	3232.213926
925.566493	3185.951257
925.870761	3145.899290
926.174989	3114.477778
926.479178	3086.562389
926.783328	3054.835887
927.087438	3034.336035
927.391509	3007.015502
927.695541	2982.893581
927.999533	2960.500775
928.303486	2947.905452
928.607400	2934.997578
928.911275	2926.984664
929.215110	2911.820873
929.518906	2905.083371
929.822663	2902.280489
930.126381	2898.174470
930.430060	2904.291910
930.733699	2906.734349
931.037299	2910.931109
931.340861	2907.102353
931.644383	2914.608631
931.947866	2913.423960
932.251309	2908.592014
932.554714	2912.980338
932.858080	2908.791140
933.161407	2899.890983
933.464694	2896.843605
933.767943	2887.761966
934.071153	2889.571741
934.374323	2877.525903
934.677455	2874.891901
934.980548	2869.361755
935.283602	2864.146681
935.586617	2860.968234
935.889593	2866.027032
936.192530	2867.191538
936.495428	2874.866695
936.798287	2887.577964
937.101108	2910.555543
937.403890	2942.539144
937.706632	2980.741008
938.009336	3037.212013
938.312002	3093.468770
938.614628	3139.885194
938.917216	3178.656708
939.219765	3207.711398
939.522275	3231.193093
939.824747	3237.282807
940.127179	3237.534864
940.429573	3236.282137
940.731929	3235.226016
941.034246	3225.118502
941.336524	3220.783110
941.638763	3207.832386
941.940964	3200.926005
942.243126	3175.316943
942.545250	3158.628204
942.847335	3129.185345
943.149381	3104.211468
943.451389	3081.914445
943.753359	3052.574930
944.055290	3034.930891
944.357182	3015.630834
944.659036	3002.291941
944.960851	2998.480828
945.262628	2985.043633
945.564367	2983.561533
945.866067	2979.755462
946.167729	2977.560040
946.469352	2972.896973
946.770937	2974.265646
947.072484	2961.090590
947.373992	2963.124696
947.675462	2959.338789
947.976893	2944.706840
948.278286	2939.300203
948.579641	2933.901127
948.880958	2925.326124
949.182236	2931.337700
949.483476	2927.609767
949.784678	2925.104313
950.085841	2923.826381
950.386967	2929.132195
950.688054	2940.247940
950.989103	2952.994497
951.290114	2966.726600
951.591087	2985.393993
951.892021	3006.536592
952.192917	3028.274047
952.493776	3048.368087
952.794596	3053.666339
953.095378	3061.626321
953.396122	3061.099521
953.696828	3057.263203
953.997496	3053.152142
954.298126	3036.423073
954.598718	3021.264323
954.899272	3003.826972
955.199788	2986.112357
955.500266	2965.562094
955.800706	2937.054369
956.101108	2911.084865
956.401472	2891.384035
956.701798	2866.647093
957.002087	2835.104594
957.302337	2815.615493
957.602550	2796.600261
957.902724	2773.887342
958.202861	2752.094434
958.502960	2739.453741
958.803022	2722.177707
959.103045	2707.956612
959.403031	2697.949921
959.702979	2688.422140
960.002889	2675.166426
960.302762	2665.936074
960.602596	2656.168838
960.902393	2649.181799
961.202153	2642.799698
961.501875	2637.105715
961.801559	2633.428193
962.101205	2629.085239
962.400814	2625.480814
962.700385	2620.033847
962.999918	2616.063939
963.299414	2606.722681
963.598873	2607.768720
963.898293	2600.741352
964.197677	2602.440220
964.497022	2603.072885
964.796331	2601.051382
965.095601	2599.859150
965.394835	2595.611977
965.694030	2595.924529
965.993189	2596.053078
966.292309	2593.482090
966.591393	2590.560741
966.890439	2592.395721
967.189447	2592.136102
967.488419	2592.793972
967.787353	2590.873293
968.086249	2592.304981
968.385108	2594.087028
968.683930	2595.183479
968.982714	2600.111207
969.281462	2598.981989
969.580172	2604.330653
969.878844	2608.252671
970.177480	2612.865327
970.476078	2618.997890
970.774639	2622.173817
971.073162	2628.757564
971.371649	2633.707977
971.670098	2635.918523
971.968510	2639.089409
972.266885	2647.326654
972.565223	2647.533342
972.863524	2650.812612
973.161788	2653.476862
973.460014	2652.440905
973.758204	2654.182623
974.056356	2657.570279
974.354471	2659.496000
974.652550	2659.523726
974.950591	2657.628252
975.248595	2658.765032
975.546563	2657.063643
975.844493	2652.791265
976.142386	2649.199443
976.440243	2646.676345
976.738062	2645.219452
977.035845	2640.821045
977.333590	2636.808287
977.631299	2628.470218
977.928971	2626.325207
978.226606	2620.021244
978.524204	2618.413116
978.821765	2616.094186
979.119290	2616.384052
979.416777	2618.851697
979.714228	2616.646192
980.011642	2616.179885
980.309020	2622.889661
980.606360	2632.399798
980.903664	2646.754483
981.200931	2670.800787
981.498162	2699.535364
981.795356	2747.106212
982.092513	2810.967549
982.389633	2887.036040
982.686717	2963.646455
982.983764	3026.146681
983.280775	3072.991603
983.577749	3083.331009
983.874686	3078.519228
984.171587	3057.900909
984.468451	3029.186496
984.765279	3001.785305
985.062070	2968.392702
985.358824	2933.782660
985.655543	2896.548698
985.952224	2858.561083
986.248869	2813.319247
986.545478	2767.384254
986.842050	2724.531925
987.138586	2686.083045
987.435086	2656.834270
987.731549	2631.134468
988.027975	2608.698813
988.324366	2596.544591
988.620719	2587.848601
988.917037	2577.552044
989.213318	2570.552402
989.509563	2560.838098
989.805772	2562.708366
990.101944	2559.865156
990.398080	2555.018086
990.694180	2554.481203
990.990244	2554.944989
991.286271	2553.311656
991.582262	2554.697973
991.878217	2556.863148
992.174136	2556.981616
992.470019	2557.175700
992.765865	2559.615618
993.061676	2564.954200
993.357450	2566.007802
993.653188	2571.716908
993.948890	2584.607139
994.244556	2599.602051
994.540186	2612.252826
994.835780	2634.171763
995.131337	2662.009015
995.426859	2692.371884
995.722345	2723.740464
996.017795	2763.842843
996.313208	2790.951648
996.608586	2812.026192
996.903928	2825.629745
997.199234	2828.924139
997.494504	2831.197700
997.789738	2820.880978
998.084936	2802.826086
998.380099	2781.605349
998.675225	2761.544077
998.970316	2741.724781
999.265371	2716.178733
999.560390	2687.728982
999.855373	2665.888183
1000.150320	2644.243989
1000.445232	2624.074332
1000.740108	2608.978597
1001.034948	2594.762543
1001.329752	2578.197312
1001.624521	2571.268246
1001.919254	2562.267265
1002.213951	2557.475649
1002.508613	2550.523897
1002.803239	2545.908721
1003.097829	2539.425797
1003.392384	2537.099305
1003.686903	2534.790456
1003.981386	2533.109232
1004.275834	2529.237625
1004.570246	2529.686288
1004.864623	2526.764939
1005.158964	2523.891482
1005.453270	2522.540453
1005.747540	2522.016172
1006.041775	2517.690863
1006.335974	2519.450225
1006.630138	2518.331089
1006.924266	2518.948630
1007.218359	2518.389062
1007.512416	2514.605676
1007.806438	2510.411436
1008.100425	2511.948988
1008.394376	2508.357166
1008.688292	2512.206087
1008.982172	2512.475789
1009.276017	2515.152642
1009.569827	2511.974194
1009.863602	2512.722805
1010.157341	2511.545696
1010.451045	2510.741632
1010.744714	2509.564522
1011.038347	2510.512259
1011.331945	2509.625016
1011.625508	2509.796416
1011.919036	2507.618637
1012.212528	2509.234327
1012.505986	2508.054697
1012.799408	2506.708709
1013.092795	2503.164778
1013.386147	2504.785509
1013.679464	2507.966477
1013.972745	2504.949346
1014.265992	2506.655777
1014.559204	2506.081085
1014.852380	2503.328615
1015.145521	2504.939264
1015.438628	2508.309275
1015.731699	2505.811383
1016.024736	2506.728873
1016.317737	2508.256343
1016.610703	2507.578308
1016.903635	2507.754748
1017.196531	2508.687362
1017.489393	2508.508401
1017.782219	2508.788185
1018.075011	2510.635768
1018.367768	2512.339678
1018.660490	2512.190964
1018.953177	2512.190964
1019.245829	2512.190964
