Dividing Wavelength (nm)	Counts (n)	Blue Motor Position (mm): 0.000000	Red Motor Position (mm): 2.500000	
326.493990	2056.712631
326.888308	2056.712631
327.282561	2056.712631
327.676750	2030.596934
328.070874	2033.425021
328.464933	2040.089427
328.858929	2047.578061
329.252859	2056.715152
329.646726	2070.628737
330.040528	2087.909812
330.434265	2101.740218
330.827938	2127.558487
331.221547	2144.607669
331.615091	2166.347645
332.008571	2188.163238
332.401986	2208.141331
332.795338	2226.770915
333.188625	2245.524008
333.581847	2264.723242
333.975006	2281.709410
334.368100	2299.827317
334.761129	2317.771304
335.154095	2330.911071
335.546996	2345.603514
335.939833	2361.881400
336.332606	2373.402957
336.725315	2383.984339
337.117960	2396.922460
337.510540	2404.138872
337.903056	2412.161868
338.295508	2422.748292
338.687896	2428.936308
339.080220	2434.199272
339.472480	2436.732452
339.864676	2442.328133
340.256807	2446.461879
340.648875	2447.439863
341.040879	2448.382559
341.432818	2449.799123
341.824694	2451.041767
342.216506	2452.072683
342.608253	2448.695110
342.999937	2448.876592
343.391557	2450.046140
343.783113	2446.789554
344.174605	2447.134873
344.566033	2444.027002
344.957397	2443.366611
345.348697	2440.646908
345.739934	2439.973914
346.131106	2435.119283
346.522215	2435.288162
346.913260	2433.299427
347.304241	2431.953438
347.695159	2432.439910
348.086012	2429.206010
348.476802	2427.519744
348.867528	2426.924888
349.258191	2420.847777
349.648789	2420.414237
350.039324	2417.848290
350.429796	2424.222829
350.820203	2420.499937
351.210548	2420.888106
351.600828	2419.060687
351.991045	2419.083373
352.381198	2418.589340
352.771288	2419.776531
353.161314	2417.444998
353.551276	2418.266706
353.941175	2417.218146
354.331010	2419.375760
354.720782	2419.204360
355.110490	2418.216294
355.500135	2416.613207
355.889717	2420.948600
356.279235	2419.693352
356.668689	2419.370718
357.058080	2420.416758
357.447408	2419.315266
357.836672	2421.518250
358.225873	2420.053795
358.615010	2423.980854
359.004084	2420.633528
359.393095	2425.157963
359.782043	2424.915988
360.170927	2424.684095
360.559748	2424.452202
360.948505	2422.894485
361.337199	2426.418252
361.725830	2423.620411
362.114398	2425.646955
362.502903	2426.788776
362.891344	2427.607964
363.279722	2427.754157
363.668037	2430.103335
364.056289	2428.152408
364.444478	2429.498397
364.832603	2428.202820
365.220665	2429.715166
365.608665	2430.478901
365.996601	2429.059816
366.384474	2429.024528
366.772284	2430.884714
367.160031	2430.418407
367.547715	2431.890424
367.935336	2432.702050
368.322893	2430.272214
368.710388	2428.739703
369.097820	2430.723397
369.485189	2429.357244
369.872495	2433.324632
370.259738	2433.314550
370.646918	2433.979982
371.034035	2433.599375
371.421090	2433.122986
371.808081	2434.675662
372.195010	2433.725404
372.581875	2436.182967
372.968678	2436.429983
373.355418	2438.693461
373.742096	2435.204983
374.128710	2433.932091
374.515262	2438.441403
374.901751	2436.177925
375.288177	2438.736311
375.674540	2439.109356
376.060841	2439.008533
376.447079	2439.482402
376.833254	2440.871240
377.219367	2442.449121
377.605417	2443.742177
377.991404	2441.705551
378.377329	2441.881991
378.763191	2441.289655
379.148991	2442.413833
379.534727	2441.841662
379.920402	2446.371138
380.306013	2440.992227
380.691563	2446.955912
381.077049	2446.648402
381.462474	2449.305090
381.847835	2449.060594
382.233134	2450.983794
382.618371	2447.770059
383.003545	2452.339865
383.388657	2446.960953
383.773706	2451.497992
384.158693	2453.169134
384.543618	2453.491768
384.928480	2454.104268
385.313280	2454.429423
385.698017	2453.552262
386.082692	2454.895730
386.467305	2457.045782
386.851856	2458.457305
387.236344	2459.899075
387.620770	2453.592591
388.005133	2454.925977
388.389435	2458.616101
388.773674	2452.546552
389.157851	2461.880248
389.541965	2459.967130
389.926018	2464.383181
390.310008	2462.434775
390.693936	2461.524847
391.077802	2459.042079
391.461606	2462.091977
391.845348	2459.165587
392.229027	2462.822944
392.612645	2461.320680
392.996200	2459.873869
393.379694	2463.692543
393.763125	2461.358489
394.146494	2458.787500
394.529801	2461.267748
394.913047	2461.580300
395.296230	2456.589557
395.679351	2458.976544
396.062410	2458.056533
396.445408	2456.672736
396.828343	2456.879424
397.211217	2459.470577
397.594028	2453.264916
397.976778	2452.289453
398.359466	2457.164249
398.742092	2454.336162
399.124656	2451.805502
399.507158	2453.486727
399.889598	2456.584516
400.271977	2450.877930
400.654294	2450.207457
401.036549	2452.748198
401.418742	2453.653085
401.800874	2450.653599
402.182944	2452.629731
402.564952	2452.730554
402.946898	2451.860955
403.328783	2453.080914
403.710606	2452.047478
404.092367	2449.040429
404.474067	2450.918259
404.855705	2451.530759
405.237282	2449.915070
405.618797	2450.663681
406.000250	2453.665688
406.381642	2451.671912
406.762972	2451.097220
407.144240	2450.552776
407.525447	2450.020934
407.906593	2447.432301
408.287677	2454.391614
408.668700	2452.803651
409.049661	2452.654937
409.430560	2452.334823
409.811399	2451.808023
410.192176	2452.453291
410.572891	2455.538477
410.953545	2453.121243
411.334138	2454.837756
411.714669	2454.106789
412.095139	2455.044444
412.475547	2454.126954
412.855894	2454.200050
413.236180	2457.197016
413.616405	2454.212653
413.996568	2456.445884
414.376670	2454.615946
414.756711	2453.476645
415.136691	2456.846656
415.516609	2457.670885
415.896466	2456.551749
416.276262	2455.697273
416.655997	2456.012345
417.035670	2456.438323
417.415283	2458.016204
417.794834	2457.774228
418.174324	2458.628704
418.553753	2457.844805
418.933121	2456.425720
419.312428	2457.459156
419.691674	2457.844805
420.070859	2458.046451
420.449983	2460.312449
420.829045	2457.280195
421.208047	2459.964610
421.586988	2457.310442
421.965867	2458.590895
422.344686	2460.539301
422.723444	2459.629373
423.102141	2459.296657
423.480777	2458.422017
423.859352	2458.364043
424.237866	2459.215998
424.616319	2457.401183
424.994712	2459.115175
425.373044	2458.865638
425.751314	2459.962089
426.129524	2454.636110
426.507673	2457.302881
426.885762	2454.673919
427.263789	2458.054012
427.641756	2460.153653
428.019662	2461.575258
428.397508	2460.967799
428.775292	2461.000567
429.153016	2461.136678
429.530679	2460.917388
429.908282	2459.556276
430.285824	2461.252625
430.663305	2460.763633
431.040726	2459.735237
431.418086	2460.279682
431.795385	2462.225567
432.172624	2460.652727
432.549802	2460.289764
432.926920	2461.451750
433.303977	2460.698098
433.680974	2463.226236
434.057910	2458.419496
434.434786	2460.488890
434.811601	2460.022583
435.188355	2462.986782
435.565050	2462.674230
435.941683	2462.202882
436.318257	2465.406535
436.694770	2462.013839
437.071222	2462.840588
437.447614	2463.047275
437.823946	2460.798921
438.200218	2464.804117
438.576429	2464.080712
438.952580	2463.332101
439.328670	2465.938377
439.704700	2460.360340
440.080670	2464.499128
440.456580	2464.000053
440.832429	2462.462502
441.208218	2464.909982
441.583947	2464.393263
441.959616	2461.834878
442.335224	2461.265228
442.710773	2461.507203
443.086261	2463.669858
443.461689	2462.346555
443.837057	2464.239508
444.212365	2467.324694
444.587612	2463.228757
444.962800	2463.974848
445.337927	2463.730352
445.712995	2460.037707
446.088002	2467.377627
446.462949	2466.089612
446.837837	2465.976186
447.212664	2464.753706
447.587431	2465.134313
447.962139	2464.060547
448.336786	2465.136834
448.711374	2467.536423
449.085901	2467.186063
449.460369	2465.772019
449.834776	2467.181022
450.209124	2468.433748
450.583412	2468.426187
450.957640	2467.017184
451.331808	2466.308902
451.705917	2465.741772
452.079965	2466.692030
452.453954	2465.829992
452.827883	2466.465178
453.201752	2464.335290
453.575562	2465.865280
453.949311	2466.460137
454.323001	2466.066927
454.696632	2466.021556
455.070202	2466.692030
455.443713	2471.004737
455.817164	2467.980044
456.190556	2468.476598
456.563888	2468.935343
456.937160	2466.356793
457.310373	2469.595734
457.683526	2467.417956
458.056619	2468.937864
458.429653	2466.815538
458.802628	2468.302678
459.175542	2465.545167
459.548398	2468.670682
459.921194	2467.329736
460.293930	2470.535909
460.666607	2468.602627
461.039224	2467.097843
461.411782	2468.584983
461.784280	2472.055817
462.156719	2469.212607
462.529099	2469.447020
462.901419	2467.387709
463.273680	2467.312092
463.645882	2464.163891
464.018024	2466.598768
464.390106	2464.816720
464.762130	2467.768316
465.134094	2470.356948
465.505999	2469.741928
465.877845	2472.010447
466.249631	2472.186887
466.621358	2468.080868
466.993026	2471.140848
467.364634	2473.870633
467.736184	2471.168574
468.107674	2470.447689
468.479105	2468.088429
468.850477	2470.571197
469.221790	2471.334932
469.593043	2466.984417
469.964238	2472.438945
470.335373	2473.742083
470.706449	2471.702937
471.077467	2470.019191
471.448425	2471.541620
471.819324	2471.309727
472.190164	2469.779736
472.560945	2472.776702
472.931667	2470.765282
473.302330	2471.176136
473.672934	2472.101188
474.043479	2470.556074
474.413965	2471.894500
474.784393	2472.370889
475.154761	2470.102370
475.525070	2469.797380
475.895321	2470.571198
476.265513	2472.491877
476.635645	2472.045735
477.005719	2470.414922
477.375734	2470.235961
477.745691	2472.852320
478.115588	2471.271918
478.485427	2471.811321
478.855207	2472.620427
479.224928	2471.284521
479.594591	2472.582618
479.964194	2473.028760
480.333739	2471.307206
480.703226	2473.633698
481.072653	2470.790488
481.442022	2474.868781
481.811333	2469.812504
482.180584	2469.477267
482.549777	2471.271918
482.918912	2469.295786
483.287988	2473.522793
483.657005	2471.168574
484.025964	2473.800057
484.394864	2471.546661
484.763706	2473.386682
485.132489	2472.443986
485.501213	2473.474902
485.869879	2475.443473
486.238487	2475.776189
486.607036	2473.797536
486.975527	2471.834007
487.343959	2473.101857
487.712333	2473.941209
488.080648	2473.840386
488.448905	2472.446507
488.817104	2475.662763
489.185244	2473.729480
489.553326	2474.281487
489.921350	2473.059007
490.289315	2474.210911
490.657222	2475.733339
491.025070	2472.748976
491.392861	2475.531693
491.760593	2474.664614
492.128267	2473.873153
492.495883	2472.600262
492.863440	2473.502628
493.230939	2474.102526
493.598380	2475.219141
493.965763	2473.996662
494.333088	2472.917855
494.700354	2474.868781
495.067563	2472.479274
495.434713	2473.021198
495.801805	2470.838379
496.168839	2475.539255
496.535815	2474.823411
496.902733	2472.698564
497.269593	2476.144193
497.636395	2472.257463
498.003139	2478.082517
498.369825	2475.209059
498.736453	2472.801908
499.103023	2473.973976
499.469535	2475.357773
499.835989	2471.491208
500.202385	2472.630509
500.568723	2470.026753
500.935003	2473.006075
501.301226	2467.072637
501.667390	2475.662763
502.033497	2476.401292
502.399546	2478.342136
502.765537	2471.760910
503.131470	2477.238123
503.497345	2475.032619
503.863163	2473.570684
504.228923	2474.641929
504.594625	2476.776858
504.960269	2474.031950
505.325856	2476.320633
505.691385	2476.169399
506.056856	2476.098823
506.422270	2473.409367
506.787625	2475.337608
507.152924	2476.179481
507.518164	2475.687969
507.883347	2472.620427
508.248472	2475.188894
508.613540	2471.735704
508.978550	2475.400623
509.343503	2475.713174
509.708398	2476.678555
510.073236	2473.989100
510.438016	2474.125211
510.802738	2473.013637
511.167403	2474.536065
511.532010	2475.032619
511.896561	2477.414564
512.261053	2473.754686
512.625488	2473.996662
512.989866	2475.582104
513.354186	2479.325161
513.718449	2475.249388
514.082655	2477.132259
514.446803	2476.529841
514.810894	2476.325675
515.174927	2478.079996
515.538904	2476.577732
515.902822	2478.105202
516.266684	2476.121508
516.630488	2477.283494
516.994235	2476.166878
517.357925	2476.144193
517.721558	2476.126549
518.085133	2475.065386
518.448651	2474.586477
518.812112	2471.506332
519.175516	2473.953812
519.538863	2469.031125
519.902152	2472.726291
520.265385	2474.697382
520.628560	2477.346508
520.991678	2473.056486
521.354739	2476.557568
521.717743	2475.461117
522.080690	2478.329533
522.443580	2476.040849
522.806413	2476.610500
523.169189	2475.791312
523.531908	2476.156796
523.894569	2477.399440
524.257174	2476.267701
524.619722	2474.606641
524.982213	2475.597228
525.344647	2477.286014
525.707025	2477.210397
526.069345	2477.976653
526.431608	2475.438432
526.793815	2475.456076
527.155964	2476.630664
527.518057	2476.320633
527.880093	2477.485140
528.242072	2476.701241
528.603995	2476.373566
528.965860	2477.709471
529.327669	2475.635037
529.689421	2477.848103
530.051117	2478.120325
530.412755	2476.746611
530.774337	2479.713330
531.135862	2473.888277
531.497331	2479.057980
531.858743	2474.699903
532.220098	2479.705768
532.581396	2478.097640
532.942638	2475.274594
533.303824	2477.449852
533.664953	2478.127887
534.026025	2473.668987
534.387040	2478.011941
534.747999	2477.182671
535.108902	2477.233082
535.469748	2475.892135
535.830537	2477.724595
536.191270	2479.012610
536.551947	2476.045891
536.912567	2474.004223
537.273131	2475.607310
537.633638	2474.185705
537.994089	2478.112764
538.354483	2477.185191
538.714821	2480.575367
539.075103	2476.358442
539.435328	2477.210397
539.795497	2478.899184
540.155609	2477.253247
540.515665	2478.213587
540.875665	2478.931951
541.235609	2480.567806
541.595496	2476.774337
541.955328	2477.679224
542.315102	2477.089409
542.674821	2474.785602
543.034483	2477.313741
543.394090	2479.267188
543.753640	2476.499594
544.113134	2479.930100
544.472571	2477.089409
544.831953	2476.663432
545.191278	2478.158134
545.550548	2477.207877
545.909761	2477.263329
546.268918	2474.561271
546.628019	2476.872640
546.987064	2474.969604
547.346053	2478.624441
547.704986	2477.981694
548.063863	2477.699389
548.422684	2476.809625
548.781449	2476.015644
549.140158	2479.488999
549.498811	2477.316261
549.857408	2476.660911
550.215949	2477.757362
550.574434	2476.242496
550.932864	2476.852475
551.291237	2479.773824
551.649555	2478.810963
552.007817	2478.347177
552.366022	2478.861375
552.724173	2477.533031
553.082267	2477.638895
553.440305	2475.279635
553.798288	2475.589666
554.156215	2478.263998
554.514086	2474.548668
554.871902	2472.081023
555.229661	2476.391210
555.587365	2471.904583
555.945014	2479.478916
556.302606	2477.792650
556.660143	2477.959008
557.017625	2477.555716
557.375050	2479.206694
557.732421	2477.480099
558.089735	2479.857003
558.446994	2478.382465
558.804197	2474.752835
559.161345	2476.194605
559.518437	2477.270891
559.875474	2476.484471
560.232455	2477.394399
560.589381	2478.349698
560.946251	2478.067393
561.303065	2477.069245
561.659825	2479.478916
562.016528	2476.844913
562.373177	2476.708802
562.729770	2478.206025
563.086307	2478.369863
563.442789	2479.231900
563.799216	2475.995479
564.155587	2478.614358
564.511904	2478.775675
564.868164	2479.887250
565.224370	2477.049080
565.580520	2478.402630
565.936615	2479.095789
566.292654	2478.944554
566.648638	2478.004379
567.004567	2479.216776
567.360441	2478.521097
567.716260	2478.208546
568.072023	2478.614358
568.427732	2476.275263
568.783385	2476.456745
569.138982	2480.078814
569.494525	2474.914152
569.850013	2478.813484
570.205445	2476.781899
570.560823	2478.097640
570.916145	2480.240131
571.271412	2479.398258
571.626625	2480.335913
571.981782	2481.142497
572.336884	2476.912969
572.691931	2473.916003
573.046923	2474.357104
573.401860	2471.586990
573.756743	2479.930100
574.111570	2476.587815
574.466342	2480.111581
574.821059	2479.819194
575.175722	2478.584112
575.530330	2479.604945
575.884882	2478.137969
576.239380	2476.701241
576.593823	2480.129225
576.948211	2478.032105
577.302544	2478.997486
577.656823	2476.948257
578.011047	2480.519915
578.365216	2478.400109
578.719330	2479.753659
579.073389	2478.523618
579.427394	2476.073617
579.781344	2476.829790
580.135239	2476.769296
580.489080	2476.187043
580.842866	2477.827938
581.196597	2483.915132
581.550273	2479.244503
581.903895	2478.082517
582.257463	2477.323823
582.610975	2477.762403
582.964434	2477.364152
583.317837	2477.386837
583.671186	2479.922538
584.024481	2479.040336
584.377721	2480.807260
584.730906	2479.350367
585.084037	2477.664101
585.437113	2476.597897
585.790135	2479.050418
586.143103	2474.563791
586.496016	2479.241982
586.848874	2478.422795
587.201679	2477.074286
587.554428	2479.103350
587.907124	2479.662918
588.259765	2478.682414
588.612352	2477.762403
588.964884	2477.089409
589.317362	2479.922538
589.669786	2479.075624
590.022155	2474.513380
590.374470	2475.261991
590.726731	2474.483133
591.078937	2475.042701
591.431090	2475.950109
591.783188	2476.988586
592.135232	2478.379945
592.487222	2477.593525
592.839157	2478.246354
593.191038	2479.123515
593.542866	2478.516056
593.894639	2478.911787
594.246358	2477.608648
594.598022	2478.198463
594.949633	2474.808287
595.301190	2478.889101
595.652692	2476.618062
596.004141	2476.905407
596.355535	2477.031436
596.706876	2477.578401
597.058162	2478.453042
597.409395	2477.946406
597.760573	2477.520428
598.111698	2475.319964
598.462768	2480.650985
598.813785	2479.431025
599.164748	2478.289204
599.515657	2478.816005
599.866511	2478.140490
600.217312	2477.656539
600.568060	2476.555047
600.918753	2479.650316
601.269392	2478.901704
601.619978	2480.545120
601.970510	2474.926754
602.320988	2478.805922
602.671412	2479.002527
603.021783	2477.283494
603.372100	2477.800212
603.722363	2478.458083
604.072572	2480.310707
604.422728	2476.907928
604.772830	2478.478247
605.122878	2476.676035
605.472872	2476.444142
605.822813	2477.820377
606.172701	2477.235603
606.522534	2478.392548
606.872314	2477.409523
607.222041	2477.681745
607.571714	2474.510859
607.921333	2472.270066
608.270899	2476.272742
608.620411	2472.809470
608.969870	2478.795840
609.319276	2477.502784
609.668627	2479.355408
610.017926	2475.377938
610.367171	2475.418267
610.716362	2478.460603
611.065500	2478.077476
611.414585	2477.868268
611.763616	2479.141159
612.112594	2477.197794
612.461518	2479.965388
612.810389	2476.728967
613.159207	2479.189050
613.507971	2477.331385
613.856682	2478.931951
614.205340	2476.973463
614.553945	2477.487661
614.902496	2478.944554
615.250994	2477.172588
615.599439	2478.052270
615.947830	2478.178299
616.296169	2476.358442
616.644454	2478.500933
616.992686	2477.792650
617.340864	2477.906076
617.688990	2479.052939
618.037063	2477.608648
618.385082	2477.911118
618.733048	2476.000520
619.080961	2476.265181
619.428821	2476.834831
619.776628	2478.188381
620.124382	2477.616210
620.472083	2479.241982
620.819731	2477.308700
621.167326	2477.321303
621.514868	2476.366004
621.862357	2477.129739
622.209793	2476.184522
622.557176	2479.584781
622.904506	2478.243834
623.251783	2478.286683
623.599007	2476.844913
623.946179	2478.601756
624.293297	2479.703248
624.640363	2480.860193
624.987376	2476.340798
625.334336	2472.239819
625.681243	2473.706795
626.028097	2472.786785
626.374899	2478.364821
626.721647	2476.862558
627.068343	2479.549493
627.414987	2477.459934
627.761577	2477.994297
628.108115	2478.032105
628.454600	2476.877681
628.801032	2478.747949
629.147412	2479.070583
629.493739	2477.684266
629.840014	2476.681076
630.186236	2479.811633
630.532405	2477.782568
630.878521	2477.258288
631.224585	2476.756693
631.570597	2477.298617
631.916556	2478.231231
632.262462	2478.415233
632.608316	2477.830459
632.954117	2475.783751
633.299866	2476.900366
633.645562	2479.541931
633.991206	2478.256437
634.336797	2478.185860
634.682336	2475.965232
635.027823	2478.344657
635.373257	2478.395068
635.718639	2479.496560
636.063968	2478.768114
636.409245	2476.842393
636.754470	2479.093268
637.099642	2477.853144
637.444762	2478.861375
637.789829	2477.243165
638.134845	2478.339616
638.479808	2476.791981
638.824719	2479.325161
639.169577	2478.700058
639.514383	2475.766107
639.859137	2475.584625
640.203839	2477.633854
640.548489	2477.568319
640.893086	2476.323154
641.237632	2479.100830
641.582125	2478.773155
641.926566	2475.367855
642.270955	2476.247537
642.615292	2475.299800
642.959576	2474.160499
643.303809	2472.612865
643.647990	2476.925572
643.992118	2478.256437
644.336195	2475.619913
644.680219	2478.621920
645.024192	2473.479943
645.368112	2475.115798
645.711981	2479.030254
646.055797	2480.063690
646.399562	2476.300469
646.743274	2476.136631
647.086935	2476.192084
647.430544	2478.634523
647.774101	2477.170068
648.117606	2479.241982
648.461059	2477.049080
648.804460	2481.492857
649.147810	2475.009933
649.491108	2478.369863
649.834354	2477.228041
650.177548	2477.096971
650.520690	2478.747949
650.863781	2476.597897
651.206820	2477.159986
651.549807	2476.877681
651.892742	2478.873978
652.235626	2475.410705
652.578458	2476.963381
652.921238	2478.972280
653.263967	2479.103350
653.606644	2478.180819
653.949269	2478.846252
654.291843	2476.275263
654.634365	2477.152424
654.976836	2477.853144
655.319255	2477.303658
655.661622	2477.071765
656.003938	2475.829121
656.346203	2479.075624
656.688416	2475.723257
657.030577	2476.280304
657.372687	2475.877012
657.714746	2476.698720
658.056753	2477.026395
658.398708	2477.898515
658.740612	2476.121508
659.082465	2477.202835
659.424266	2474.699903
659.766016	2473.290900
660.107715	2471.965077
660.449362	2471.740745
660.790958	2478.057311
661.132503	2477.134780
661.473996	2476.930613
661.815438	2476.250057
662.156829	2477.706951
662.498168	2478.079996
662.839456	2477.343988
663.180693	2477.429687
663.521879	2475.945067
663.863013	2474.246199
664.204097	2478.747949
664.545129	2478.319451
664.886110	2479.307517
665.227040	2476.802064
665.567918	2477.061683
665.908746	2476.723926
666.249522	2475.914821
666.590248	2479.597383
666.930922	2478.228710
667.271545	2475.289717
667.612118	2478.291725
667.952639	2478.296766
668.293109	2476.983545
668.633528	2476.963381
668.973896	2477.845583
669.314213	2474.462968
669.654480	2476.378607
669.994695	2475.917341
670.334859	2478.810963
670.674973	2477.565798
671.015035	2479.055459
671.355047	2476.005561
671.695008	2476.076138
672.034918	2475.428349
672.374777	2480.242651
672.714585	2473.593369
673.054342	2478.258957
673.394049	2475.173771
673.733705	2478.816005
674.073310	2478.125367
674.412864	2477.104533
674.752368	2475.095633
675.091820	2474.772999
675.431223	2476.353401
675.770574	2475.564460
676.109875	2476.444142
676.449125	2474.901549
676.788324	2471.178657
677.127473	2477.182671
677.466571	2470.112452
677.805619	2477.870788
678.144616	2475.330047
678.483562	2477.417084
678.822458	2477.049080
679.161303	2475.451034
679.500098	2477.437249
679.838842	2475.103195
680.177535	2478.052270
680.516179	2478.374904
680.854771	2475.461117
681.193314	2476.250057
681.531805	2476.474389
681.870247	2474.208390
682.208638	2477.263329
682.546978	2474.082361
682.885268	2474.767958
683.223508	2474.888946
683.561697	2475.682928
683.899836	2476.582773
684.237925	2477.323823
684.575963	2475.420787
684.913951	2475.589666
685.251889	2474.815849
685.589776	2477.729636
685.927614	2479.128556
686.265401	2477.928762
686.603137	2477.001189
686.940824	2474.253760
687.278460	2475.977835
687.616046	2476.582773
687.953582	2474.662094
688.291068	2476.154275
688.628504	2476.686117
688.965889	2476.839872
689.303224	2475.400623
689.640510	2477.898515
689.977745	2475.965232
690.314930	2477.172588
690.652065	2477.545634
690.989150	2475.274594
691.326185	2478.095120
691.663170	2474.883905
692.000105	2474.808287
692.336990	2476.512197
692.673825	2476.897846
693.010610	2472.570015
693.347345	2474.636888
693.684030	2471.755869
694.020665	2472.023050
694.357251	2472.191928
694.693786	2478.957157
695.030272	2474.646970
695.366707	2476.124028
695.703093	2476.769296
696.039429	2476.837352
696.375716	2478.039667
696.711952	2473.464820
697.048139	2474.815849
697.384276	2473.515231
697.720363	2473.091774
698.056400	2476.063535
698.392388	2478.533700
698.728326	2479.219297
699.064214	2476.260140
699.400053	2477.790130
699.735842	2474.606641
700.071581	2474.100005
700.407270	2476.366004
700.742910	2478.160655
701.078501	2474.364666
701.414042	2475.859368
701.749533	2474.969604
702.084974	2475.168730
702.420366	2475.088071
702.755709	2477.283494
703.091002	2476.129070
703.426246	2475.602269
703.761440	2475.085551
704.096584	2475.980356
704.431679	2473.759727
704.766725	2474.473051
705.101721	2476.613020
705.436668	2477.104533
705.771565	2477.855665
706.106413	2477.482619
706.441212	2473.638740
706.775961	2476.812146
707.110661	2475.055304
707.445311	2476.358442
707.779913	2475.743421
708.114465	2475.050263
708.448967	2475.844244
708.783421	2478.369863
709.117825	2474.495736
709.452180	2476.242496
709.786485	2476.769296
710.120742	2475.352732
710.454949	2473.515231
710.789107	2473.406847
711.123216	2471.506332
711.457275	2478.289204
711.791286	2476.383648
712.125247	2475.577063
712.459159	2475.219141
712.793023	2475.703092
713.126837	2477.838021
713.460602	2478.253916
713.794318	2476.066055
714.127985	2476.607979
714.461602	2475.879533
714.795171	2475.309882
715.128691	2478.130408
715.462162	2475.756024
715.795584	2473.497587
716.128957	2474.813328
716.462281	2475.907259
716.795556	2474.954481
717.128782	2477.210397
717.461960	2478.654688
717.795088	2476.486992
718.128167	2476.451703
718.461198	2473.179995
718.794180	2475.690489
719.127113	2475.960191
719.459997	2477.553196
719.792833	2474.092443
720.125619	2472.398616
720.458357	2473.278297
720.791046	2474.662094
721.123686	2475.352732
721.456278	2474.525983
721.788821	2475.750983
722.121315	2477.530510
722.453761	2476.492033
722.786158	2475.607310
723.118506	2475.143524
723.450805	2474.662094
723.783056	2477.757362
724.115259	2473.845427
724.447412	2478.369863
724.779518	2475.085551
725.111574	2474.404995
725.443582	2477.391879
725.775542	2474.606641
726.107453	2478.074955
726.439315	2472.849799
726.771129	2473.772330
727.102895	2472.499439
727.434612	2474.437762
727.766281	2467.730507
728.097901	2475.952629
728.429473	2473.946250
728.760996	2477.220479
729.092471	2475.393061
729.423897	2475.120839
729.755276	2473.447176
730.086606	2474.130252
730.417887	2475.254429
730.749120	2475.821559
731.080305	2472.875005
731.411442	2476.091261
731.742530	2472.572536
732.073570	2477.192753
732.404562	2477.696868
732.735506	2476.149234
733.066401	2477.167547
733.397249	2474.319295
733.728048	2476.355922
734.058798	2475.198977
734.389501	2476.275263
734.720156	2476.144193
735.050762	2473.399285
735.381320	2474.430201
735.711831	2474.846096
736.042293	2473.263174
736.372707	2474.591518
736.703073	2472.307875
737.033391	2475.960191
737.363661	2477.880871
737.693883	2476.439101
738.024056	2477.349029
738.354182	2475.423308
738.684260	2473.981538
739.014290	2474.911631
739.344272	2474.921713
739.674207	2475.234265
740.004093	2476.721405
740.333931	2472.857361
740.663722	2474.006744
740.993464	2473.270735
741.323159	2474.800726
741.652806	2473.875674
741.982405	2474.278966
742.311956	2475.544296
742.641460	2470.432566
742.970915	2473.298462
743.300323	2471.269397
743.629683	2467.614561
743.958996	2473.273256
744.288260	2470.508183
744.617477	2472.537248
744.946647	2473.540437
745.275768	2475.214100
745.604842	2473.333750
745.933869	2474.866261
746.262847	2472.466671
746.591778	2471.579428
746.920662	2474.059676
747.249498	2474.132773
747.578286	2473.903400
747.907027	2473.671507
748.235720	2476.192084
748.564365	2475.294759
748.892963	2473.976497
749.221514	2472.801908
749.550017	2476.358442
749.878473	2472.479274
750.206881	2476.403813
750.535242	2472.171764
750.863555	2474.188225
751.191821	2474.883905
751.520039	2473.053966
751.848210	2476.731487
752.176334	2474.359625
752.504411	2472.451548
752.832440	2474.793164
753.160421	2471.314768
753.488356	2474.394913
753.816243	2472.817032
754.144082	2472.953143
754.471875	2472.668317
754.799620	2475.302320
755.127318	2473.144707
755.454969	2473.041363
755.782572	2474.707464
756.110129	2471.886939
756.437638	2475.314923
756.765100	2473.729480
757.092515	2471.990282
757.419882	2474.150417
757.747203	2475.234265
758.074477	2472.852320
758.401703	2474.730149
758.728882	2472.156640
759.056014	2474.377269
759.383099	2473.875674
759.710138	2472.784264
760.037129	2470.808132
760.364073	2472.640591
760.690970	2469.290744
761.017820	2472.837196
761.344623	2474.692341
761.671379	2476.212249
761.998088	2471.753348
762.324751	2473.275777
762.651366	2475.569502
762.977935	2473.810139
763.304456	2470.949284
763.630931	2473.608493
763.957359	2472.660756
764.283740	2475.667804
764.610074	2476.648308
764.936362	2471.851651
765.262602	2472.660756
765.588796	2472.832155
765.914943	2474.246199
766.241044	2474.674697
766.567097	2472.552371
766.893104	2475.556899
767.219064	2473.628657
767.544978	2475.014975
767.870845	2475.514049
768.196665	2473.217803
768.522438	2475.665283
768.848165	2472.005406
769.173846	2474.440283
769.499479	2474.692341
769.825066	2472.259984
770.150607	2474.475571
770.476101	2472.890128
770.801548	2473.336270
771.126949	2474.026908
771.452303	2473.825262
771.777611	2472.398616
772.102872	2475.093113
772.428087	2473.232927
772.753256	2473.759727
773.078378	2472.136476
773.403453	2476.761734
773.728482	2472.537247
774.053465	2471.304685
774.378401	2474.447845
774.703291	2472.507001
775.028135	2473.777371
775.352932	2473.217803
775.677683	2473.139665
776.002388	2469.434417
776.327046	2468.519448
776.651658	2473.734522
776.976224	2472.244861
777.300743	2471.713019
777.625216	2473.268215
777.949643	2473.948771
778.274024	2471.909624
778.598359	2472.164202
778.922647	2470.997175
779.246889	2475.340129
779.571086	2473.742083
779.895236	2472.070941
780.219339	2473.001034
780.543397	2474.450365
780.867409	2472.547330
781.191374	2473.759727
781.515294	2473.668987
781.839167	2473.956332
782.162995	2474.039511
782.486776	2474.853658
782.810511	2471.518934
783.134201	2472.965746
783.457844	2473.779892
783.781441	2472.464151
784.104993	2473.701754
784.428498	2474.921713
784.751958	2474.583956
785.075372	2472.620427
785.398739	2474.152937
785.722061	2473.789974
786.045337	2471.408029
786.368568	2473.172433
786.691752	2472.499439
787.014891	2473.190077
787.337983	2474.092443
787.661030	2470.979531
787.984031	2473.626137
788.306987	2474.488174
788.629897	2472.141517
788.952760	2475.032619
789.275579	2474.689820
789.598351	2472.378451
789.921078	2473.142186
790.243759	2472.585138
790.566395	2472.938019
790.888984	2474.946919
791.211529	2472.696044
791.534027	2475.556899
791.856480	2469.986424
792.178888	2471.987762
792.501249	2469.739407
792.823566	2469.583131
793.145836	2469.089098
793.468062	2473.232927
793.790241	2471.939871
794.112375	2471.624799
794.434464	2473.283338
794.756507	2470.707309
795.078505	2473.681589
795.400457	2471.231589
795.722364	2471.125724
796.044226	2473.613534
796.366042	2470.916517
796.687812	2472.943060
797.009538	2472.877525
797.331218	2473.248050
797.652852	2472.771661
797.974442	2472.988431
798.295986	2472.932978
798.617484	2474.629326
798.938938	2472.827114
799.260346	2473.852989
799.581709	2470.916517
799.903026	2472.262505
800.224299	2473.860550
800.545526	2474.843575
800.866708	2472.068420
801.187845	2472.403657
801.508936	2471.677731
801.829983	2471.907103
802.150984	2470.165385
802.471940	2473.487505
802.792851	2473.442135
803.113717	2471.347535
803.434538	2471.695375
803.755314	2473.767289
804.076045	2472.993472
804.396731	2471.791157
804.717372	2472.428863
805.037967	2472.665797
805.358518	2468.711012
805.679024	2474.664614
805.999485	2470.235961
806.319901	2470.848461
806.640272	2471.418111
806.960598	2472.010447
807.280879	2473.172433
807.601115	2473.467340
807.921306	2472.224696
808.241453	2472.781743
808.561554	2466.949128
808.881611	2469.424335
809.201623	2467.296968
809.521590	2472.827114
809.841513	2471.105560
810.161390	2474.634367
810.481223	2472.703606
810.801011	2473.611013
811.120755	2470.465333
811.440453	2473.603452
811.760107	2469.502473
812.079716	2473.598410
812.399281	2471.960035
812.718801	2474.412557
813.038276	2474.399954
813.357707	2472.600262
813.677093	2473.477423
813.996434	2473.976497
814.315731	2471.687813
814.634983	2471.831486
814.954191	2471.206383
815.273354	2472.386013
815.592473	2472.570015
815.911547	2474.226034
816.230577	2474.490695
816.549562	2469.842751
816.868502	2471.992803
817.187399	2470.944243
817.506250	2471.639922
817.825058	2472.509521
818.143821	2474.576394
818.462539	2472.471713
818.781213	2474.077320
819.099843	2470.929119
819.418429	2475.050263
819.736970	2473.699233
820.055466	2472.680920
820.373919	2473.427011
820.692327	2471.211424
821.010691	2472.711167
821.329011	2472.126393
821.647286	2474.478092
821.965517	2473.041363
822.283704	2473.918524
822.601847	2474.105046
822.919945	2472.822073
823.237999	2475.198977
823.556010	2475.156127
823.873976	2473.159830
824.191897	2469.739407
824.509775	2468.186732
824.827609	2469.845271
825.145398	2466.961731
825.463144	2468.895014
825.780845	2473.502628
826.098502	2472.154120
826.416116	2474.604121
826.733685	2474.016826
827.051210	2471.579428
827.368692	2474.364666
827.686129	2470.258646
828.003522	2475.070427
828.320872	2475.004892
828.638177	2475.982876
828.955439	2471.967597
829.272656	2473.122021
829.589830	2470.276290
829.906960	2473.137145
830.224046	2470.094808
830.541088	2473.580766
830.858086	2468.799232
831.175041	2474.682258
831.491952	2471.453399
831.808819	2471.387864
832.125642	2470.946763
832.442421	2472.249902
832.759157	2471.634881
833.075849	2470.271249
833.392497	2472.713688
833.709101	2471.007257
834.025662	2473.316106
834.342179	2472.456589
834.658653	2473.237968
834.975083	2471.544140
835.291469	2475.473720
835.607811	2471.660087
835.924110	2472.496918
836.240366	2471.448358
836.556578	2471.748307
836.872746	2471.092957
837.188871	2471.231589
837.504952	2473.273256
837.820990	2471.856692
838.136984	2470.528348
838.452935	2474.722588
838.768842	2471.705457
839.084706	2472.121352
839.400526	2471.516414
839.716303	2469.762092
840.032037	2469.459623
840.347727	2466.560960
840.663373	2472.723770
840.978977	2465.214972
841.294537	2471.828965
841.610054	2470.369551
841.925527	2471.246712
842.240957	2472.375931
842.556344	2469.701598
842.871687	2472.408698
843.186987	2473.555561
843.502244	2469.673872
843.817458	2472.612865
844.132629	2472.867443
844.447756	2469.895683
844.762840	2471.922227
845.077881	2468.408543
845.392879	2473.288379
845.707833	2470.200673
846.022745	2472.252422
846.337613	2470.220837
846.652438	2470.798049
846.967221	2471.435755
847.281960	2468.819397
847.596656	2470.682103
847.911309	2470.029273
848.225919	2471.067751
848.540485	2471.607155
848.855009	2468.448872
849.169490	2470.525827
849.483928	2473.434573
849.798323	2468.065744
850.112675	2472.322998
850.426984	2468.867287
850.741251	2473.127062
851.055474	2468.731176
851.369654	2471.289562
851.683792	2468.032977
851.997887	2471.670169
852.311938	2470.765282
852.625947	2471.493729
852.939914	2471.927268
853.253837	2474.412557
853.567718	2471.100519
853.881555	2469.283183
854.195350	2470.881228
854.509103	2470.775364
854.822812	2467.468367
855.136479	2469.913327
855.450103	2469.663790
855.763685	2471.261836
856.077224	2467.964921
856.390720	2469.119345
856.704173	2464.993161
857.017584	2470.586321
857.330953	2469.701598
857.644278	2468.763944
857.957561	2471.352576
858.270802	2469.930971
858.584000	2469.421814
858.897155	2470.074644
859.210268	2472.887608
859.523339	2474.679738
859.836367	2470.251084
860.149352	2469.809983
860.462295	2472.922896
860.775195	2470.828296
861.088054	2469.487349
861.400869	2473.046404
861.713642	2469.595734
862.026373	2469.434417
862.339062	2469.411732
862.651708	2470.873667
862.964312	2467.859057
863.276873	2473.457258
863.589392	2471.282000
863.901869	2467.302009
864.214303	2471.034984
864.526696	2471.108080
864.839045	2469.136989
865.151353	2471.261836
865.463619	2470.026753
865.775842	2473.570684
866.088023	2468.141361
866.400162	2472.040694
866.712258	2469.484829
867.024313	2468.448872
867.336325	2470.702268
867.648296	2469.633543
867.960224	2469.177318
868.272110	2470.682103
868.583954	2470.414922
868.895755	2468.741259
869.207515	2470.291413
869.519233	2468.766464
869.830909	2468.917699
870.142542	2473.273256
870.454134	2469.888121
870.765684	2469.966259
871.077191	2470.661938
871.388657	2472.648153
871.700081	2465.804787
872.011463	2467.291927
872.322803	2464.128603
872.634101	2469.578090
872.945357	2467.957359
873.256571	2470.994654
873.567744	2471.367700
873.878874	2471.072792
874.189963	2469.557926
874.501010	2471.342494
874.812015	2471.115642
875.122979	2473.114460
875.433900	2469.278142
875.744780	2471.851651
876.055618	2470.409881
876.366415	2471.415591
876.677169	2469.212607
876.987882	2470.571198
877.298554	2470.702268
877.609183	2471.521455
877.919771	2470.573718
878.230317	2470.278811
878.540822	2470.157823
878.851285	2471.181177
879.161707	2468.179170
879.472087	2469.663790
879.782425	2471.188739
880.092722	2472.817032
880.402977	2471.576908
880.713191	2471.566825
881.023363	2471.647484
881.333494	2473.109418
881.643583	2468.211938
881.953631	2469.759572
882.263637	2471.085395
882.573602	2470.432566
882.883526	2467.082719
883.193408	2469.338635
883.503248	2469.915848
883.813048	2471.113122
884.122806	2469.613378
884.432522	2469.570528
884.742197	2470.530868
885.051831	2470.901393
885.361424	2471.604634
885.670975	2468.504324
885.980485	2469.426856
886.289954	2470.291413
886.599382	2471.841568
886.908768	2469.792339
887.218113	2466.518110
887.527417	2470.104891
887.836680	2464.020218
888.145901	2469.121866
888.455082	2468.453913
888.764221	2469.023563
889.073319	2469.890642
889.382376	2468.912658
889.691392	2471.889459
890.000366	2467.173460
890.309300	2470.737556
890.618193	2472.617906
890.927044	2469.930971
891.235855	2468.620271
891.544625	2468.237143
891.853353	2469.568008
892.162041	2465.303192
892.470687	2472.202011
892.779293	2466.376958
893.087858	2466.755044
893.396381	2469.474747
893.704864	2472.839717
894.013306	2471.826445
894.321707	2469.255456
894.630068	2468.038018
894.938387	2468.332925
895.246665	2469.890642
895.554903	2469.290744
895.863100	2474.009264
896.171256	2468.390898
896.479371	2470.793008
896.787446	2469.953656
897.095480	2467.624643
897.403473	2469.200004
897.711425	2468.658080
898.019336	2467.201186
898.327207	2468.214458
898.635038	2470.533389
898.942827	2466.666824
899.250576	2471.508852
899.558284	2470.921558
899.865952	2469.525158
900.173579	2469.958697
900.481165	2470.225878
900.788711	2471.264356
901.096216	2467.969962
901.403681	2466.891155
901.711105	2472.161682
902.018489	2468.950467
902.325832	2468.791670
902.633135	2465.824951
902.940397	2469.089098
903.247619	2466.172791
903.554800	2472.023050
903.861941	2470.326702
904.169041	2470.709829
904.476101	2469.595734
904.783121	2468.653038
905.090100	2467.072637
905.397039	2468.259828
905.703938	2471.183698
906.010796	2469.033646
906.317614	2468.108594
906.624391	2469.278142
906.931129	2469.200004
907.237826	2470.099850
907.544483	2469.268059
907.851099	2469.305868
908.157675	2469.230251
908.464211	2467.826289
908.770707	2467.052472
909.077163	2468.768985
909.383578	2471.687813
909.689954	2469.381485
909.996289	2470.798049
910.302584	2468.937864
910.608839	2468.756382
910.915054	2470.059520
911.221229	2469.683954
911.527363	2470.170426
911.833458	2468.317802
912.139513	2471.652525
912.445527	2469.182360
912.751502	2467.231433
913.057436	2468.753862
913.363331	2470.891311
913.669186	2469.368882
913.975000	2467.675055
914.280775	2469.857874
914.586510	2472.065900
914.892205	2469.139510
915.197859	2467.412915
915.503475	2466.162708
915.809050	2469.961218
916.114585	2468.854685
916.420081	2469.368882
916.725536	2469.588172
917.030952	2470.177987
917.336328	2470.583800
917.641665	2466.482822
917.946961	2466.525672
918.252218	2467.657411
918.557435	2465.570373
918.862612	2470.777885
919.167750	2466.797894
919.472848	2470.167905
919.777906	2468.592545
920.082925	2468.900055
920.387904	2469.474747
920.692843	2469.958697
920.997743	2469.091619
921.302603	2470.387195
921.607423	2467.727987
921.912204	2467.896865
922.216946	2466.379478
922.521647	2470.614047
922.826310	2466.077009
923.130932	2470.215796
923.435516	2467.982565
923.740059	2468.907617
924.044564	2467.614561
924.349028	2471.062710
924.653454	2466.114818
924.957840	2471.796198
925.262186	2465.225054
925.566493	2469.966259
925.870761	2467.082719
926.174989	2468.642956
926.479178	2466.734879
926.783328	2470.558595
927.087438	2470.258646
927.391509	2470.150261
927.695541	2469.888121
927.999533	2467.221351
928.303486	2467.601958
928.607400	2469.227730
928.911275	2468.723615
929.215110	2467.153295
929.518906	2468.572380
929.822663	2466.828141
930.126381	2470.084726
930.430060	2468.408542
930.733699	2470.472895
931.037299	2470.125055
931.340861	2470.931640
931.644383	2468.877370
931.947866	2470.291413
932.251309	2468.562298
932.554714	2466.727318
932.858080	2468.491722
933.161407	2465.275465
933.464694	2467.349900
933.767943	2464.078191
934.071153	2468.232102
934.374323	2469.888121
934.677455	2467.072637
934.980548	2470.964408
935.283602	2465.890486
935.586617	2467.871660
935.889593	2463.843778
936.192530	2472.731332
936.495428	2467.468367
936.798287	2470.172946
937.101108	2466.719756
937.403890	2469.136989
937.706632	2469.530199
938.009336	2465.640949
938.312002	2469.300827
938.614628	2467.866618
938.917216	2470.876187
939.219765	2465.772019
939.522275	2465.693881
939.824747	2469.600775
940.127179	2469.386526
940.429573	2470.268728
940.731929	2467.037349
941.034246	2467.062554
941.336524	2466.404684
941.638763	2467.135651
941.940964	2466.555918
942.243126	2467.138172
942.545250	2468.020374
942.847335	2469.620940
943.149381	2467.105404
943.451389	2469.079016
943.753359	2469.089098
944.055290	2469.515076
944.357182	2468.131279
944.659036	2468.789150
944.960851	2468.358131
945.262628	2468.884932
945.564367	2466.543316
945.866067	2469.867957
946.167729	2467.463326
946.469352	2467.322174
946.770937	2467.997688
947.072484	2465.766978
947.373992	2466.245888
947.675462	2468.940384
947.976893	2465.651031
948.278286	2465.893007
948.579641	2464.224385
948.880958	2463.962245
949.182236	2469.134469
949.483476	2470.367031
949.784678	2469.310909
950.085841	2466.656742
950.386967	2471.408029
950.688054	2470.235961
950.989103	2468.053141
951.290114	2466.240846
951.591087	2469.966259
951.892021	2467.748151
952.192917	2468.584983
952.493776	2465.817389
952.794596	2467.493573
953.095378	2467.450723
953.396122	2468.068265
953.696828	2466.240846
953.997496	2467.233954
954.298126	2468.844602
954.598718	2468.491722
954.899272	2468.214458
955.199788	2467.541464
955.500266	2470.790488
955.800706	2468.642956
956.101108	2469.174798
956.401472	2468.708491
956.701798	2467.128089
957.002087	2464.668006
957.302337	2467.168419
957.602550	2469.036166
957.902724	2468.254787
958.202861	2470.520786
958.502960	2470.747638
958.803022	2466.223202
959.103045	2471.072792
959.403031	2467.339818
959.702979	2467.357462
960.002889	2469.966259
960.302762	2467.092801
960.602596	2468.627833
960.902393	2469.464664
961.202153	2468.897534
961.501875	2468.136320
961.801559	2467.753193
962.101205	2467.523820
962.400814	2469.268059
962.700385	2466.939046
962.999918	2467.377627
963.299414	2462.858232
963.598873	2464.801597
963.898293	2464.904941
964.197677	2469.053810
964.497022	2466.901238
964.796331	2466.339149
965.095601	2465.545167
965.394835	2471.007257
965.694030	2469.169757
965.993189	2466.787812
966.292309	2468.612709
966.591393	2466.850826
966.890439	2466.001392
967.189447	2467.528861
967.488419	2464.970476
967.787353	2468.910137
968.086249	2466.775209
968.385108	2466.760085
968.683930	2469.320991
968.982714	2466.099694
969.281462	2465.419138
969.580172	2466.177832
969.878844	2464.063068
970.177480	2469.595734
970.476078	2464.002574
970.774639	2469.142030
971.073162	2468.690847
971.371649	2466.664303
971.670098	2467.886783
971.968510	2468.937864
972.266885	2468.075826
972.565223	2468.554736
972.863524	2465.099025
973.161788	2467.246557
973.460014	2467.801083
973.758204	2468.189252
974.056356	2469.736887
974.354471	2466.747482
974.652550	2467.228913
974.950591	2469.268059
975.248595	2468.438789
975.546563	2467.791001
975.844493	2467.619602
976.142386	2468.635394
976.440243	2467.700260
976.738062	2470.137658
977.035845	2467.521299
977.333590	2468.796711
977.631299	2465.792184
977.928971	2471.082875
978.226606	2462.356637
978.524204	2463.934518
978.821765	2460.909826
979.119290	2469.346197
979.416777	2467.435600
979.714228	2465.686319
980.011642	2467.854016
980.309020	2466.596248
980.606360	2466.883593
980.903664	2467.221351
981.200931	2467.168419
981.498162	2467.024746
981.795356	2468.645477
982.092513	2466.739921
982.389633	2465.749334
982.686717	2467.170939
982.983764	2467.639767
983.280775	2466.457616
983.577749	2468.043059
983.874686	2465.953501
984.171587	2467.276803
984.468451	2467.022225
984.765279	2465.615743
985.062070	2467.526341
985.358824	2465.875363
985.655543	2466.407204
985.952224	2466.482822
986.248869	2465.388891
986.545478	2465.824951
986.842050	2467.128089
987.138586	2466.094653
987.435086	2467.400312
987.731549	2467.244036
988.027975	2468.799232
988.324366	2465.943418
988.620719	2465.567852
988.917037	2465.356124
989.213318	2467.697740
989.509563	2467.112966
989.805772	2468.736217
990.101944	2466.455095
990.398080	2464.814200
990.694180	2466.024077
990.990244	2467.269242
991.286271	2467.478450
991.582262	2467.753192
991.878217	2466.694550
992.174136	2468.557257
992.470019	2466.394602
992.765865	2466.079529
993.061676	2463.826134
993.357450	2463.581638
993.653188	2463.450568
993.948890	2467.622123
994.244556	2465.451906
994.540186	2465.136834
994.835780	2467.670013
995.131337	2467.228913
995.426859	2468.496763
995.722345	2468.849643
996.017795	2467.995168
996.313208	2466.568521
996.608586	2468.247226
996.903928	2465.764457
997.199234	2466.949128
997.494504	2468.363172
997.789738	2465.827472
998.084936	2466.964252
998.380099	2463.395115
998.675225	2466.863429
998.970316	2466.497945
999.265371	2465.900568
999.560390	2466.341669
999.855373	2466.888635
1000.150320	2468.831999
1000.445232	2466.445013
1000.740108	2466.475260
1001.034948	2466.281176
1001.329752	2468.721094
1001.624521	2466.654221
1001.919254	2468.121197
1002.213951	2467.740590
1002.508613	2468.022894
1002.803239	2467.874180
1003.097829	2465.464509
1003.392384	2466.860908
1003.686903	2463.705146
1003.981386	2464.110959
1004.275834	2466.155147
1004.570246	2466.515589
1004.864623	2463.745475
1005.158964	2465.640949
1005.453270	2466.205558
1005.747540	2468.300158
1006.041775	2466.563480
1006.335974	2466.674386
1006.630138	2466.346711
1006.924266	2466.991978
1007.218359	2463.702625
1007.512416	2466.490383
1007.806438	2461.361009
1008.100425	2462.525516
1008.394376	2461.368571
1008.688292	2466.568521
1008.982172	2466.664303
1009.276017	2465.598099
1009.569827	2465.101546
1009.863602	2464.113479
1010.157341	2465.779581
1010.451045	2468.121197
1010.744714	2464.715897
1011.038347	2469.154633
1011.331945	2468.307719
1011.625508	2466.263532
1011.919036	2467.743110
1012.212528	2465.817389
1012.505986	2467.433079
1012.799408	2465.467029
1013.092795	2464.279838
1013.386147	2464.494087
1013.679464	2464.814200
1013.972745	2466.780250
1014.265992	2467.513738
1014.559204	2468.998358
1014.852380	2466.157667
1015.145521	2465.668675
1015.438628	2465.663634
1015.731699	2466.213120
1016.024736	2465.739252
1016.317737	2466.465178
1016.610703	2466.727318
1016.903635	2468.073306
1017.196531	2467.289406
1017.489393	2466.361834
1017.782219	2465.235136
1018.075011	2464.010136
1018.367768	2464.741103
1018.660490	2466.026597
1018.953177	2466.026597
1019.245829	2466.026597
