Dividing Wavelength (nm)	Counts (n)	Blue Motor Position (mm): 0.000000	Red Motor Position (mm): 47.500000	
326.493990	2054.570141
326.888308	2054.570141
327.282561	2054.570141
327.676750	2028.855215
328.070874	2030.133148
328.464933	2035.388551
328.858929	2045.203677
329.252859	2057.294885
329.646726	2067.934240
330.040528	2083.892012
330.434265	2099.905238
330.827938	2121.579678
331.221547	2142.117339
331.615091	2164.610968
332.008571	2182.365912
332.401986	2202.749817
332.795338	2223.852087
333.188625	2240.654253
333.581847	2261.469177
333.975006	2280.144132
334.368100	2299.328243
334.761129	2313.100675
335.154095	2330.495176
335.546996	2381.279760
335.939833	2490.733292
336.332606	2499.726711
336.725315	2517.673218
337.117960	2526.535567
337.510540	2535.755837
337.903056	2542.924358
338.295508	2548.368804
338.687896	2557.727706
339.080220	2561.700136
339.472480	2567.749520
339.864676	2572.939388
340.256807	2573.183884
340.648875	2574.134142
341.040879	2576.243864
341.432818	2580.488516
341.824694	2581.557241
342.216506	2579.926427
342.608253	2579.626479
342.999937	2576.760583
343.391557	2579.376942
343.783113	2578.373752
344.174605	2576.843762
344.566033	2571.782443
344.957397	2573.272104
345.348697	2571.018708
345.739934	2570.045766
346.131106	2566.264900
346.522215	2564.102245
346.913260	2565.609550
347.304241	2567.346228
347.695159	2562.189127
348.086012	2559.945814
348.476802	2559.083777
348.867528	2552.789896
349.258191	2552.782334
349.648789	2554.168652
350.039324	2548.031047
350.429796	2552.515153
350.820203	2549.581202
351.210548	2550.178578
351.600828	2552.348795
351.991045	2546.337219
352.381198	2550.150852
352.771288	2546.606921
353.161314	2547.302600
353.551276	2544.925696
353.941175	2545.598690
354.331010	2547.010213
354.720782	2552.169834
355.110490	2556.263251
355.500135	2547.022816
355.889717	2546.959802
356.279235	2550.039947
356.668689	2549.404761
357.058080	2550.743188
357.447408	2549.223280
357.836672	2551.297715
358.225873	2551.191850
358.615010	2551.272509
359.004084	2554.927345
359.393095	2553.646892
359.782043	2553.374670
360.170927	2553.515822
360.559748	2552.046326
360.948505	2557.107644
361.337199	2557.084959
361.725830	2556.714434
362.114398	2558.826678
362.502903	2557.271482
362.891344	2558.209137
363.279722	2559.625701
363.668037	2560.404559
364.056289	2559.497151
364.444478	2561.216185
364.832603	2561.145609
365.220665	2563.484704
365.608665	2561.760629
365.996601	2561.637121
366.384474	2563.298181
366.772284	2560.885989
367.160031	2564.911351
367.547715	2563.063768
367.935336	2564.626525
368.322893	2558.239383
368.710388	2564.571073
369.097820	2560.344065
369.485189	2563.676268
369.872495	2569.113152
370.259738	2568.629202
370.646918	2567.268090
371.034035	2571.497618
371.421090	2567.593244
371.808081	2571.278328
372.195010	2570.779254
372.581875	2575.346539
372.968678	2579.056828
373.355418	2576.972311
373.742096	2576.014492
374.128710	2578.227558
374.515262	2587.036975
374.901751	2588.067891
375.288177	2591.009404
375.674540	2593.857656
376.060841	2596.821854
376.447079	2601.053903
376.833254	2607.317537
377.219367	2612.260388
377.605417	2618.332458
377.991404	2625.319497
378.377329	2629.435599
378.763191	2635.598410
379.148991	2646.184833
379.534727	2653.355874
379.920402	2662.891217
380.306013	2670.573935
380.691563	2684.195133
381.077049	2692.631504
381.462474	2702.471836
381.847835	2714.926007
382.233134	2728.476628
382.618371	2737.480129
383.003545	2755.703900
383.388657	2770.371137
383.773706	2789.696401
384.158693	2800.562608
384.543618	2820.018941
384.928480	2834.219871
385.313280	2859.226515
385.698017	2876.157230
386.082692	2898.277813
386.467305	2916.226842
386.851856	2941.851027
387.236344	2968.629636
387.620770	2986.429950
388.005133	3005.062055
388.389435	3039.362065
388.773674	3050.276163
389.157851	3084.790423
389.541965	3110.777571
389.926018	3124.292905
390.310008	3155.968995
390.693936	3184.262471
391.077802	3210.330277
391.461606	3242.283631
391.845348	3258.110334
392.229027	3289.418420
392.612645	3329.266220
392.996200	3357.269830
393.379694	3399.103845
393.763125	3442.079682
394.146494	3466.196562
394.529801	3501.736696
394.913047	3547.676731
395.296230	3553.698389
395.679351	3576.877615
396.062410	3626.696818
396.445408	3603.618415
396.828343	3649.598780
397.211217	3682.492308
397.594028	3655.433915
397.976778	3701.560473
398.359466	3736.954414
398.742092	3749.259871
399.124656	3762.011469
399.507158	3824.108402
399.889598	3829.366326
400.271977	3893.273033
400.654294	3882.885736
401.036549	3941.327832
401.418742	3940.191052
401.800874	4011.735107
402.182944	4037.069426
402.564952	4124.876244
402.946898	4118.289976
403.328783	4111.933081
403.710606	4162.886544
404.092367	4234.657451
404.474067	4299.282523
404.855705	4284.348104
405.237282	4256.677211
405.618797	4349.603320
406.000250	4432.613480
406.381642	4513.075337
406.762972	4513.821427
407.144240	4481.061489
407.525447	4550.173188
407.906593	4562.957554
408.287677	4652.236389
408.668700	4676.249925
409.049661	4715.991861
409.430560	4751.426132
409.811399	4730.643975
410.192176	4787.616575
410.572891	4866.916446
410.953545	4970.146674
411.334138	4871.982805
411.714669	4980.113035
412.095139	4894.335282
412.475547	5006.180841
412.855894	5007.650338
413.236180	5107.807982
413.616405	5039.863311
413.996568	5144.356348
414.376670	5147.280217
414.756711	5138.806037
415.136691	5211.133992
415.516609	5294.539882
415.896466	5332.260316
416.276262	5411.562707
416.655997	5524.396333
417.035670	5624.080109
417.415283	5763.445328
417.794834	5831.621893
418.174324	5788.590603
418.553753	5797.221059
418.933121	5959.331964
419.312428	5978.029603
419.691674	5896.584722
420.070859	6129.969980
420.449983	6009.199057
420.829045	6199.810126
421.208047	6130.428725
421.586988	6286.061747
421.965867	6357.870463
422.344686	6441.057063
422.723444	6606.608556
423.102141	6225.280555
423.480777	6618.659434
423.859352	6431.451145
424.237866	6803.374873
424.616319	6793.587473
424.994712	6959.993440
425.373044	6869.350974
425.751314	7192.410797
426.129524	6902.436066
426.507673	7174.890267
426.885762	7220.454736
427.263789	7261.199862
427.641756	7350.655137
428.019662	7429.276973
428.397508	7469.628888
428.775292	7454.757485
429.153016	7623.651262
429.530679	7553.750623
429.908282	7609.835980
430.285824	7545.866258
430.663305	7833.723704
431.040726	7716.529480
431.418086	7719.183648
431.795385	7849.588216
432.172624	8043.400416
432.549802	7926.654855
432.926920	8060.502531
433.303977	8008.792895
433.680974	8049.716982
434.057910	8246.952126
434.434786	8302.344325
434.811601	8261.417717
435.188355	8601.887166
435.565050	8484.367787
435.941683	8496.451433
436.318257	8830.193462
436.694770	8782.635216
437.071222	9014.659363
437.447614	8787.993963
437.823946	8759.957586
438.200218	8903.234740
438.576429	8785.148232
438.952580	8955.435888
439.328670	8962.266651
439.704700	9040.550729
440.080670	8927.475128
440.456580	9206.298827
440.832429	9177.261781
441.208218	8910.892252
441.583947	9032.074029
441.959616	9149.197677
442.335224	9185.579684
442.710773	9265.403835
443.086261	9451.419891
443.461689	9158.543976
443.837057	9337.842695
444.212365	9550.556702
444.587612	9537.820227
444.962800	9428.326366
445.337927	9561.987519
445.712995	9100.870656
446.088002	9775.898800
446.462949	9835.402059
446.837837	9815.607969
447.212664	9844.014871
447.587431	10671.956334
447.962139	11690.695389
448.336786	12647.390442
448.711374	12423.989189
449.085901	11203.939217
449.460369	11134.056222
449.834776	10904.169524
450.209124	11819.650625
450.583412	11641.173614
450.957640	11969.423305
451.331808	11549.747248
451.705917	10975.766512
452.079965	10853.536175
452.453954	11054.592514
452.827883	10994.449028
453.201752	10967.650254
453.575562	10976.419341
453.949311	11322.454224
454.323001	11380.903882
454.696632	11305.339506
455.070202	11905.483831
455.443713	11956.336470
455.817164	12126.495577
456.190556	12448.317797
456.563888	12318.946666
456.937160	12591.148809
457.310373	12064.779251
457.683526	12074.526322
458.056619	12098.640681
458.429653	12162.227275
458.802628	12300.110395
459.175542	12349.085204
459.548398	12914.599322
459.921194	13490.762878
460.293930	13763.451492
460.666607	14631.457526
461.039224	15440.010712
461.411782	15797.068077
461.784280	15472.626977
462.156719	15419.773000
462.529099	15342.560167
462.901419	14696.304408
463.273680	14290.693170
463.645882	14494.078522
464.018024	14376.773393
464.390106	14751.220218
464.762130	15810.560725
465.134094	17346.317998
465.505999	19632.715681
465.877845	21922.012027
466.249631	23218.806004
466.621358	22771.852263
466.993026	21976.771561
467.364634	21227.189792
467.736184	20409.590256
468.107674	19803.777154
468.479105	19663.030659
468.850477	19389.248114
469.221790	18945.498027
469.593043	18282.193086
469.964238	17877.733751
470.335373	17945.411241
470.706449	18664.390685
471.077467	19503.921762
471.448425	21998.408193
471.819324	23900.266660
472.190164	23827.288397
472.560945	22071.973751
472.931667	20462.169490
473.302330	20133.352669
473.672934	19569.345856
474.043479	19997.924592
474.413965	19771.806156
474.784393	19591.179093
475.154761	20276.259298
475.525070	20396.470653
475.895321	20228.786752
476.265513	20752.237483
476.635645	21361.531501
477.005719	21430.708735
477.375734	21788.595370
477.745691	22428.002721
478.115588	23071.017017
478.485427	24271.368680
478.855207	26082.287253
479.224928	27896.527946
479.594591	29370.442863
479.964194	29021.940336
480.333739	29495.264353
480.703226	29712.167559
481.072653	30154.992595
481.442022	30672.784630
481.811333	31102.429570
482.180584	30659.128145
482.549777	30453.428903
482.918912	30209.608456
483.287988	30137.537600
483.657005	30008.592447
484.025964	29617.910585
484.394864	29825.772482
484.763706	29754.162891
485.132489	29213.032835
485.501213	29286.384144
485.869879	29463.563057
486.238487	29383.875018
486.607036	29659.033798
486.975527	29335.389200
487.343959	29701.014006
487.712333	30057.922657
488.080648	30013.386584
488.448905	30451.377153
488.817104	30329.955922
489.185244	31178.233400
489.553326	32134.782260
489.921350	34037.122158
490.289315	36563.403147
490.657222	37516.594598
491.025070	38105.832386
491.392861	37852.443829
491.760593	37077.041271
492.128267	36076.858704
492.495883	35100.450218
492.863440	34183.285373
493.230939	33196.938252
493.598380	32621.180510
493.965763	32460.168576
494.333088	31934.840016
494.700354	31750.122057
495.067563	31697.447041
495.434713	31590.350248
495.801805	31875.561088
496.168839	31716.366491
496.535815	31568.126321
496.902733	31697.875539
497.269593	31514.982477
497.636395	31674.121622
498.003139	31953.018417
498.369825	31702.543647
498.736453	32119.094189
499.103023	31950.409620
499.469535	32037.936654
499.835989	32158.654644
500.202385	32034.168391
500.568723	32076.375452
500.935003	32382.917935
501.301226	32245.821235
501.667390	32993.605832
502.033497	33214.862075
502.399546	33011.632998
502.765537	32607.405557
503.131470	33101.330249
503.497345	33539.126734
503.863163	32455.744964
504.228923	33255.206429
504.594625	33642.349400
504.960269	33109.280148
505.325856	33788.192502
505.691385	33448.101140
506.056856	33794.302380
506.422270	34291.234120
506.787625	33791.716268
507.152924	34270.285606
507.518164	34449.329746
507.883347	34022.991804
508.248472	34160.839635
508.613540	34876.854880
508.978550	35106.996156
509.343503	34932.685659
509.708398	35296.719981
510.073236	35909.951141
510.438016	35998.143607
510.802738	35661.548285
511.167403	36224.587197
511.532010	36467.427139
511.896561	36995.941708
512.261053	37767.064327
512.625488	37553.505927
512.989866	37454.769887
513.354186	37525.164560
513.718449	37486.708117
514.082655	38377.149807
514.446803	38060.514933
514.810894	38702.329435
515.174927	38698.036893
515.538904	38712.134480
515.902822	39364.169921
516.266684	39022.979588
516.630488	39394.489941
516.994235	39403.695088
517.357925	39978.679013
517.721558	40243.800856
518.085133	40638.172842
518.448651	40825.250061
518.812112	40709.812679
519.175516	40861.967305
519.538863	41315.116624
519.902152	41363.100847
520.265385	41924.665221
520.628560	41965.364976
520.991678	41900.429874
521.354739	42122.500262
521.717743	42500.765762
522.080690	42402.344795
522.443580	43090.437089
522.806413	43106.808236
523.169189	43242.934513
523.531908	43458.930312
523.894569	43330.675796
524.257174	43525.665106
524.619722	43876.055545
524.982213	44033.115214
525.344647	44073.802367
525.707025	44188.680181
526.069345	44633.352800
526.431608	44553.354729
526.793815	44926.957161
527.155964	44476.983769
527.518057	44726.994753
527.880093	44572.682513
528.242072	45216.541203
528.603995	44930.785918
528.965860	44846.545716
529.327669	45088.629486
529.689421	45141.833823
530.051117	45108.453823
530.412755	45374.503238
530.774337	45435.501200
531.135862	45359.694849
531.497331	45535.305963
531.858743	45527.199788
532.220098	45936.659947
532.581396	45644.441903
532.942638	45405.047589
533.303824	45675.981882
533.664953	45735.527991
534.026025	45384.729219
534.387040	45975.814589
534.747999	46022.422577
535.108902	46370.123561
535.469748	45685.943202
535.830537	45950.039170
536.191270	46205.119034
536.551947	45935.611387
536.912567	46207.435444
537.273131	46354.793412
537.633638	45971.743858
537.994089	46156.134142
538.354483	45913.120280
538.714821	46563.126657
539.075103	46859.128087
539.435328	46713.983185
539.795497	46457.045656
540.155609	46598.777697
540.515665	47189.222841
540.875665	46481.328894
541.235609	46738.049654
541.595496	46903.906136
541.955328	47480.301584
542.315102	46905.743637
542.674821	46802.679767
543.034483	46701.077832
543.394090	46711.956642
543.753640	46690.065431
544.113134	47761.129142
544.472571	46861.845269
544.831953	47999.941202
545.191278	47254.407481
545.550548	46936.885364
545.909761	47573.956141
546.268918	47731.653515
546.628019	48130.426428
546.987064	47568.110923
547.346053	46885.140441
547.704986	47808.715113
548.063863	47426.121783
548.422684	47636.998290
548.781449	47207.451653
549.140158	47739.237931
549.498811	47489.138727
549.857408	46878.014770
550.215949	47730.496570
550.574434	47559.914007
550.932864	47523.398409
551.291237	48240.242924
551.649555	47984.600971
552.007817	48157.263011
552.366022	47857.760499
552.724173	47928.969318
553.082267	48307.496957
553.440305	48692.663796
553.798288	47931.384031
554.156215	48328.059824
554.514086	48531.956853
554.871902	48111.660733
555.229661	48291.055234
555.587365	47974.236359
555.945014	48102.679918
556.302606	48121.836302
556.660143	48223.445799
557.017625	48449.607084
557.375050	48135.732243
557.732421	48524.823620
558.089735	48611.745715
558.446994	48455.149833
558.804197	48946.740471
559.161345	48808.582608
559.518437	48144.440836
559.875474	48402.240403
560.232455	48617.144791
560.589381	48640.961722
560.946251	48496.013426
561.303065	49140.081324
561.659825	48813.739709
562.016528	48616.812075
562.373177	48193.995378
562.729770	48841.410602
563.086307	48337.091051
563.442789	48910.678577
563.799216	48739.218852
564.155587	48654.300616
564.511904	48617.386767
564.868164	48667.722688
565.224370	48979.263475
565.580520	48697.503304
565.936615	48896.490249
566.292654	48534.686638
566.648638	48909.725799
567.004567	48847.933855
567.360441	48929.613151
567.716260	48628.568046
568.072023	49034.804387
568.427732	48937.724367
568.783385	48477.063729
569.138982	48900.117359
569.494525	49049.204443
569.850013	48629.840937
570.205445	48771.951064
570.560823	48526.570380
570.916145	48401.804343
571.271412	48650.716355
571.626625	48290.057086
571.981782	48361.764978
572.336884	47970.624372
572.691931	48289.169842
573.046923	47929.833876
573.401860	47760.231816
573.756743	47776.592881
574.111570	47928.061910
574.466342	47822.800097
574.821059	48000.440277
575.175722	47467.255078
575.530330	47556.932164
575.884882	47211.172025
576.239380	47098.381248
576.593823	47201.596353
576.948211	47136.857855
577.302544	46677.913730
577.656823	46677.066816
578.011047	46933.157431
578.365216	46786.406922
578.719330	46467.420351
579.073389	46442.098635
579.427394	46502.347985
579.781344	46409.353820
580.135239	46156.194636
580.489080	46235.991060
580.842866	45725.039871
581.196597	46212.267390
581.550273	46212.159005
581.903895	46122.260109
582.257463	46567.741833
582.610975	45999.989443
582.964434	46319.709502
583.317837	45797.801365
583.671186	45780.270752
584.024481	46053.110601
584.377721	45594.801661
584.730906	45794.534697
585.084037	45949.613192
585.437113	45673.209248
585.790135	45810.162274
586.143103	45350.353591
586.496016	45508.426531
586.848874	45642.702705
587.201679	45661.849007
587.554428	45125.049302
587.907124	45410.517241
588.259765	45183.526686
588.612352	45338.476632
588.964884	44776.778668
589.317362	45085.395586
589.669786	45104.133554
590.022155	44971.546167
590.374470	45451.146421
590.726731	45015.999062
591.078937	44353.815778
591.431090	44715.715171
591.783188	44206.293972
592.135232	44028.648752
592.487222	44272.912820
592.839157	44448.591991
593.191038	44093.014204
593.542866	43900.263166
593.894639	43257.079991
594.246358	43582.622583
594.598022	43579.794496
594.949633	43137.135817
595.301190	43131.550219
595.652692	43078.645830
596.004141	43568.961056
596.355535	42452.479070
596.706876	42450.134933
597.058162	42179.440095
597.409395	42678.292515
597.760573	42903.740477
598.111698	42500.143179
598.462768	42421.914554
598.813785	42439.772841
599.164748	42030.678166
599.515657	42305.171513
599.866511	41809.079125
600.217312	42503.457738
600.568060	41442.705707
600.918753	42262.442693
601.269392	42173.393231
601.619978	41895.623133
601.970510	42113.723613
602.320988	42235.333888
602.671412	42515.317052
603.021783	42369.839435
603.372100	41932.138731
603.722363	42047.790362
604.072572	42081.563572
604.422728	42082.861670
604.772830	41852.801052
605.122878	42035.464741
605.472872	41892.863102
605.822813	42149.435147
606.172701	41887.476629
606.522534	42186.966538
606.872314	42413.639500
607.222041	42260.723660
607.571714	42578.059253
607.921333	42061.663618
608.270899	42259.236519
608.620411	42645.678770
608.969870	42403.610124
609.319276	42409.861155
609.668627	42452.579893
610.017926	42854.017056
610.367171	42981.603618
610.716362	43026.923592
611.065500	42928.883232
611.414585	43150.436902
611.763616	43293.935867
612.112594	43210.509812
612.461518	43332.046990
612.810389	43711.247623
613.159207	43495.340045
613.507971	43461.740755
613.856682	43990.343544
614.205340	43792.697546
614.553945	44511.263615
614.902496	43833.861088
615.250994	44257.101241
615.599439	44336.138972
615.947830	44453.529801
616.296169	44430.751347
616.644454	44469.853057
616.992686	44621.047343
617.340864	45061.440023
617.688990	44548.122012
618.037063	45234.278503
618.385082	45048.733794
618.733048	45394.662812
619.080961	45263.991063
619.428821	45292.818902
619.776628	45347.959042
620.124382	45172.572259
620.472083	45301.134285
620.819731	45413.360452
621.167326	45006.105797
621.514868	44999.590106
621.862357	44438.366010
622.209793	44557.871603
622.557176	44120.304490
622.904506	43886.236156
623.251783	43523.089077
623.599007	43191.819734
623.946179	43118.952376
624.293297	42847.879451
624.640363	42288.283648
624.987376	42139.887202
625.334336	41945.107100
625.681243	41533.859851
626.028097	41446.947838
626.374899	41265.312545
626.721647	41215.732797
627.068343	40974.596764
627.414987	40680.198421
627.761577	40418.749059
628.108115	40754.590728
628.454600	39976.473508
628.801032	40217.123069
629.147412	40092.823339
629.493739	39980.246812
629.840014	39531.241321
630.186236	39959.076486
630.532405	39368.172597
630.878521	39606.117579
631.224585	39379.689113
631.570597	39030.911843
631.916556	39220.537366
632.262462	39109.145510
632.608316	39054.874968
632.954117	38913.329450
633.299866	38870.749344
633.645562	38796.682191
633.991206	38254.841332
634.336797	37841.381017
634.682336	37737.830676
635.027823	37502.799481
635.373257	37393.673623
635.718639	37049.461118
636.063968	36965.026832
636.409245	36298.873640
636.754470	36238.783086
637.099642	36022.948604
637.444762	35447.626922
637.789829	35576.708187
638.134845	35179.997105
638.479808	35097.077686
638.824719	35047.127413
639.169577	34532.788569
639.514383	34635.602901
639.859137	34216.589755
640.203839	34386.549737
640.548489	34103.168835
640.893086	34076.380143
641.237632	33785.490443
641.582125	33876.395050
641.926566	33665.203471
642.270955	33689.978222
642.615292	33631.974706
642.959576	33484.147910
643.303809	33501.875128
643.647990	33588.449383
643.992118	33567.573965
644.336195	33367.906464
644.680219	33440.441106
645.024192	33634.379336
645.368112	34162.301570
645.711981	34167.987991
646.055797	34866.916246
646.399562	34649.970190
646.743274	35501.811764
647.086935	35922.397750
647.430544	35891.913893
647.774101	35952.067461
648.117606	36278.837574
648.461059	36431.823990
648.804460	36039.821346
649.147810	35560.301751
649.491108	35256.428559
649.834354	35168.397410
650.177548	34331.028989
650.520690	33808.606654
650.863781	33782.589259
651.206820	33608.777836
651.549807	33185.255378
651.892742	32563.257652
652.235626	32488.487258
652.578458	32332.352641
652.921238	31613.963012
653.263967	31923.038675
653.606644	31605.413215
653.949269	31499.364983
654.291843	31089.688053
654.634365	31434.059355
654.976836	30978.787710
655.319255	31069.296586
655.661622	30914.946538
656.003938	30788.582455
656.346203	30596.126324
656.688416	30855.718021
657.030577	30626.259822
657.372687	30441.647727
657.714746	30580.221484
658.056753	30781.091300
658.398708	30133.088782
658.740612	30212.915453
659.082465	30435.091706
659.424266	30331.299389
659.766016	30299.719081
660.107715	30155.758851
660.449362	30251.939025
660.790958	30216.149353
661.132503	30136.844442
661.473996	30221.462729
661.815438	30312.727779
662.156829	30423.030745
662.498168	30211.692973
662.839456	30183.046617
663.180693	30319.535857
663.521879	30382.159591
663.863013	30341.900936
664.204097	30320.266824
664.545129	30742.839025
664.886110	30657.976241
665.227040	30767.641502
665.567918	30762.121438
665.908746	30797.230554
666.249522	30902.315927
666.590248	30937.208273
666.930922	31042.278522
667.271545	31057.263352
667.612118	31121.691819
667.952639	30929.850709
668.293109	30975.069859
668.633528	30817.727886
668.973896	30774.663829
669.314213	30767.432294
669.654480	30578.494889
669.994695	30566.012992
670.334859	30474.458076
670.674973	30273.983991
671.015035	30458.152464
671.355047	30390.245601
671.695008	30300.117332
672.034918	30207.581912
672.374777	30295.645829
672.714585	30168.752425
673.054342	30297.808484
673.394049	30164.089357
673.733705	30381.990712
674.073310	30087.776371
674.412864	30146.626801
674.752368	29879.183507
675.091820	30124.934716
675.431223	29733.607587
675.770574	29527.668890
676.109875	29355.906696
676.449125	29156.627364
676.788324	29049.979234
677.127473	28553.024808
677.466571	28439.424927
677.805619	28179.734928
678.144616	28111.762530
678.483562	28053.184322
678.822458	27717.665287
679.161303	27651.641295
679.500098	27570.055261
679.838842	27480.199214
680.177535	27525.957768
680.516179	27729.597698
680.854771	27810.641808
681.193314	28472.535226
681.531805	29400.122657
681.870247	30160.124490
682.208638	30984.083442
682.546978	31362.600999
682.885268	31568.741342
683.223508	31165.885094
683.561697	30923.138413
683.899836	30763.147313
684.237925	30330.666725
684.575963	30160.661373
684.913951	29761.008778
685.251889	29903.101261
685.589776	29882.432530
685.927614	29858.590393
686.265401	30027.927792
686.603137	30111.951224
686.940824	30582.114437
687.278460	30895.223023
687.616046	31081.473493
687.953582	31767.778698
688.291068	31696.592565
688.628504	32051.333520
688.965889	32103.784205
689.303224	31878.348846
689.640510	31628.199231
689.977745	31025.909896
690.314930	30315.056792
690.652065	29915.867983
690.989150	29253.609082
691.326185	28404.741789
691.663170	27790.852758
692.000105	27040.020784
692.336990	26428.775839
692.673825	26008.714133
693.010610	25486.755584
693.347345	24969.092099
693.684030	24321.074457
694.020665	24124.149344
694.357251	23421.873763
694.693786	23429.997583
695.030272	23184.223689
695.366707	22667.321417
695.703093	22367.284543
696.039429	22421.708840
696.375716	22168.073267
696.711952	22163.430364
697.048139	22012.505780
697.384276	21841.373730
697.720363	21959.729940
698.056400	21853.737160
698.392388	21682.438752
698.728326	21672.651352
699.064214	21538.327287
699.400053	21556.016696
699.735842	21161.760657
700.071581	20981.226855
700.407270	20746.299003
700.742910	20561.976775
701.078501	20301.031528
701.414042	20097.595765
701.749533	19801.145672
702.084974	19475.204829
702.420366	19714.326920
702.755709	19293.516603
703.091002	18992.136261
703.426246	19048.211536
703.761440	18960.981931
704.096584	18727.185818
704.431679	18662.782557
704.766725	18612.174414
705.101721	18517.315022
705.436668	18634.804153
705.771565	18338.308690
706.106413	18645.519126
706.441212	18710.968426
706.775961	18798.492939
707.110661	18870.843579
707.445311	19231.162571
707.779913	19090.055634
708.114465	19375.440394
708.448967	19685.511685
708.783421	20288.171545
709.117825	20623.743512
709.452180	20833.521047
709.786485	21271.783839
710.120742	22006.189214
710.454949	22097.373605
710.789107	22607.480401
711.123216	23324.098064
711.457275	23554.960225
711.791286	24121.832934
712.125247	24313.424506
712.459159	24089.549384
712.793023	24894.336828
713.126837	23914.114710
713.460602	24203.706313
713.794318	23899.442432
714.127985	23641.340396
714.461602	22768.401593
714.795171	22777.039610
715.128691	21785.681583
715.462162	21257.136767
715.795584	20826.186168
716.128957	20552.481762
716.462281	20166.362144
716.795556	19880.962261
717.128782	19395.332787
717.461960	18776.684908
717.795088	18755.103728
718.128167	18414.999763
718.461198	17944.435778
718.794180	17818.338876
719.127113	17480.402608
719.459997	17272.288653
719.792833	16885.813635
720.125619	16922.213286
720.458357	16557.609314
720.791046	16430.768842
721.123686	16259.785506
721.456278	16032.066505
721.788821	16025.684404
722.121315	15753.691469
722.453761	15842.627505
722.786158	15728.049640
723.118506	15810.018801
723.450805	15692.706110
723.783056	15848.258474
724.115259	15737.295116
724.447412	15714.635129
724.779518	15920.021819
725.111574	15969.853625
725.443582	16217.321347
725.775542	16162.675239
726.107453	16673.568455
726.439315	16578.058754
726.771129	16959.913555
727.102895	17373.663737
727.434612	17660.374321
727.766281	17843.022886
728.097901	18198.404068
728.429473	18288.660886
728.760996	18333.333071
729.092471	18458.983831
729.423897	18343.309514
729.755276	18200.614614
730.086606	18277.620759
730.417887	18816.346186
730.749120	19351.041209
731.080305	19573.381300
731.411442	20007.427167
731.742530	20124.185331
732.073570	20272.422980
732.404562	20606.381778
732.735506	20524.581496
733.066401	20423.723131
733.397249	19998.479118
733.728048	19401.241019
734.058798	18558.070230
734.389501	17780.386550
734.720156	17236.476297
735.050762	16638.151829
735.381320	16210.513269
735.711831	15910.645273
736.042293	15513.442679
736.372707	15531.298446
736.703073	15297.509896
737.033391	15478.918337
737.363661	15455.998731
737.693883	15538.741710
738.024056	15730.194651
738.354182	15908.643935
738.684260	16262.497647
739.014290	16529.215015
739.344272	16756.694562
739.674207	17119.148482
740.004093	17295.777910
740.333931	17381.984161
740.663722	17480.659707
740.993464	17553.756437
741.323159	17430.447294
741.652806	17155.787588
741.982405	17003.612797
742.311956	16645.224568
742.641460	16544.036007
742.970915	16227.416258
743.300323	15882.369441
743.629683	15676.607185
743.958996	15361.439288
744.288260	15042.029260
744.617477	14716.085896
744.946647	14685.942317
745.275768	14364.631773
745.604842	14154.173683
745.933869	13964.548160
746.262847	13926.532819
746.591778	13831.078571
746.920662	13697.755175
747.249498	13686.641952
747.578286	13820.938290
747.907027	13975.298421
748.235720	14242.179626
748.564365	14322.656606
748.892963	14261.353655
749.221514	14369.171333
749.550017	14260.862142
749.878473	14231.199993
750.206881	14009.759748
750.535242	13938.082103
750.863555	13860.856667
751.191821	13751.206529
751.520039	13767.043314
751.848210	13687.115820
752.176334	13724.337179
752.504411	13642.408347
752.832440	13465.098363
753.160421	13589.403135
753.488356	13482.301301
753.816243	13394.807035
754.144082	13222.155077
754.471875	13162.838341
754.799620	13128.679482
755.127318	13103.997993
755.454969	13078.136874
755.782572	13055.083677
756.110129	13074.630751
756.437638	12976.827325
756.765100	12967.128145
757.092515	12993.571518
757.419882	13022.406918
757.747203	13024.970345
758.074477	13096.766458
758.401703	13075.172675
758.728882	13262.713681
759.056014	13292.103608
759.383099	13457.148464
759.710138	13580.492896
760.037129	13729.753899
760.364073	13797.756544
760.690970	13821.109689
761.017820	13829.077233
761.344623	14023.012942
761.671379	14346.564278
761.998088	14875.769485
762.324751	16273.119358
762.651366	19179.609211
762.977935	23507.807792
763.304456	26879.460034
763.630931	28615.678789
763.957359	27917.983097
764.283740	25892.941514
764.610074	23757.735597
764.936362	21108.485743
765.262602	19173.204425
765.588796	17136.691697
765.914943	15768.630928
766.241044	14582.739815
766.567097	13740.806629
766.893104	12974.568888
767.219064	12467.844707
767.544978	11960.709671
767.870845	11552.608103
768.196665	11313.112966
768.522438	11071.455174
768.848165	10863.676456
769.173846	10648.814917
769.499479	10518.213745
769.825066	10347.825265
770.150607	10114.031673
770.476101	10024.687304
770.801548	9905.022914
771.126949	9752.492722
771.452303	9637.249425
771.777611	9428.999360
772.102872	9427.449205
772.428087	9288.835118
772.753256	9129.219584
773.078378	9043.887973
773.403453	8862.146815
773.728482	8737.658042
774.053465	8665.665324
774.378401	8556.688180
774.703291	8434.994727
775.028135	8314.054925
775.352932	8273.173688
775.677683	8169.966145
776.002388	8061.538488
776.327046	8074.400992
776.651658	7968.249415
776.976224	7868.747121
777.300743	7867.403653
777.625216	7776.143645
777.949643	7733.429949
778.274024	7742.312462
778.598359	7654.074625
778.922647	7668.605751
779.246889	7619.552804
779.571086	7624.553628
779.895236	7626.759133
780.219339	7633.778940
780.543397	7632.080071
780.867409	7712.647792
781.191374	7726.198413
781.515294	7688.651900
781.839167	7784.511961
782.162995	7761.057992
782.486776	7716.146353
782.810511	7669.263622
783.134201	7584.320180
783.457844	7575.719971
783.781441	7524.254832
784.104993	7457.527599
784.428498	7436.087571
784.751958	7417.904129
785.075372	7383.760394
785.398739	7332.312899
785.722061	7374.434260
786.045337	7365.836572
786.368568	7503.613827
786.691752	7506.318406
787.014891	7801.301523
787.337983	8098.114580
787.661030	8649.047160
787.984031	9275.735680
788.306987	9724.773938
788.629897	10003.796762
788.952760	10009.742803
789.275579	9843.694757
789.598351	9477.444848
789.921078	9139.755596
790.243759	8724.790497
790.566395	8431.707894
790.888984	8174.931682
791.211529	7955.618804
791.534027	7725.338897
791.856480	7512.249324
792.178888	7426.295130
792.501249	7328.620254
792.823566	7164.134965
793.145836	7161.153123
793.468062	7121.035621
793.790241	7062.497742
794.112375	7118.265507
794.434464	7261.814883
794.756507	7277.001359
795.078505	7414.249293
795.400457	7692.941922
795.722364	8030.986575
796.044226	8317.984505
796.366042	8625.363819
796.687812	8597.566897
797.009538	8709.152837
797.331218	8626.503120
797.652852	8555.790855
797.974442	8404.800736
798.295986	8331.144437
798.617484	8141.808781
798.938938	8004.563367
799.260346	7905.081237
799.581709	7698.134310
799.903026	7616.056764
800.224299	7505.499219
800.545526	7337.868250
800.866708	7237.284628
801.187845	7166.310223
801.508936	7063.790798
801.829983	7015.564600
802.150984	6867.642023
802.471940	6817.946328
802.792851	6803.621889
803.113717	6764.454644
803.434538	6731.624130
803.755314	6671.185737
804.076045	6673.418968
804.396731	6611.110306
804.717372	6634.304655
805.037967	6632.220138
805.358518	6667.372104
805.679024	6747.607108
805.999485	6743.354895
806.319901	6790.398943
806.640272	6805.373690
806.960598	6884.970989
807.280879	6892.104222
807.601115	6975.550441
807.921306	6914.587768
808.241453	6934.822959
808.561554	6965.942002
808.881611	6931.178205
809.201623	6951.342820
809.521590	6898.090592
809.841513	6876.474124
810.161390	6912.672129
810.481223	6790.739221
810.801011	6776.485358
811.120755	6753.011225
811.440453	6675.793351
811.760107	6641.599205
812.079716	6616.199351
812.399281	6554.293982
812.718801	6539.286467
813.038276	6499.456310
813.357707	6437.389624
813.677093	6477.212219
813.996434	6382.942642
814.315731	6419.677530
814.634983	6408.402989
814.954191	6413.734010
815.273354	6511.134143
815.592473	6574.062867
815.911547	6685.653848
816.230577	6766.297186
816.549562	6907.764566
816.868502	7013.033941
817.187399	7112.059846
817.506250	7252.929849
817.825058	7282.599560
818.143821	7533.225565
818.462539	7776.410826
818.781213	8104.128676
819.099843	8583.592818
819.418429	9493.397579
819.736970	10393.319158
820.055466	11506.574806
820.373919	12919.877410
820.692327	14956.203616
821.010691	18286.324311
821.329011	25719.959361
821.647286	37375.107054
821.965517	51390.959037
822.283704	58848.161481
822.601847	62104.482205
822.919945	60144.963020
823.237999	56574.268380
823.556010	50885.369114
823.873976	44267.186069
824.191897	37685.246400
824.509775	32763.630914
824.827609	27981.761255
825.145398	25076.950106
825.463144	23306.174241
825.780845	23140.153922
826.098502	24303.652229
826.416116	27556.691162
826.733685	31270.103388
827.051210	33135.287461
827.368692	32247.144538
827.686129	28768.206460
828.003522	24732.951850
828.320872	20948.930703
828.638177	18013.192075
828.955439	15743.052114
829.272656	13858.668806
829.589830	12328.187101
829.906960	10987.280507
830.224046	9985.870419
830.541088	9175.525103
830.858086	8664.904109
831.175041	8235.954849
831.491952	8071.139365
831.808819	8048.053401
832.125642	8341.236827
832.442421	9035.713742
832.759157	10510.823413
833.075849	13082.419334
833.392497	16224.406689
833.709101	18762.327702
834.025662	19201.253405
834.342179	17928.427594
834.658653	15853.080337
834.975083	13898.282193
835.291469	12219.817417
835.607811	10844.000833
835.924110	9906.346217
836.240366	9013.688941
836.556578	8190.831481
836.872746	7517.945827
837.188871	6977.070349
837.504952	6531.782709
837.820990	6198.277615
838.136984	5954.288289
838.452935	5828.521583
838.768842	5802.715917
839.084706	6079.407207
839.400526	7031.809718
839.716303	8539.114718
840.032037	9811.333070
840.347727	10084.608979
840.663373	9321.272423
840.978977	8268.976928
841.294537	7403.640185
841.610054	6771.678618
841.925527	6326.885011
842.240957	5949.612619
842.556344	5617.340087
842.871687	5328.582794
843.186987	5036.470614
843.502244	4796.052946
843.817458	4619.887304
844.132629	4473.477073
844.447756	4377.531313
844.762840	4291.156183
845.077881	4210.585941
845.392879	4147.256446
845.707833	4094.936831
846.022745	4051.063669
846.337613	4020.783978
846.652438	3973.245898
846.967221	3958.434988
847.281960	3922.161365
847.596656	3901.280906
847.911309	3884.198956
848.225919	3857.967312
848.540485	3843.768902
848.855009	3826.954134
849.169490	3807.903613
849.483928	3794.965492
849.798323	3788.348977
850.112675	3768.854836
850.426984	3767.508848
850.741251	3753.940582
851.055474	3747.213162
851.369654	3759.586674
851.683792	3752.531579
851.997887	3756.703134
852.311938	3754.968977
852.625947	3762.840739
852.939914	3750.189963
853.253837	3761.189761
853.567718	3760.854524
853.881555	3746.119232
854.195350	3762.412241
854.509103	3758.152466
854.822812	3757.459307
855.136479	3748.047473
855.450103	3757.320676
855.763685	3742.232502
856.077224	3746.625868
856.390720	3758.956530
856.704173	3778.541413
857.017584	3786.733288
857.330953	3799.353816
857.644278	3822.734688
857.957561	3827.067560
858.270802	3831.924711
858.584000	3838.110207
858.897155	3831.042509
859.210268	3814.701609
859.523339	3793.679998
859.836367	3791.718989
860.149352	3784.152217
860.462295	3777.724746
860.775195	3764.660596
861.088054	3762.991974
861.400869	3758.008793
861.713642	3757.139194
862.026373	3766.833333
862.339062	3771.050258
862.651708	3787.839821
862.964312	3818.311075
863.276873	3821.202177
863.589392	3877.501783
863.901869	3918.287238
864.214303	3965.106955
864.526696	3996.820854
864.839045	4046.776168
865.151353	4074.865477
865.463619	4086.984411
865.775842	4091.942386
866.088023	4112.268318
866.400162	4105.709777
866.712258	4116.845686
867.024313	4116.460037
867.336325	4115.608082
867.648296	4122.738794
867.960224	4118.337867
868.272110	4129.466214
868.583954	4133.912512
868.895755	4145.108915
869.207515	4141.227226
869.519233	4181.601827
869.830909	4194.197150
870.142542	4212.546950
870.454134	4230.732913
870.765684	4258.111419
871.077191	4291.756080
871.388657	4313.261642
871.700081	4350.576263
872.011463	4392.828694
872.322803	4424.809774
872.634101	4455.248261
872.945357	4492.240248
873.256571	4548.600348
873.567744	4576.954318
873.878874	4597.247482
874.189963	4638.161487
874.501010	4649.027694
874.812015	4650.401409
875.122979	4694.352708
875.433900	4688.386503
875.744780	4703.106672
876.055618	4725.628027
876.366415	4727.095003
876.677169	4749.823045
876.987882	4792.209066
877.298554	4839.976520
877.609183	4909.350358
877.919771	5006.715204
878.230317	5134.006859
878.540822	5320.499304
878.851285	5607.202326
879.161707	6007.031361
879.472087	6661.040414
879.782425	7697.872170
880.092722	9525.320686
880.402977	12396.209911
880.713191	15934.265600
881.023363	19676.031795
881.333494	22183.733611
881.643583	23736.111568
881.953631	23986.624146
882.263637	23391.263877
882.573602	22112.018157
882.883526	20695.665654
883.193408	19116.375498
883.503248	17491.372158
883.813048	15994.550238
884.122806	14590.767853
884.432522	13132.765337
884.742197	11861.351049
885.051831	10746.494835
885.361424	9719.281601
885.670975	8866.169656
885.980485	8147.288515
886.289954	7550.173924
886.599382	7059.291568
886.908768	6671.722619
887.218113	6296.849817
887.527417	5997.954764
887.836680	5718.826075
888.145901	5489.072968
888.455082	5318.447555
888.764221	5165.854348
889.073319	5025.982494
889.382376	4942.962252
889.691392	4874.475656
890.000366	4846.182180
890.309300	4819.005320
890.618193	4819.340556
890.927044	4803.486127
891.235855	4821.465403
891.544625	4847.419783
891.853353	4893.846290
892.162041	4990.659129
892.470687	5151.706350
892.779293	5360.256364
893.087858	5688.982445
893.396381	6191.754362
893.704864	6879.203909
894.013306	7910.737412
894.321707	9057.776352
894.630068	9960.752870
894.938387	10326.191154
895.246665	10220.329443
895.554903	9711.457730
895.863100	9059.896157
896.171256	8523.330865
896.479371	8026.353755
896.787446	7533.089454
897.095480	7102.663135
897.403473	6784.964579
897.711425	6464.087575
898.019336	6196.566143
898.327207	5929.879022
898.635038	5699.793199
898.942827	5450.644252
899.250576	5245.212192
899.558284	5055.216145
899.865952	4925.754273
900.173579	4777.251963
900.481165	4661.164272
900.788711	4570.176486
901.096216	4493.513139
901.403681	4423.977984
901.711105	4395.639137
902.018489	4368.071588
902.325832	4422.558899
902.633135	4510.519472
902.940397	4766.889871
903.247619	5380.839395
903.554800	6568.005920
903.861941	8345.489040
904.169041	9961.259506
904.476101	10855.968532
904.783121	10758.155024
905.090100	10141.067382
905.397039	9357.359522
905.703938	8613.877550
906.010796	7931.133920
906.317614	7386.222998
906.624391	6852.500917
906.931129	6429.512821
907.237826	6025.968456
907.544483	5658.901880
907.851099	5288.233399
908.157675	4928.151342
908.464211	4593.143983
908.770707	4338.938759
909.077163	4122.259885
909.383578	3966.750371
909.689954	3840.948377
909.996289	3762.598764
910.302584	3692.146118
910.608839	3656.812671
910.915054	3620.498719
911.221229	3603.464660
911.527363	3611.301134
911.833458	3619.840848
912.139513	3642.455465
912.445527	3664.024041
912.751502	3737.463571
913.057436	3825.197292
913.363331	3943.808080
913.669186	4124.982108
913.975000	4344.980582
914.280775	4712.470615
914.586510	5215.489549
914.892205	5916.499800
915.197859	6851.545618
915.503475	8002.821648
915.809050	9064.874297
916.114585	9793.999063
916.420081	10170.517802
916.725536	10243.508669
917.030952	9885.710254
917.336328	9526.800265
917.641665	9158.914501
917.946961	8712.921100
918.252218	8304.781723
918.557435	7810.236969
918.862612	7388.841877
919.167750	7022.123141
919.472848	6612.574761
919.777906	6244.386528
920.082925	5883.944028
920.387904	5516.151526
920.692843	5240.556687
920.997743	4982.552953
921.302603	4735.664964
921.607423	4568.102052
921.912204	4403.006784
922.216946	4285.310965
922.521647	4161.893436
922.826310	4054.965522
923.130932	3956.660502
923.435516	3855.900439
923.740059	3786.110705
924.044564	3708.653376
924.349028	3654.433246
924.653454	3589.281374
924.957840	3522.276878
925.262186	3476.019250
925.566493	3414.590270
925.870761	3356.443081
926.174989	3318.788182
926.479178	3284.551186
926.783328	3239.463106
927.087438	3212.412274
927.391509	3177.635874
927.695541	3144.059269
927.999533	3118.190588
928.303486	3098.227619
928.607400	3082.872264
928.911275	3066.647311
929.215110	3047.843807
929.518906	3042.991696
929.822663	3038.008516
930.126381	3029.264634
930.430060	3035.157743
930.733699	3039.929195
931.037299	3045.908004
931.340861	3045.938251
931.644383	3056.043243
931.947866	3052.965619
932.251309	3049.202398
932.554714	3050.613921
932.858080	3042.590924
933.161407	3033.950387
933.464694	3027.480066
933.767943	3023.505116
934.071153	3018.474044
934.374323	3007.950636
934.677455	3002.423011
934.980548	2991.138388
935.283602	2990.102431
935.586617	2985.827532
935.889593	2996.731548
936.192530	2994.873883
936.495428	3006.529030
936.798287	3022.385980
937.101108	3048.214332
937.403890	3093.438523
937.706632	3147.764517
938.009336	3222.620611
938.312002	3292.491003
938.614628	3360.130685
938.917216	3410.423756
939.219765	3447.090588
939.522275	3486.724140
939.824747	3493.401148
940.127179	3494.663957
940.429573	3491.593895
940.731929	3491.770335
941.034246	3481.456134
941.336524	3468.989361
941.638763	3458.430664
941.940964	3444.295269
942.243126	3407.063827
942.545250	3389.326527
942.847335	3350.378573
943.149381	3317.590908
943.451389	3287.855662
943.753359	3251.725712
944.055290	3225.864593
944.357182	3200.240408
944.659036	3180.874816
944.960851	3171.402487
945.262628	3157.982936
945.564367	3157.133502
945.866067	3152.936741
946.167729	3148.548417
946.469352	3143.577839
946.770937	3140.553147
947.072484	3124.849952
947.373992	3128.114099
947.675462	3124.804582
947.976893	3105.229782
948.278286	3095.896085
948.579641	3093.945159
948.880958	3085.362594
949.182236	3089.561875
949.483476	3079.474527
949.784678	3079.517376
950.085841	3078.252047
950.386967	3085.097934
950.688054	3100.261724
950.989103	3119.975157
951.290114	3136.225316
951.591087	3162.373781
951.892021	3186.258768
952.192917	3216.167934
952.493776	3244.794126
952.794596	3254.954571
953.095378	3265.346910
953.396122	3260.212495
953.696828	3252.441556
953.997496	3245.835124
954.298126	3224.049778
954.598718	3207.479505
954.899272	3182.374559
955.199788	3159.530570
955.500266	3130.122999
955.800706	3098.159563
956.101108	3059.004921
956.401472	3029.922505
956.701798	2996.272803
957.002087	2959.220322
957.302337	2929.883327
957.602550	2904.685120
957.902724	2872.772095
958.202861	2847.485668
958.502960	2827.666371
958.803022	2806.838844
959.103045	2784.866975
959.403031	2762.310332
959.702979	2752.860689
960.002889	2737.883421
960.302762	2725.547718
960.602596	2715.949361
960.902393	2705.367979
961.202153	2698.489325
961.501875	2688.152439
961.801559	2679.118691
962.101205	2674.044770
962.400814	2669.021260
962.700385	2662.616474
962.999918	2656.136071
963.299414	2648.047539
963.598873	2649.388486
963.898293	2639.641415
964.197677	2643.323978
964.497022	2637.589666
964.796331	2636.715025
965.095601	2633.589510
965.394835	2633.498769
965.694030	2633.758389
965.993189	2631.096659
966.292309	2629.181021
966.591393	2627.393932
966.890439	2629.896865
967.189447	2627.293109
967.488419	2625.362347
967.787353	2625.838736
968.086249	2626.436113
968.385108	2628.911319
968.683930	2630.418624
968.982714	2633.095477
969.281462	2639.046559
969.580172	2643.074441
969.878844	2648.231541
970.177480	2656.294867
970.476078	2660.675630
970.774639	2670.641991
971.073162	2676.668690
971.371649	2681.548527
971.670098	2685.972140
971.968510	2692.538242
972.266885	2697.665096
972.565223	2703.285982
972.863524	2705.917465
973.161788	2708.125490
973.460014	2711.177909
973.758204	2716.216542
974.056356	2716.214022
974.354471	2722.621328
974.652550	2720.559496
974.950591	2716.728219
975.248595	2718.853066
975.546563	2715.215873
975.844493	2710.827549
976.142386	2709.209338
976.440243	2703.033925
976.738062	2698.829602
977.035845	2694.373222
977.333590	2687.945751
977.631299	2680.111798
977.928971	2677.949143
978.226606	2667.365241
978.524204	2666.412463
978.821765	2659.979950
979.119290	2665.235353
979.416777	2659.909374
979.714228	2663.720487
980.011642	2668.925478
980.309020	2674.705161
980.606360	2686.292253
980.903664	2705.178936
981.200931	2735.135992
981.498162	2777.267436
981.795356	2841.549709
982.092513	2924.958120
982.389633	3023.298429
982.686717	3117.736884
982.983764	3198.226467
983.280775	3254.276536
983.577749	3276.008950
983.874686	3271.315636
984.171587	3242.636512
984.468451	3208.684341
984.765279	3168.070285
985.062070	3126.052268
985.358824	3082.602562
985.655543	3031.066847
985.952224	2980.244454
986.248869	2918.858324
986.545478	2859.160980
986.842050	2801.974131
987.138586	2756.555855
987.435086	2715.052036
987.731549	2684.986594
988.027975	2652.062818
988.324366	2636.435241
988.620719	2622.612397
988.917037	2611.415995
989.213318	2598.727411
989.509563	2593.161977
989.805772	2587.813312
990.101944	2581.373238
990.398080	2581.683269
990.694180	2575.480130
990.990244	2575.757393
991.286271	2576.294276
991.582262	2580.745615
991.878217	2579.621437
992.174136	2583.097313
992.470019	2583.820719
992.765865	2588.947572
993.061676	2593.529981
993.357450	2602.641867
993.653188	2608.068669
993.948890	2623.565176
994.244556	2639.217958
994.540186	2658.034065
994.835780	2687.751667
995.131337	2722.081925
995.426859	2760.858480
995.722345	2805.346663
996.017795	2852.451204
996.313208	2892.422513
996.608586	2926.120106
996.903928	2943.504525
997.199234	2947.313117
997.494504	2947.325720
997.789738	2933.265942
998.084936	2912.287180
998.380099	2885.024620
998.675225	2858.704756
998.970316	2830.179387
999.265371	2792.305198
999.560390	2759.020979
999.855373	2729.686505
1000.150320	2699.729448
1000.445232	2671.705674
1000.740108	2651.659526
1001.034948	2633.909623
1001.329752	2617.430091
1001.624521	2605.467433
1001.919254	2595.397728
1002.213951	2585.849783
1002.508613	2575.454924
1002.803239	2570.020560
1003.097829	2563.167111
1003.392384	2558.562017
1003.686903	2550.917107
1003.981386	2551.728733
1004.275834	2545.172713
1004.570246	2543.816642
1004.864623	2539.987886
1005.158964	2539.927392
1005.453270	2533.343645
1005.747540	2535.002185
1006.041775	2532.786598
1006.335974	2532.355579
1006.630138	2530.276103
1006.924266	2530.641587
1007.218359	2529.928263
1007.512416	2523.306708
1007.806438	2523.614218
1008.100425	2523.238652
1008.394376	2519.243538
1008.688292	2525.076153
1008.982172	2523.190761
1009.276017	2527.775691
1009.569827	2521.194464
1009.863602	2524.614887
1010.157341	2519.167921
1010.451045	2525.290402
1010.744714	2518.333610
1011.038347	2519.414937
1011.331945	2518.550379
1011.625508	2519.178003
1011.919036	2515.921418
1012.212528	2517.637930
1012.505986	2515.598784
1012.799408	2519.165400
1013.092795	2516.107940
1013.386147	2514.585512
1013.679464	2512.901766
1013.972745	2513.904956
1014.265992	2511.054183
1014.559204	2512.445542
1014.852380	2510.983607
1015.145521	2510.933196
1015.438628	2511.187774
1015.731699	2515.341685
1016.024736	2515.308917
1016.317737	2514.766993
1016.610703	2512.332116
1016.903635	2519.183044
1017.196531	2517.829494
1017.489393	2521.176820
1017.782219	2520.375277
1018.075011	2520.609691
1018.367768	2523.052130
1018.660490	2521.877541
1018.953177	2521.877541
1019.245829	2521.877541
