Dividing Wavelength (nm)	Counts (n)	Blue Motor Position (mm): 0.000000	Red Motor Position (mm): 30.500000	
326.493990	2052.097455
326.888308	2052.097455
327.282561	2052.097455
327.676750	2024.716428
328.070874	2029.288754
328.464933	2034.927285
328.858929	2043.645961
329.252859	2052.145346
329.646726	2064.791080
330.040528	2080.627865
330.434265	2095.232088
330.827938	2119.359050
331.221547	2137.890332
331.615091	2159.441264
332.008571	2180.109995
332.401986	2203.163192
332.795338	2220.058619
333.188625	2238.294993
333.581847	2258.991450
333.975006	2276.247320
334.368100	2296.409414
334.761129	2311.651343
335.154095	2325.940494
335.546996	2346.006807
335.939833	2370.221989
336.332606	2385.249669
336.725315	2396.110835
337.117960	2410.921745
337.510540	2415.640265
337.903056	2425.667120
338.295508	2433.571649
338.687896	2441.193873
339.080220	2440.921651
339.472480	2449.347940
339.864676	2455.172993
340.256807	2452.707869
340.648875	2459.689867
341.040879	2461.792028
341.432818	2460.584672
341.824694	2459.392439
342.216506	2460.312449
342.608253	2461.560135
342.999937	2458.389249
343.391557	2459.669702
343.783113	2459.213478
344.174605	2458.875721
344.566033	2456.652572
344.957397	2455.697273
345.348697	2452.672581
345.739934	2449.559668
346.131106	2449.700821
346.522215	2445.962805
346.913260	2448.367435
347.304241	2442.907866
347.695159	2443.658998
348.086012	2441.715633
348.476802	2439.011054
348.867528	2436.576177
349.258191	2434.652976
349.648789	2433.087698
350.039324	2429.102666
350.429796	2435.522575
350.820203	2432.732297
351.210548	2434.632812
351.600828	2432.381937
351.991045	2429.657193
352.381198	2429.243818
352.771288	2433.750610
353.161314	2433.175918
353.551276	2432.485280
353.941175	2432.485280
354.331010	2432.326484
354.720782	2431.209868
355.110490	2431.267842
355.500135	2433.332194
355.889717	2430.917481
356.279235	2433.783377
356.668689	2433.276741
357.058080	2433.319591
357.447408	2433.606937
357.836672	2434.715991
358.225873	2435.013419
358.615010	2437.349994
359.004084	2435.857812
359.393095	2435.328491
359.782043	2438.416198
360.170927	2436.480395
360.559748	2434.963007
360.948505	2435.532658
361.337199	2442.497012
361.725830	2439.464758
362.114398	2440.377207
362.502903	2443.003648
362.891344	2442.265119
363.279722	2442.635643
363.668037	2442.164296
364.056289	2443.308637
364.444478	2442.766713
364.832603	2444.904163
365.220665	2442.902825
365.608665	2445.834256
365.996601	2447.833073
366.384474	2444.064811
366.772284	2447.026488
367.160031	2449.746191
367.547715	2447.966664
367.935336	2443.449790
368.322893	2445.884667
368.710388	2442.895263
369.097820	2447.336519
369.485189	2447.223093
369.872495	2452.896912
370.259738	2451.679473
370.646918	2452.722992
371.034035	2451.944134
371.421090	2454.051336
371.808081	2456.387911
372.195010	2457.217181
372.581875	2456.100565
372.968678	2459.372274
373.355418	2461.713890
373.742096	2460.292285
374.128710	2464.607512
374.515262	2465.406535
374.901751	2469.164716
375.288177	2472.295272
375.674540	2477.759883
376.060841	2478.150572
376.447079	2485.760194
376.833254	2485.268682
377.219367	2491.640700
377.605417	2500.613954
377.991404	2504.578821
378.377329	2512.299348
378.763191	2516.768331
379.148991	2527.523633
379.534727	2537.106867
379.920402	2543.083154
380.306013	2551.448949
380.691563	2568.291444
381.077049	2576.485840
381.462474	2584.776017
381.847835	2599.995261
382.233134	2616.663836
382.618371	2626.100876
383.003545	2643.659215
383.388657	2656.123468
383.773706	2675.410922
384.158693	2687.421471
384.543618	2705.927547
384.928480	2720.312480
385.313280	2742.959863
385.698017	2761.750764
386.082692	2785.401337
386.467305	2800.645787
386.851856	2824.220743
387.236344	2852.121009
387.620770	2870.304451
388.005133	2891.197513
388.389435	2923.037440
388.773674	2937.354317
389.157851	2969.501755
389.541965	2993.719458
389.926018	3008.787467
390.310008	3042.094371
390.693936	3065.505489
391.077802	3095.003801
391.461606	3127.166362
391.845348	3142.551964
392.229027	3172.511541
392.612645	3209.395143
392.996200	3242.003847
393.379694	3278.126235
393.763125	3320.668532
394.146494	3346.552337
394.529801	3381.719426
394.913047	3430.399328
395.296230	3433.555090
395.679351	3458.029892
396.062410	3511.037625
396.445408	3488.417968
396.828343	3528.532949
397.211217	3562.258269
397.594028	3538.622819
397.976778	3585.233327
398.359466	3616.896815
398.742092	3631.521202
399.124656	3640.207110
399.507158	3704.065926
399.889598	3704.963252
400.271977	3771.899692
400.654294	3757.575254
401.036549	3821.756704
401.418742	3819.042043
401.800874	3890.079462
402.182944	3916.674069
402.564952	4000.372347
402.946898	3996.805730
403.328783	3992.427488
403.710606	4041.056979
404.092367	4113.387454
404.474067	4172.825178
404.855705	4157.459742
405.237282	4131.540649
405.618797	4227.700659
406.000250	4301.404848
406.381642	4388.084968
406.762972	4388.861306
407.144240	4354.684803
407.525447	4417.971449
407.906593	4438.481383
408.287677	4520.687479
408.668700	4547.960121
409.049661	4587.921348
409.430560	4624.426863
409.811399	4605.212506
410.192176	4659.843490
410.572891	4742.210902
410.953545	4848.208724
411.334138	4741.255604
411.714669	4855.311710
412.095139	4763.156897
412.475547	4878.657293
412.855894	4880.724166
413.236180	4980.450792
413.616405	4907.860697
413.996568	5011.625288
414.376670	5015.680896
414.756711	5011.365668
415.136691	5077.429989
415.516609	5164.601622
415.896466	5196.192012
416.276262	5278.370382
416.655997	5392.287856
417.035670	5485.619778
417.415283	5629.527076
417.794834	5698.628692
418.174324	5661.432539
418.553753	5660.620913
418.933121	5824.208876
419.312428	5835.319579
419.691674	5761.875009
420.070859	5992.553168
420.449983	5869.145721
420.829045	6060.631430
421.208047	5986.586962
421.586988	6147.424975
421.965867	6224.453806
422.344686	6303.864582
422.723444	6467.686959
423.102141	6086.689154
423.480777	6480.844370
423.859352	6289.812366
424.237866	6659.250805
424.616319	6653.274517
424.994712	6816.736451
425.373044	6730.721763
425.751314	7042.789351
426.129524	6767.522187
426.507673	7033.228803
426.885762	7074.916625
427.263789	7116.289374
427.641756	7207.526697
428.019662	7284.454705
428.397508	7323.243863
428.775292	7304.420195
429.153016	7470.911862
429.530679	7405.734784
429.908282	7457.819986
430.285824	7400.539875
430.663305	7690.136519
431.040726	7573.030516
431.418086	7574.111843
431.795385	7702.464661
432.172624	7900.957573
432.549802	7781.522556
432.926920	7910.833194
433.303977	7851.932352
433.680974	7890.371150
434.057910	8099.969724
434.434786	8146.164338
434.811601	8106.994572
435.188355	8446.917055
435.565050	8331.429262
435.941683	8342.328237
436.318257	8673.368207
436.694770	8628.801886
437.071222	8860.526084
437.447614	8634.332032
437.823946	8601.244419
438.200218	8747.165658
438.576429	8637.581056
438.952580	8796.531157
439.328670	8805.075913
439.704700	8880.486533
440.080670	8772.724308
440.456580	9041.092653
440.832429	9017.220269
441.208218	8756.950538
441.583947	8867.193010
441.959616	8991.583482
442.335224	9022.271506
442.710773	9106.305020
443.086261	9288.149521
443.461689	9006.792643
443.837057	9168.016304
444.212365	9387.951764
444.587612	9370.509372
444.962800	9268.181511
445.337927	9393.829750
445.712995	8939.213455
446.088002	9611.446279
446.462949	9668.807048
446.837837	9658.001335
447.212664	9676.305764
447.587431	10501.754377
447.962139	11506.587409
448.336786	12451.909619
448.711374	12232.017009
449.085901	11028.973370
449.460369	10952.239447
449.834776	10724.459952
450.209124	11635.409054
450.583412	11458.835079
450.957640	11775.278388
451.331808	11370.156142
451.705917	10795.245313
452.079965	10673.516571
452.453954	10875.944104
452.827883	10819.478140
453.201752	10789.417739
453.575562	10794.713472
453.949311	11138.595781
454.323001	11199.722292
454.696632	11124.205807
455.070202	11712.667258
455.443713	11764.132397
455.817164	11931.591966
456.190556	12248.274730
456.563888	12116.120882
456.937160	12386.188097
457.310373	11864.466482
457.683526	11881.916436
458.056619	11894.042932
458.429653	11958.922582
458.802628	12103.618821
459.175542	12148.197744
459.548398	12694.121938
459.921194	13265.496397
460.293930	13544.277246
460.666607	14396.539757
461.039224	15207.331215
461.411782	15559.188630
461.784280	15232.524381
462.156719	15188.031158
462.529099	15102.949083
462.901419	14456.574858
463.273680	14054.177355
463.645882	14268.181897
464.018024	14138.546106
464.390106	14502.648483
464.762130	15551.894080
465.134094	17065.923980
465.505999	19339.237348
465.877845	21601.613932
466.249631	22876.990567
466.621358	22440.892951
466.993026	21651.728043
467.364634	20903.446892
467.736184	20097.348748
468.107674	19477.659871
468.479105	19341.604169
468.850477	19062.966993
469.221790	18622.266804
469.593043	17960.191904
469.964238	17569.263027
470.335373	17610.260210
470.706449	18328.445672
471.077467	19163.038938
471.448425	21608.590889
471.819324	23477.119768
472.190164	23389.716243
472.560945	21658.379845
472.931667	20071.895963
473.302330	19742.035622
473.672934	19177.749025
474.043479	19583.025027
474.413965	19362.595534
474.784393	19162.464247
475.154761	19815.132353
475.525070	19934.166598
475.895321	19745.042671
476.265513	20265.307392
476.635645	20833.851243
477.005719	20882.972246
477.375734	21212.973738
477.745691	21818.597797
478.115588	22429.651178
478.485427	23572.334562
478.855207	25303.862523
479.224928	27052.767342
479.594591	28435.777652
479.964194	28075.090656
480.333739	28509.305402
480.703226	28678.995681
481.072653	29082.446785
481.442022	29527.487409
481.811333	29884.544774
482.180584	29431.420660
482.549777	29167.826288
482.918912	28871.807213
483.287988	28753.493853
483.657005	28565.431088
484.025964	28153.435228
484.394864	28279.960628
484.763706	28162.587443
485.132489	27568.532833
485.501213	27586.186953
485.869879	27667.155446
486.238487	27537.234829
486.607036	27717.529176
486.975527	27346.764913
487.343959	27593.259692
487.712333	27854.446914
488.080648	27715.401809
488.448905	28039.147229
488.817104	27842.607764
489.185244	28506.472273
489.553326	29264.528221
489.921350	30865.621368
490.289315	33033.859446
490.657222	33750.136831
491.025070	34170.437992
491.392861	33810.234947
491.760593	32986.263392
492.128267	31951.662347
492.495883	30954.759050
492.863440	30019.390598
493.230939	28998.377983
493.598380	28346.912192
493.965763	28054.195074
494.333088	27468.276886
494.700354	27158.802972
495.067563	26966.004043
495.434713	26705.716667
495.801805	26783.882278
496.168839	26491.104665
496.535815	26198.112804
496.902733	26141.631716
497.269593	25827.658572
497.636395	25777.025223
498.003139	25828.200496
498.369825	25453.030265
498.736453	25584.082621
499.103023	25286.233608
499.469535	25170.771020
499.835989	25068.581791
500.202385	24786.146105
500.568723	24605.524083
500.935003	24638.430215
501.301226	24333.906714
501.667390	24683.251114
502.033497	24637.366532
502.399546	24264.409367
502.765537	23761.846658
503.131470	23901.705910
503.497345	23988.814528
503.863163	23004.468745
504.228923	23344.552546
504.594625	23378.098904
504.960269	22791.800109
505.325856	23014.067102
505.691385	22556.637843
506.056856	22541.290051
506.422270	22619.929530
506.787625	22062.713151
507.152924	22123.746401
507.518164	21989.815546
507.883347	21489.816264
508.248472	21330.004125
508.613540	21502.822441
508.978550	21392.171634
509.343503	21038.844723
509.708398	21005.265597
510.073236	21088.951272
510.438016	20893.369626
510.802738	20456.485589
511.167403	20499.196765
511.532010	20385.241483
511.896561	20418.210629
512.261053	20562.901827
512.625488	20175.262302
512.989866	19864.946515
513.354186	19623.848291
513.718449	19354.854842
514.082655	19542.930210
514.446803	19121.101580
514.810894	19166.691254
515.174927	18904.926820
515.538904	18649.516761
515.902822	18686.559159
516.266684	18282.810627
516.630488	18179.472014
516.994235	17911.096107
517.357925	17904.250220
517.721558	17754.706912
518.085133	17654.912230
518.448651	17470.716031
518.812112	17181.638625
519.175516	16982.447513
519.538863	16907.445226
519.902152	16691.913214
520.265385	16645.658107
520.628560	16403.612146
520.991678	16140.718494
521.354739	15975.308154
521.717743	15868.675147
522.080690	15597.387973
522.443580	15592.664412
522.806413	15356.466190
523.169189	15163.538712
523.531908	15012.808212
523.894569	14733.550974
524.257174	14569.506786
524.619722	14456.892451
524.982213	14276.605666
525.344647	14076.605448
525.707025	13883.289801
526.069345	13784.962096
526.431608	13565.003950
526.793815	13450.443729
527.155964	13117.218419
527.518057	12969.429432
527.880093	12717.522974
528.242072	12680.795648
528.603995	12414.284968
528.965860	12195.786237
529.327669	12051.561346
529.689421	11886.617312
530.051117	11686.433093
530.412755	11566.357850
530.774337	11397.416181
531.135862	11207.994826
531.497331	11058.811960
531.858743	10891.276773
532.220098	10800.664554
532.581396	10574.563763
532.942638	10366.074242
533.303824	10251.874464
533.664953	10102.099262
534.026025	9888.470286
534.387040	9830.255041
534.747999	9696.435092
535.108902	9589.638247
535.469748	9337.938477
535.830537	9230.561900
536.191270	9131.460377
536.551947	8948.514384
536.912567	8849.339764
537.273131	8732.647135
537.633638	8545.516983
537.994089	8440.701313
538.354483	8274.552444
538.714821	8238.493070
539.075103	8150.590471
539.435328	8011.449583
539.795497	7855.314966
540.155609	7747.991322
540.515665	7699.006430
540.875665	7499.089392
541.235609	7411.756442
541.595496	7313.688356
541.955328	7264.796725
542.315102	7094.811538
542.674821	6976.505740
543.034483	6859.737493
543.394090	6760.230158
543.753640	6658.965980
544.113134	6654.754096
544.472571	6476.627445
544.831953	6477.691128
545.191278	6318.297406
545.550548	6196.810639
545.909761	6156.617519
546.268918	6081.501807
546.628019	6023.853692
546.987064	5886.099122
547.346053	5754.769502
547.704986	5734.337706
548.063863	5627.523217
548.422684	5557.365479
548.781449	5451.828924
549.140158	5406.929887
549.498811	5316.700795
549.857408	5204.830029
550.215949	5183.069889
550.574434	5102.827322
550.932864	5026.632803
551.291237	4998.530890
551.649555	4918.121966
552.007817	4863.473338
552.366022	4785.121204
552.724173	4721.131318
553.082267	4676.905275
553.440305	4633.004387
553.798288	4544.315367
554.156215	4498.667719
554.514086	4453.829176
554.871902	4378.796642
555.229661	4336.279551
555.587365	4263.855814
555.945014	4225.318713
556.302606	4174.329963
556.660143	4130.602994
557.017625	4091.841563
557.375050	4033.296122
557.732421	4001.085670
558.089735	3959.864155
558.446994	3911.978234
558.804197	3888.224317
559.161345	3844.023481
559.518437	3783.433852
559.875474	3753.247423
560.232455	3722.440932
560.589381	3690.036395
560.946251	3650.874192
561.303065	3633.739310
561.659825	3594.935028
562.016528	3557.201991
562.373177	3517.023995
562.729770	3504.234588
563.086307	3465.488279
563.442789	3450.153089
563.799216	3422.575457
564.155587	3393.500603
564.511904	3370.596120
564.868164	3349.193901
565.224370	3333.132785
565.580520	3311.493632
565.936615	3293.032927
566.292654	3268.227929
566.648638	3255.551948
567.004567	3238.336408
567.360441	3220.405023
567.716260	3201.611602
568.072023	3194.523740
568.427732	3176.753672
568.783385	3155.023779
569.138982	3150.058242
569.494525	3140.447282
569.850013	3122.694859
570.205445	3111.306892
570.560823	3097.743668
570.916145	3086.693459
571.271412	3079.645926
571.626625	3067.040521
571.981782	3056.133984
572.336884	3040.493804
572.691931	3034.288144
573.046923	3023.618542
573.401860	3013.314423
573.756743	3009.586490
574.111570	3002.722959
574.466342	2995.186434
574.821059	2991.017400
575.175722	2979.843683
575.530330	2973.927888
575.884882	2958.204530
576.239380	2954.554734
576.593823	2951.456945
576.948211	2947.792026
577.302544	2935.403391
577.656823	2929.807710
578.011047	2927.161104
578.365216	2923.138263
578.719330	2910.593352
579.073389	2909.191911
579.427394	2905.204359
579.781344	2900.095149
580.135239	2895.495096
580.489080	2888.934035
580.842866	2881.105123
581.196597	2880.840462
581.550273	2880.031357
581.903895	2873.593803
582.257463	2874.405429
582.610975	2863.816486
582.964434	2865.354038
583.317837	2858.193078
583.671186	2853.852645
584.024481	2850.810309
584.377721	2846.600945
584.730906	2844.655060
585.084037	2844.486181
585.437113	2836.291786
585.790135	2837.204234
586.143103	2827.986485
586.496016	2827.731906
586.848874	2824.661844
587.201679	2823.482214
587.554428	2817.745381
587.907124	2816.719506
588.259765	2812.401757
588.612352	2810.523928
588.964884	2802.785757
589.317362	2805.432362
589.669786	2799.856846
590.022155	2797.595889
590.374470	2795.599592
590.726731	2790.709672
591.078937	2782.071655
591.431090	2788.950310
591.783188	2781.693569
592.135232	2777.083434
592.487222	2778.288269
592.839157	2776.186108
593.191038	2772.952208
593.542866	2769.141096
593.894639	2764.407452
594.246358	2761.639859
594.598022	2760.697163
594.949633	2756.873448
595.301190	2756.286153
595.652692	2754.771287
596.004141	2754.678025
596.355535	2748.484968
596.706876	2745.951788
597.058162	2743.337950
597.409395	2742.992631
597.760573	2746.649988
598.111698	2739.945253
598.462768	2738.906776
598.813785	2736.728997
599.164748	2731.680282
599.515657	2734.581466
599.866511	2729.731876
600.217312	2731.851681
600.568060	2724.221894
600.918753	2730.220867
601.269392	2726.132492
601.619978	2724.206771
601.970510	2724.501678
602.320988	2725.867831
602.671412	2725.507389
603.021783	2721.184599
603.372100	2717.658312
603.722363	2718.923642
604.072572	2718.464897
604.422728	2720.138560
604.772830	2714.492467
605.122878	2713.161603
605.472872	2710.000799
605.822813	2709.721015
606.172701	2709.456355
606.522534	2711.455172
606.872314	2712.057590
607.222041	2710.633464
607.571714	2709.136242
607.921333	2702.668441
608.270899	2706.282948
608.620411	2705.163812
608.969870	2705.660366
609.319276	2703.989223
609.668627	2704.994934
610.017926	2706.088864
610.367171	2705.546940
610.716362	2706.167002
611.065500	2704.178267
611.414585	2705.874615
611.763616	2704.848740
612.112594	2703.631302
612.461518	2703.752289
612.810389	2704.226158
613.159207	2703.782536
613.507971	2700.573842
613.856682	2702.774305
614.205340	2700.745241
614.553945	2705.826724
614.902496	2701.365303
615.250994	2702.154243
615.599439	2704.405119
615.947830	2702.749100
616.296169	2703.717001
616.644454	2699.651311
616.992686	2703.681713
617.340864	2705.040304
617.688990	2700.294058
618.037063	2702.819676
618.385082	2705.322609
618.733048	2704.382433
619.080961	2700.465457
619.428821	2702.812114
619.776628	2700.382278
620.124382	2701.866898
620.472083	2703.729604
620.819731	2702.371013
621.167326	2700.326825
621.514868	2697.037472
621.862357	2697.377750
622.209793	2696.583768
622.557176	2692.306349
622.904506	2690.839374
623.251783	2687.131605
623.599007	2687.088755
623.946179	2684.817715
624.293297	2686.834177
624.640363	2682.609690
624.987376	2680.263033
625.334336	2677.248423
625.681243	2676.706499
626.028097	2672.895387
626.374899	2676.489729
626.721647	2674.115346
627.068343	2675.582322
627.414987	2670.891528
627.761577	2668.635612
628.108115	2672.053514
628.454600	2666.430107
628.801032	2668.975889
629.147412	2669.721980
629.493739	2667.065292
629.840014	2666.662000
630.186236	2667.292144
630.532405	2664.713594
630.878521	2667.415652
631.224585	2666.014212
631.570597	2660.410969
631.916556	2663.760816
632.262462	2660.436175
632.608316	2663.869201
632.954117	2664.867349
633.299866	2662.676968
633.645562	2663.349962
633.991206	2658.021462
634.336797	2655.483241
634.682336	2656.304949
635.027823	2653.534835
635.373257	2653.673467
635.718639	2652.372849
636.063968	2652.382932
636.409245	2651.009217
636.754470	2647.777837
637.099642	2646.348670
637.444762	2645.960502
637.789829	2644.861530
638.134845	2642.056128
638.479808	2643.477733
638.824719	2641.032774
639.169577	2642.111581
639.514383	2643.157620
639.859137	2638.880201
640.203839	2638.721405
640.548489	2639.243164
640.893086	2640.957156
641.237632	2637.647639
641.582125	2635.681589
641.926566	2634.759058
642.270955	2633.849129
642.615292	2631.396608
642.959576	2630.761423
643.303809	2631.371402
643.647990	2633.813841
643.992118	2635.991620
644.336195	2634.993471
644.680219	2633.907103
645.024192	2634.025570
645.368112	2636.278966
645.711981	2634.222175
646.055797	2639.575880
646.399562	2639.016312
646.743274	2644.594349
647.086935	2645.252219
647.430544	2642.013278
647.774101	2644.879174
648.117606	2646.245327
648.461059	2646.071407
648.804460	2645.290028
649.147810	2644.153248
649.491108	2642.615696
649.834354	2640.700057
650.177548	2638.045890
650.520690	2637.284676
650.863781	2637.438431
651.206820	2632.830816
651.549807	2634.857360
651.892742	2630.436268
652.235626	2629.811165
652.578458	2630.176649
652.921238	2625.352265
653.263967	2629.221350
653.606644	2624.722120
653.949269	2626.234467
654.291843	2623.318159
654.634365	2626.461318
654.976836	2621.710031
655.319255	2624.321349
655.661622	2623.809672
656.003938	2623.910495
656.346203	2622.733385
656.688416	2623.734054
657.030577	2621.815895
657.372687	2622.788838
657.714746	2619.229783
658.056753	2622.022582
658.398708	2618.587036
658.740612	2620.686677
659.082465	2617.929166
659.424266	2618.415637
659.766016	2618.561830
660.107715	2618.866820
660.449362	2616.038733
660.790958	2622.685494
661.132503	2620.981584
661.473996	2620.043930
661.815438	2620.981584
662.156829	2619.862448
662.498168	2619.048302
662.839456	2616.671398
663.180693	2621.662140
663.521879	2622.017541
663.863013	2620.134670
664.204097	2620.744650
664.545129	2623.328241
664.886110	2621.137860
665.227040	2622.042747
665.567918	2622.877058
665.908746	2621.740278
666.249522	2621.939403
666.590248	2620.306070
666.930922	2622.700618
667.271545	2623.630711
667.612118	2625.811010
667.952639	2625.168262
668.293109	2623.703807
668.633528	2625.385032
668.973896	2622.546862
669.314213	2623.189610
669.654480	2620.628703
669.994695	2619.063425
670.334859	2622.015021
670.674973	2620.709362
671.015035	2618.415637
671.355047	2617.906480
671.695008	2623.108951
672.034918	2620.810185
672.374777	2619.620473
672.714585	2615.922786
673.054342	2619.678446
673.394049	2619.275154
673.733705	2622.345216
674.073310	2619.050822
674.412864	2619.809516
674.752368	2618.014865
675.091820	2619.610390
675.431223	2619.300359
675.770574	2617.576285
676.109875	2616.114350
676.449125	2615.350615
676.788324	2608.207300
677.127473	2608.915582
677.466571	2608.187136
677.805619	2612.275512
678.144616	2610.979935
678.483562	2611.496653
678.822458	2609.003803
679.161303	2607.758638
679.500098	2608.469440
679.838842	2608.489605
680.177535	2605.855602
680.516179	2609.197887
680.854771	2608.915582
681.193314	2613.087137
681.531805	2617.228445
681.870247	2619.318003
682.208638	2619.988477
682.546978	2625.483335
682.885268	2627.877883
683.223508	2625.281688
683.561697	2623.177007
683.899836	2624.205402
684.237925	2619.199536
684.575963	2619.232304
684.913951	2618.289608
685.251889	2614.579319
685.589776	2620.167438
685.927614	2617.974536
686.265401	2619.665843
686.603137	2618.103085
686.940824	2622.335134
687.278460	2623.295474
687.616046	2626.181534
687.953582	2626.468880
688.291068	2624.643982
688.628504	2628.077008
688.965889	2628.508027
689.303224	2626.892337
689.640510	2629.516258
689.977745	2623.539970
690.314930	2621.394959
690.652065	2618.234155
690.989150	2615.574947
691.326185	2610.392641
691.663170	2612.131839
692.000105	2603.133379
692.336990	2602.019284
692.673825	2598.571135
693.010610	2600.239757
693.347345	2592.809096
693.684030	2591.203488
694.020665	2592.007552
694.357251	2584.599577
694.693786	2591.112748
695.030272	2587.531008
695.366707	2587.447829
695.703093	2584.062694
696.039429	2585.083528
696.375716	2582.580595
696.711952	2585.995977
697.048139	2580.725450
697.384276	2581.375759
697.720363	2581.950451
698.056400	2583.334247
698.392388	2580.410378
698.728326	2582.762076
699.064214	2579.843248
699.400053	2579.876016
699.735842	2580.949782
700.071581	2576.558937
700.407270	2576.700089
700.742910	2576.871488
701.078501	2574.287897
701.414042	2574.734039
701.749533	2575.553226
702.084974	2572.405026
702.420366	2572.969635
702.755709	2571.578277
703.091002	2571.474933
703.426246	2569.670200
703.761440	2565.360013
704.096584	2570.779254
704.431679	2570.764130
704.766725	2566.496793
705.101721	2567.769685
705.436668	2565.289437
705.771565	2566.806824
706.106413	2570.126424
706.441212	2564.876063
706.775961	2568.699778
707.110661	2567.089129
707.445311	2569.125755
707.779913	2567.651218
708.114465	2569.985272
708.448967	2570.270097
708.783421	2577.143710
709.117825	2572.644481
709.452180	2578.950964
709.786485	2580.803588
710.120742	2582.172261
710.454949	2577.100861
710.789107	2585.474217
711.123216	2584.087900
711.457275	2588.950093
711.791286	2591.601740
712.125247	2592.824219
712.459159	2589.827253
712.793023	2597.136927
713.126837	2592.763726
713.460602	2595.823706
713.794318	2591.768098
714.127985	2590.001173
714.461602	2587.410020
714.795171	2587.120154
715.128691	2581.504308
715.462162	2580.866602
715.795584	2575.606158
716.128957	2577.471385
716.462281	2572.311764
716.795556	2573.690520
717.128782	2569.889490
717.461960	2570.524675
717.795088	2566.214489
718.128167	2567.835220
718.461198	2560.331462
718.794180	2563.983778
719.127113	2562.491597
719.459997	2562.151319
719.792833	2560.679302
720.125619	2560.911195
720.458357	2557.790721
720.791046	2557.465566
721.123686	2555.386090
721.456278	2555.285267
721.788821	2553.793086
722.121315	2552.855431
722.453761	2554.894578
722.786158	2552.684032
723.118506	2554.796275
723.450805	2552.129505
723.783056	2554.357695
724.115259	2553.087324
724.447412	2554.045143
724.779518	2554.304763
725.111574	2550.964998
725.443582	2556.669064
725.775542	2554.861810
726.107453	2561.412790
726.439315	2556.737120
726.771129	2562.907492
727.102895	2557.137891
727.434612	2560.545711
727.766281	2558.884651
728.097901	2566.070816
728.429473	2569.163564
728.760996	2566.320353
729.092471	2567.315981
729.423897	2565.720456
729.755276	2567.477298
730.086606	2568.059551
730.417887	2570.696075
730.749120	2570.471743
731.080305	2574.537434
731.411442	2573.826631
731.742530	2576.493402
732.073570	2579.046746
732.404562	2576.291755
732.735506	2579.278639
733.066401	2577.932651
733.397249	2577.534400
733.728048	2573.587176
734.058798	2568.528378
734.389501	2566.214489
734.720156	2563.847667
735.050762	2557.221070
735.381320	2559.247614
735.711831	2553.407438
736.042293	2554.327448
736.372707	2554.292160
736.703073	2553.591440
737.033391	2553.321738
737.363661	2553.664536
737.693883	2555.134033
738.024056	2557.347099
738.354182	2554.831563
738.684260	2559.630742
739.014290	2557.798282
739.344272	2559.492110
739.674207	2564.001422
740.004093	2567.169787
740.333931	2561.062430
740.663722	2567.310940
740.993464	2564.248439
741.323159	2562.990671
741.652806	2561.372461
741.982405	2561.465722
742.311956	2559.131668
742.641460	2559.459343
742.970915	2556.142263
743.300323	2552.774773
743.629683	2550.400389
743.958996	2549.500543
744.288260	2545.870912
744.617477	2549.228321
744.946647	2551.106151
745.275768	2546.087682
745.604842	2546.622044
745.933869	2546.735470
746.262847	2548.189843
746.591778	2544.817311
746.920662	2544.093906
747.249498	2544.103988
747.578286	2545.966694
747.907027	2545.886036
748.235720	2551.275029
748.564365	2547.403423
748.892963	2547.229503
749.221514	2549.160265
749.550017	2549.732436
749.878473	2546.606921
750.206881	2547.799154
750.535242	2546.059956
750.863555	2544.340922
751.191821	2546.203629
751.520039	2546.637168
751.848210	2546.188505
752.176334	2545.533155
752.504411	2544.850079
752.832440	2542.994934
753.160421	2543.458720
753.488356	2542.551313
753.816243	2548.237734
754.144082	2541.729605
754.471875	2541.369162
754.799620	2539.138452
755.127318	2541.318751
755.454969	2541.732125
755.782572	2541.996786
756.110129	2541.626261
756.437638	2542.039636
756.765100	2541.840510
757.092515	2544.903011
757.419882	2543.998124
757.747203	2540.446631
758.074477	2541.263298
758.401703	2541.999306
758.728882	2545.613814
759.056014	2544.237579
759.383099	2543.725902
759.710138	2544.408978
760.037129	2541.076775
760.364073	2544.040974
760.690970	2542.919317
761.017820	2546.750594
761.344623	2548.635985
761.671379	2552.061449
761.998088	2554.443395
762.324751	2562.174004
762.651366	2578.651015
762.977935	2600.494335
763.304456	2622.347737
763.630931	2631.825106
763.957359	2626.657923
764.283740	2616.469752
764.610074	2608.345932
764.936362	2590.868252
765.262602	2582.326017
765.588796	2568.934191
765.914943	2561.808520
766.241044	2551.635472
766.567097	2548.658671
766.893104	2544.391334
767.219064	2541.870757
767.544978	2538.188194
767.870845	2537.089223
768.196665	2534.487987
768.522438	2534.104859
768.848165	2528.110928
769.173846	2529.913140
769.499479	2528.282327
769.825066	2527.062368
770.150607	2525.058509
770.476101	2527.193438
770.801548	2524.347706
771.126949	2524.418282
771.452303	2520.672705
771.777611	2518.134484
772.102872	2518.043743
772.428087	2519.367046
772.753256	2519.034330
773.078378	2518.562982
773.403453	2519.765297
773.728482	2517.335461
774.053465	2516.780934
774.378401	2515.223218
774.703291	2516.841428
775.028135	2512.407733
775.352932	2516.188599
775.677683	2512.405213
776.002388	2512.238855
776.327046	2507.674090
776.651658	2512.022085
776.976224	2509.204080
777.300743	2509.758607
777.625216	2513.357991
777.949643	2513.985614
778.274024	2511.356653
778.598359	2512.402692
778.922647	2512.488392
779.246889	2510.371107
779.571086	2511.734739
779.895236	2511.575943
780.219339	2510.066117
780.543397	2511.407064
780.867409	2513.363032
781.191374	2513.264729
781.515294	2508.856240
781.839167	2510.539986
782.162995	2510.209790
782.486776	2509.630058
782.810511	2509.657784
783.134201	2511.621313
783.457844	2509.718278
783.781441	2507.762310
784.104993	2508.846158
784.428498	2507.457320
784.751958	2508.115191
785.075372	2509.715757
785.398739	2509.723319
785.722061	2511.631396
786.045337	2509.390603
786.368568	2509.050325
786.691752	2509.246930
787.014891	2512.374966
787.337983	2515.402179
787.661030	2520.203878
787.984031	2523.165556
788.306987	2526.780063
788.629897	2525.466842
788.952760	2529.051103
789.275579	2527.836185
789.598351	2525.645803
789.921078	2522.709331
790.243759	2521.207067
790.566395	2518.436953
790.888984	2519.225894
791.211529	2513.421005
791.534027	2514.797240
791.856480	2514.527538
792.178888	2509.206601
792.501249	2508.410098
792.823566	2507.890859
793.145836	2502.557319
793.468062	2505.692916
793.790241	2506.340705
794.112375	2507.908503
794.434464	2510.489574
794.756507	2507.936230
795.078505	2510.290449
795.400457	2513.252127
795.722364	2514.139370
796.044226	2517.186747
796.366042	2519.031809
796.687812	2518.754546
797.009538	2520.652540
797.331218	2519.644310
797.652852	2520.062725
797.974442	2518.535256
798.295986	2516.909484
798.617484	2515.666839
798.938938	2517.048115
799.260346	2513.342867
799.581709	2511.296159
799.903026	2512.100223
800.224299	2510.383710
800.545526	2509.834224
800.866708	2509.130983
801.187845	2509.463699
801.508936	2507.951353
801.829983	2507.578308
802.150984	2507.850530
802.471940	2507.757269
802.792851	2508.490757
803.113717	2510.177023
803.434538	2508.641991
803.755314	2505.511435
804.076045	2505.521517
804.396731	2505.818945
804.717372	2505.239212
805.037967	2506.567557
805.358518	2507.553102
805.679024	2507.036384
805.999485	2506.799450
806.319901	2507.270798
806.640272	2504.944305
806.960598	2507.573267
807.280879	2508.825993
807.601115	2508.321878
807.921306	2508.659635
808.241453	2503.726866
808.561554	2504.357011
808.881611	2505.912207
809.201623	2501.289468
809.521590	2508.132835
809.841513	2509.264574
810.161390	2509.902280
810.481223	2508.450427
810.801011	2506.713750
811.120755	2506.736435
811.440453	2505.629902
811.760107	2507.026302
812.079716	2507.679131
812.399281	2504.662000
812.718801	2505.314830
813.038276	2506.224758
813.357707	2505.352638
813.677093	2505.201404
813.996434	2503.792401
814.315731	2505.511435
814.634983	2504.167967
814.954191	2505.909686
815.273354	2508.006806
815.592473	2508.773061
815.911547	2509.940088
816.230577	2508.072341
816.549562	2510.958402
816.868502	2511.714575
817.187399	2512.644668
817.506250	2512.122908
817.825058	2510.872702
818.143821	2514.693897
818.462539	2518.568023
818.781213	2518.474762
819.099843	2521.927952
819.418429	2534.127545
819.736970	2538.173071
820.055466	2548.457024
820.373919	2560.719631
820.692327	2579.107240
821.010691	2604.610437
821.329011	2664.635456
821.647286	2764.785539
821.965517	2895.285888
822.283704	2993.215343
822.601847	3047.899259
822.919945	3012.585977
823.237999	2961.476238
823.556010	2896.034500
823.873976	2838.194821
824.191897	2778.225255
824.509775	2737.281003
824.827609	2699.462267
825.145398	2668.527227
825.463144	2656.488951
825.780845	2654.364105
826.098502	2660.897440
826.416116	2688.056657
826.733685	2715.031871
827.051210	2730.059551
827.368692	2725.711555
827.686129	2698.307843
828.003522	2668.181908
828.320872	2637.781229
828.638177	2610.594287
828.955439	2594.578541
829.272656	2577.418453
829.589830	2564.230795
829.906960	2548.991387
830.224046	2539.965201
830.541088	2535.947401
830.858086	2527.067409
831.175041	2524.377953
831.491952	2523.276461
831.808819	2523.929290
832.125642	2525.933149
832.442421	2532.794159
832.759157	2546.135573
833.075849	2568.787998
833.392497	2593.053592
833.709101	2614.188629
834.025662	2618.181223
834.342179	2609.071858
834.658653	2592.920001
834.975083	2579.066911
835.291469	2564.971844
835.607811	2549.455173
835.924110	2542.125335
836.240366	2533.109232
836.556578	2526.379291
836.872746	2516.206243
837.188871	2514.792199
837.504952	2511.006292
837.820990	2505.357680
838.136984	2508.614265
838.452935	2503.671414
838.768842	2505.607217
839.084706	2504.004130
839.400526	2514.003258
839.716303	2525.945752
840.032037	2535.730632
840.347727	2538.415046
840.663373	2535.602082
840.978977	2525.970958
841.294537	2520.685308
841.610054	2512.072497
841.925527	2507.943792
842.240957	2507.691734
842.556344	2502.806856
842.871687	2499.419200
843.186987	2496.512975
843.502244	2492.167501
843.817458	2494.451143
844.132629	2493.064826
844.447756	2489.203302
844.762840	2488.893271
845.077881	2488.300936
845.392879	2488.772283
845.707833	2487.438898
846.022745	2485.407313
846.337613	2487.872438
846.652438	2484.817498
846.967221	2484.973774
847.281960	2482.599391
847.596656	2484.822539
847.911309	2483.721047
848.225919	2483.932776
848.540485	2484.509988
848.855009	2484.033599
849.169490	2484.474700
849.483928	2481.911273
849.798323	2483.206850
850.112675	2482.473362
850.426984	2483.552169
850.741251	2482.498568
851.055474	2483.897488
851.369654	2481.472693
851.683792	2482.760707
851.997887	2483.070738
852.311938	2482.342292
852.625947	2484.429329
852.939914	2484.159628
853.253837	2482.160810
853.567718	2482.183495
853.881555	2481.336582
854.195350	2482.853969
854.509103	2485.283805
854.822812	2481.762559
855.136479	2482.972436
855.450103	2482.218783
855.763685	2480.645943
856.077224	2478.087558
856.390720	2480.366159
856.704173	2477.308700
857.017584	2483.398413
857.330953	2480.083855
857.644278	2484.993939
857.957561	2485.724906
858.270802	2486.692808
858.584000	2482.707775
858.897155	2483.171562
859.210268	2482.644761
859.523339	2484.356233
859.836367	2481.553351
860.149352	2483.403455
860.462295	2482.049905
860.775195	2486.433188
861.088054	2485.770276
861.400869	2483.312714
861.713642	2483.784062
862.026373	2482.175934
862.339062	2484.441932
862.651708	2483.723568
862.964312	2486.191213
863.276873	2485.513177
863.589392	2482.969915
863.901869	2483.476551
864.214303	2486.710452
864.526696	2485.976964
864.839045	2485.901346
865.151353	2486.357571
865.463619	2486.491161
865.775842	2488.734475
866.088023	2487.612818
866.400162	2488.384115
866.712258	2486.987715
867.024313	2489.969557
867.336325	2490.292191
867.648296	2486.065184
867.960224	2486.965030
868.272110	2487.080976
868.583954	2488.129536
868.895755	2488.212715
869.207515	2487.748929
869.519233	2489.745226
869.830909	2487.272540
870.142542	2489.510813
870.454134	2488.633652
870.765684	2489.142808
871.077191	2488.028713
871.388657	2490.327479
871.700081	2486.286995
872.011463	2491.126502
872.322803	2485.646768
872.634101	2491.257572
872.945357	2493.032058
873.256571	2496.583551
873.567744	2494.703201
873.878874	2496.775115
874.189963	2494.163797
874.501010	2495.426607
874.812015	2496.823006
875.122979	2495.623212
875.433900	2496.023983
875.744780	2494.768736
876.055618	2498.337873
876.366415	2498.393326
876.677169	2496.865856
876.987882	2499.295692
877.298554	2499.154540
877.609183	2499.953563
877.919771	2503.351300
878.230317	2504.122597
878.540822	2503.469768
878.851285	2509.141066
879.161707	2512.049811
879.472087	2525.381143
879.782425	2538.155427
880.092722	2561.841288
880.402977	2600.385950
880.713191	2647.767755
881.023363	2702.975952
881.333494	2741.634040
881.643583	2760.760177
881.953631	2761.667585
882.263637	2749.034454
882.573602	2730.956876
882.883526	2716.060266
883.193408	2694.138809
883.503248	2672.799605
883.813048	2654.908550
884.122806	2636.185704
884.432522	2618.302211
884.742197	2600.895107
885.051831	2580.049936
885.361424	2568.283882
885.670975	2557.137891
885.980485	2545.190357
886.289954	2536.988399
886.599382	2531.518748
886.908768	2525.280320
887.218113	2516.581809
887.527417	2514.041067
887.836680	2509.322547
888.145901	2509.415808
888.455082	2506.179388
888.764221	2503.469768
889.073319	2503.588235
889.382376	2500.245950
889.691392	2503.336177
890.000366	2499.109169
890.309300	2499.885507
890.618193	2499.759478
890.927044	2500.104797
891.235855	2498.741165
891.544625	2498.327791
891.853353	2502.713594
892.162041	2502.801815
892.470687	2505.619820
892.779293	2507.525376
893.087858	2512.279184
893.396381	2518.273116
893.704864	2526.901051
894.013306	2543.055428
894.321707	2559.711400
894.630068	2570.290262
894.938387	2571.631209
895.246665	2575.089440
895.554903	2572.127762
895.863100	2559.096380
896.171256	2555.013045
896.479371	2543.864533
896.787446	2539.710623
897.095480	2534.941691
897.403473	2527.707635
897.711425	2523.059691
898.019336	2520.183713
898.327207	2518.988960
898.635038	2514.525018
898.942827	2512.720285
899.250576	2505.748369
899.558284	2505.208966
899.865952	2502.126300
900.173579	2500.508090
900.481165	2498.705877
900.788711	2495.230002
901.096216	2497.695126
901.403681	2496.455002
901.711105	2498.680671
902.018489	2493.936946
902.325832	2494.143633
902.633135	2494.995588
902.940397	2501.044973
903.247619	2506.151661
903.554800	2529.295599
903.861941	2557.238714
904.169041	2581.978177
904.476101	2597.111721
904.783121	2594.165166
905.090100	2586.563106
905.397039	2574.340829
905.703938	2564.739951
906.010796	2549.722354
906.317614	2547.370656
906.624391	2536.524613
906.931129	2528.000022
907.237826	2522.946265
907.544483	2517.557272
907.851099	2508.437825
908.157675	2505.208966
908.464211	2502.431290
908.770707	2496.946514
909.077163	2494.587254
909.383578	2491.600371
909.689954	2488.515185
909.996289	2486.075266
910.302584	2486.609628
910.608839	2485.752632
910.915054	2484.525111
911.221229	2483.728609
911.527363	2485.772797
911.833458	2484.474700
912.139513	2485.737509
912.445527	2485.092241
912.751502	2484.769607
913.057436	2488.474855
913.363331	2489.200782
913.669186	2495.633294
913.975000	2496.374343
914.280775	2501.443224
914.586510	2510.209790
914.892205	2521.668333
915.197859	2540.733977
915.503475	2556.406924
915.809050	2575.807805
916.114585	2587.465473
916.420081	2591.483273
916.725536	2593.308170
917.030952	2587.382294
917.336328	2583.369535
917.641665	2574.534913
917.946961	2568.228430
918.252218	2563.371278
918.557435	2553.208312
918.862612	2548.295707
919.167750	2541.180119
919.472848	2535.128214
919.777906	2530.906247
920.082925	2522.275792
920.387904	2514.890502
920.692843	2511.482682
920.997743	2509.751045
921.302603	2502.950529
921.607423	2500.742503
921.912204	2497.438027
922.216946	2495.350989
922.521647	2496.245794
922.826310	2493.087511
923.130932	2492.069198
923.435516	2491.129023
923.740059	2488.961327
924.044564	2487.832108
924.349028	2485.167858
924.653454	2484.610811
924.957840	2482.985039
925.262186	2482.523773
925.566493	2480.323310
925.870761	2481.442446
926.174989	2479.524287
926.479178	2477.800212
926.783328	2477.868268
927.087438	2478.969760
927.391509	2478.387507
927.695541	2476.570171
927.999533	2475.864409
928.303486	2476.958339
928.607400	2477.291056
928.911275	2476.136631
929.215110	2474.016826
929.518906	2474.873822
929.822663	2476.360963
930.126381	2472.121352
930.430060	2477.049080
930.733699	2475.773668
931.037299	2477.159986
931.340861	2476.849955
931.644383	2476.605459
931.947866	2475.773668
932.251309	2476.111426
932.554714	2472.958184
932.858080	2471.481126
933.161407	2471.549181
933.464694	2470.896352
933.767943	2471.960035
934.071153	2472.300313
934.374323	2475.395582
934.677455	2473.689151
934.980548	2474.241158
935.283602	2472.771661
935.586617	2473.815180
935.889593	2473.600931
936.192530	2473.777371
936.495428	2474.286528
936.798287	2476.542444
937.101108	2474.871302
937.403890	2479.539410
937.706632	2478.344657
938.009336	2476.771817
938.312002	2480.167034
938.614628	2478.327013
938.917216	2481.016468
939.219765	2481.742394
939.522275	2484.232724
939.824747	2483.358084
940.127179	2484.683908
940.429573	2484.487303
940.731929	2482.279277
941.034246	2483.753815
941.336524	2481.361787
941.638763	2481.840697
941.940964	2482.947230
942.243126	2480.202322
942.545250	2481.669298
942.847335	2478.984883
943.149381	2477.502784
943.451389	2478.011941
943.753359	2479.385655
944.055290	2477.258288
944.357182	2477.180150
944.659036	2477.737198
944.960851	2479.650316
945.262628	2475.440952
945.564367	2478.594194
945.866067	2477.583443
946.167729	2476.418936
946.469352	2478.833649
946.770937	2476.368524
947.072484	2474.266363
947.373992	2477.928762
947.675462	2477.255768
947.976893	2474.435242
948.278286	2472.736373
948.579641	2475.226703
948.880958	2470.810652
949.182236	2475.690489
949.483476	2475.413226
949.784678	2475.808956
950.085841	2478.415233
950.386967	2476.257619
950.688054	2479.796509
950.989103	2476.028247
951.290114	2475.786271
951.591087	2476.822228
951.892021	2479.778865
952.192917	2476.315592
952.493776	2480.146869
952.794596	2477.807774
953.095378	2481.782724
953.396122	2477.399440
953.696828	2477.323823
953.997496	2480.406489
954.298126	2478.009420
954.598718	2477.472537
954.899272	2477.328864
955.199788	2478.707620
955.500266	2475.998000
955.800706	2474.788123
956.101108	2474.692341
956.401472	2474.316775
956.701798	2475.098154
957.002087	2471.841568
957.302337	2472.927937
957.602550	2470.777885
957.902724	2472.532206
958.202861	2469.464664
958.502960	2469.131948
958.803022	2468.814355
959.103045	2465.968624
959.403031	2470.235961
959.702979	2466.533233
960.002889	2471.163533
960.302762	2467.428038
960.602596	2468.799232
960.902393	2466.989458
961.202153	2466.114817
961.501875	2469.048769
961.801559	2467.112966
962.101205	2465.504838
962.400814	2468.920220
962.700385	2465.499797
962.999918	2464.446196
963.299414	2461.633232
963.598873	2463.236319
963.898293	2457.978395
964.197677	2466.606330
964.497022	2467.801083
964.796331	2467.987606
965.095601	2465.671196
965.394835	2466.467698
965.694030	2467.783439
965.993189	2468.406022
966.292309	2465.232616
966.591393	2466.508028
966.890439	2464.363017
967.189447	2463.165743
967.488419	2464.650362
967.787353	2464.325208
968.086249	2465.086422
968.385108	2463.700105
968.683930	2466.707153
968.982714	2466.558439
969.281462	2466.056844
969.580172	2463.531226
969.878844	2466.170270
970.177480	2465.492235
970.476078	2468.194293
970.774639	2467.566670
971.073162	2467.128089
971.371649	2466.170270
971.670098	2464.980558
971.968510	2464.824282
972.266885	2466.820579
972.565223	2465.615743
972.863524	2468.300158
973.161788	2468.426187
973.460014	2464.710856
973.758204	2469.419294
974.056356	2467.606999
974.354471	2469.986424
974.652550	2465.240177
974.950591	2468.716053
975.248595	2467.138172
975.546563	2468.148923
975.844493	2466.523151
976.142386	2466.797894
976.440243	2467.750672
976.738062	2465.179683
977.035845	2465.088943
977.333590	2467.206227
977.631299	2463.750516
977.928971	2465.938377
978.226606	2463.863942
978.524204	2466.455095
978.821765	2460.652727
979.119290	2466.132462
979.416777	2468.494242
979.714228	2467.193624
980.011642	2469.447020
980.309020	2467.543985
980.606360	2469.200004
980.903664	2468.605148
981.200931	2467.720425
981.498162	2471.052628
981.795356	2468.688327
982.092513	2474.465489
982.389633	2474.203349
982.686717	2479.408340
982.983764	2479.657877
983.280775	2481.465131
983.577749	2482.485965
983.874686	2480.439256
984.171587	2480.351036
984.468451	2480.683752
984.765279	2477.187712
985.062070	2478.062352
985.358824	2474.644450
985.655543	2474.772999
985.952224	2473.605972
986.248869	2471.972638
986.545478	2470.480457
986.842050	2469.063892
987.138586	2467.917030
987.435086	2467.382668
987.731549	2467.307050
988.027975	2469.436938
988.324366	2464.219344
988.620719	2467.387709
988.917037	2465.507358
989.213318	2465.651031
989.509563	2463.606843
989.805772	2465.323356
990.101944	2462.792697
990.398080	2462.649024
990.694180	2464.539457
990.990244	2463.563994
991.286271	2463.057358
991.582262	2465.154478
991.878217	2465.088943
992.174136	2466.177832
992.470019	2462.870835
992.765865	2463.647173
993.061676	2459.173149
993.357450	2461.252625
993.653188	2457.837243
993.948890	2466.775209
994.244556	2463.009467
994.540186	2466.991978
994.835780	2464.400825
995.131337	2468.799232
995.426859	2468.156485
995.722345	2469.298306
996.017795	2468.063223
996.313208	2472.496918
996.608586	2471.208903
996.903928	2471.576908
997.199234	2473.530355
997.494504	2473.860550
997.789738	2474.102526
998.084936	2471.334932
998.380099	2472.552371
998.675225	2470.493060
998.970316	2471.889459
999.265371	2470.301496
999.560390	2469.678913
999.855373	2466.823100
1000.150320	2468.907617
1000.445232	2464.988120
1000.740108	2465.877883
1001.034948	2463.269086
1001.329752	2465.487194
1001.624521	2466.553398
1001.919254	2461.287913
1002.213951	2465.575414
1002.508613	2462.946452
1002.803239	2465.678758
1003.097829	2464.040383
1003.392384	2463.818572
1003.686903	2460.919908
1003.981386	2464.776391
1004.275834	2462.623818
1004.570246	2465.146916
1004.864623	2461.108952
1005.158964	2460.718262
1005.453270	2462.628860
1005.747540	2463.316977
1006.041775	2462.883438
1006.335974	2461.529888
1006.630138	2463.422841
1006.924266	2462.560804
1007.218359	2461.870166
1007.512416	2461.411421
1007.806438	2460.173818
1008.100425	2458.661472
1008.394376	2456.801286
1008.688292	2464.022739
1008.982172	2462.903603
1009.276017	2464.610033
1009.569827	2462.802779
1009.863602	2460.587192
1010.157341	2460.844291
1010.451045	2462.497790
1010.744714	2461.550053
1011.038347	2461.693726
1011.331945	2463.014508
1011.625508	2460.829168
1011.919036	2459.611729
1012.212528	2461.449230
1012.505986	2463.190948
1012.799408	2459.463015
1013.092795	2462.160032
1013.386147	2460.733386
1013.679464	2462.142388
1013.972745	2462.870835
1014.265992	2461.033334
1014.559204	2461.552573
1014.852380	2459.914198
1015.145521	2462.545681
1015.438628	2461.729014
1015.731699	2459.175669
1016.024736	2462.341514
1016.317737	2461.648355
1016.610703	2461.701287
1016.903635	2459.883951
1017.196531	2461.595423
1017.489393	2461.179528
1017.782219	2459.652058
1018.075011	2463.395115
1018.367768	2459.170628
1018.660490	2464.274796
1018.953177	2464.274796
1019.245829	2464.274796
