Dividing Wavelength (nm)	Counts (n)	Blue Motor Position (mm): 0.000000	Red Motor Position (mm): 0.500000	
326.493990	2057.060471
326.888308	2057.060471
327.282561	2057.060471
327.676750	2030.332273
328.070874	2033.750176
328.464933	2039.184539
328.858929	2045.581764
329.252859	2056.334545
329.646726	2069.098746
330.040528	2087.415779
330.434265	2102.322471
330.827938	2124.377519
331.221547	2145.898205
331.615091	2166.060299
332.008571	2183.827846
332.401986	2207.211238
332.795338	2224.003322
333.188625	2249.040212
333.581847	2264.080495
333.975006	2281.903494
334.368100	2299.605506
334.761129	2315.868268
335.154095	2331.470639
335.546996	2347.272136
335.939833	2359.136492
336.332606	2373.405478
336.725315	2382.696324
337.117960	2396.753582
337.510540	2407.750859
337.903056	2413.901067
338.295508	2420.857859
338.687896	2428.936308
339.080220	2430.362954
339.472480	2437.178594
339.864676	2442.247475
340.256807	2446.726540
340.648875	2445.090685
341.040879	2448.632096
341.432818	2450.343568
341.824694	2451.296346
342.216506	2448.962292
342.608253	2447.775100
342.999937	2448.702672
343.391557	2448.901798
343.783113	2447.235696
344.174605	2446.852569
344.566033	2442.791919
344.957397	2444.694955
345.348697	2439.424428
345.739934	2440.034408
346.131106	2440.301589
346.522215	2438.179263
346.913260	2433.165836
347.304241	2432.152564
347.695159	2431.683737
348.086012	2431.794642
348.476802	2426.612336
348.867528	2423.706111
349.258191	2420.426840
349.648789	2425.326842
350.039324	2415.899884
350.429796	2420.696542
350.820203	2420.205029
351.210548	2419.847107
351.600828	2418.198650
351.991045	2418.685122
352.381198	2415.831828
352.771288	2417.414751
353.161314	2413.215470
353.551276	2419.834505
353.941175	2418.712848
354.331010	2419.138825
354.720782	2417.734864
355.110490	2418.528846
355.500135	2420.401634
355.889717	2420.638569
356.279235	2419.443815
356.668689	2419.194278
357.058080	2418.680080
357.447408	2422.408014
357.836672	2420.565472
358.225873	2420.958682
358.615010	2420.169741
359.004084	2421.757705
359.393095	2421.256110
359.782043	2423.635535
360.170927	2425.548652
360.559748	2424.127047
360.948505	2425.725093
361.337199	2424.217788
361.725830	2422.793662
362.114398	2427.804569
362.502903	2422.765936
362.891344	2424.774835
363.279722	2425.362130
363.668037	2427.439085
364.056289	2425.624270
364.444478	2427.547470
364.832603	2430.378078
365.220665	2431.139292
365.608665	2428.739703
365.996601	2426.947573
366.384474	2432.018973
366.772284	2431.398912
367.160031	2432.598706
367.547715	2429.510999
367.935336	2431.378747
368.322893	2426.556883
368.710388	2427.476894
369.097820	2428.593509
369.485189	2426.854311
369.872495	2430.874632
370.259738	2431.759354
370.646918	2432.782708
371.034035	2432.578542
371.421090	2435.598193
371.808081	2435.469643
372.195010	2436.722370
372.581875	2431.824889
372.968678	2436.195569
373.355418	2434.806732
373.742096	2435.003337
374.128710	2437.239088
374.515262	2435.923347
374.901751	2437.148347
375.288177	2435.489808
375.674540	2434.952925
376.060841	2434.279931
376.447079	2438.592638
376.833254	2436.533327
377.219367	2437.879315
377.605417	2441.559357
377.991404	2438.123811
378.377329	2436.460230
378.763191	2436.082143
379.148991	2436.092226
379.534727	2437.402926
379.920402	2436.941660
380.306013	2437.609613
380.691563	2438.784202
381.077049	2436.946701
381.462474	2441.163627
381.847835	2438.451486
382.233134	2440.546085
382.618371	2438.708585
383.003545	2438.761517
383.388657	2439.311003
383.773706	2440.483071
384.158693	2443.021292
384.543618	2439.621033
384.928480	2442.930551
385.313280	2440.349480
385.698017	2442.126487
386.082692	2440.384768
386.467305	2441.670263
386.851856	2441.398040
387.236344	2439.946188
387.620770	2441.728236
388.005133	2438.612803
388.389435	2437.435693
388.773674	2436.964345
389.157851	2441.798812
389.541965	2441.803853
389.926018	2444.616817
390.310008	2445.599842
390.693936	2444.954574
391.077802	2445.367949
391.461606	2446.197219
391.845348	2443.840479
392.229027	2446.648402
392.612645	2442.368462
392.996200	2448.818619
393.379694	2443.676642
393.763125	2447.717127
394.146494	2445.277208
394.529801	2445.705706
394.913047	2446.335850
395.296230	2444.533638
395.679351	2447.273505
396.062410	2448.440532
396.445408	2446.761828
396.828343	2448.085131
397.211217	2448.569082
397.594028	2447.288628
397.976778	2447.013886
398.359466	2446.396344
398.742092	2446.890377
399.124656	2448.014555
399.507158	2450.212498
399.889598	2448.687549
400.271977	2446.038422
400.654294	2448.982456
401.036549	2447.659153
401.418742	2449.484051
401.800874	2449.211829
402.182944	2449.163938
402.564952	2450.482199
402.946898	2453.668209
403.328783	2447.666715
403.710606	2451.732406
404.092367	2451.014041
404.474067	2452.236521
404.855705	2449.395831
405.237282	2453.106120
405.618797	2447.311314
406.000250	2451.828187
406.381642	2450.416664
406.762972	2449.965481
407.144240	2445.589760
407.525447	2451.591253
407.906593	2447.863320
408.287677	2453.869855
408.668700	2453.816923
409.049661	2452.773404
409.430560	2452.208795
409.811399	2453.380863
410.192176	2454.772221
410.572891	2452.735595
410.953545	2455.283898
411.334138	2456.302212
411.714669	2455.288940
412.095139	2455.838425
412.475547	2453.743826
412.855894	2452.100410
413.236180	2454.948662
413.616405	2453.499330
413.996568	2450.424226
414.376670	2454.106789
414.756711	2456.314814
415.136691	2455.321707
415.516609	2453.784155
415.896466	2458.732048
416.276262	2455.077211
416.655997	2454.994032
417.035670	2454.837756
417.415283	2457.688529
417.794834	2455.679629
418.174324	2456.692901
418.553753	2454.394135
418.933121	2455.392283
419.312428	2457.287757
419.691674	2456.062757
420.070859	2455.770370
420.449983	2457.743982
420.829045	2456.390432
421.208047	2455.316666
421.586988	2457.156687
421.965867	2455.987139
422.344686	2457.106276
422.723444	2457.935545
423.102141	2457.817078
423.480777	2458.880762
423.859352	2459.694908
424.237866	2460.806483
424.616319	2457.963272
424.994712	2457.970833
425.373044	2457.101234
425.751314	2455.888837
426.129524	2454.235338
426.507673	2456.715586
426.885762	2452.685184
427.263789	2458.600978
427.641756	2457.239866
428.019662	2460.234312
428.397508	2458.006122
428.775292	2459.430248
429.153016	2458.026286
429.530679	2460.955197
429.908282	2460.519137
430.285824	2461.580300
430.663305	2461.449230
431.040726	2460.055351
431.418086	2459.155505
431.795385	2460.965279
432.172624	2461.928139
432.549802	2460.289764
432.926920	2461.232460
433.303977	2459.770525
433.680974	2459.836060
434.057910	2464.063068
434.434786	2461.106431
434.811601	2462.197841
435.188355	2461.880248
435.565050	2459.241204
435.941683	2462.245732
436.318257	2464.133644
436.694770	2460.400670
437.071222	2461.653396
437.447614	2462.316308
437.823946	2463.364868
438.200218	2461.756740
438.576429	2462.805300
438.952580	2461.625670
439.328670	2463.163222
439.704700	2463.279168
440.080670	2460.950155
440.456580	2464.113479
440.832429	2464.030300
441.208218	2463.884107
441.583947	2461.474435
441.959616	2461.872687
442.335224	2464.884776
442.710773	2462.240691
443.086261	2464.637759
443.461689	2462.477625
443.837057	2465.315795
444.212365	2461.119034
444.587612	2463.722790
444.962800	2460.380505
445.337927	2463.145578
445.712995	2458.099383
446.088002	2464.604992
446.462949	2464.728500
446.837837	2463.909313
447.212664	2465.109107
447.587431	2465.048613
447.962139	2463.874025
448.336786	2466.490383
448.711374	2463.725311
449.085901	2466.218161
449.460369	2463.964765
449.834776	2466.220682
450.209124	2464.126082
450.583412	2466.361834
450.957640	2465.875363
451.331808	2463.372430
451.705917	2465.262863
452.079965	2465.613223
452.453954	2465.184725
452.827883	2466.077009
453.201752	2464.877214
453.575562	2466.777729
453.949311	2465.036011
454.323001	2468.012812
454.696632	2467.256639
455.070202	2467.521299
455.443713	2469.444500
455.817164	2467.259159
456.190556	2467.770837
456.563888	2467.478450
456.937160	2466.145064
457.310373	2465.552729
457.683526	2465.744293
458.056619	2465.023408
458.429653	2467.639767
458.802628	2466.492904
459.175542	2465.540126
459.548398	2467.168419
459.921194	2466.107256
460.293930	2467.518779
460.666607	2466.281176
461.039224	2465.474591
461.411782	2467.549026
461.784280	2467.533902
462.156719	2467.460806
462.529099	2467.332256
462.901419	2466.445013
463.273680	2466.540795
463.645882	2464.292440
464.018024	2466.755044
464.390106	2463.160701
464.762130	2468.133800
465.134094	2468.763944
465.505999	2468.370734
465.877845	2468.108594
466.249631	2467.082719
466.621358	2470.442648
466.993026	2466.230764
467.364634	2470.979531
467.736184	2468.131279
468.107674	2470.152782
468.479105	2468.867287
468.850477	2469.837710
469.221790	2468.433748
469.593043	2468.138841
469.964238	2470.062041
470.335373	2470.488018
470.706449	2466.949128
471.077467	2470.382154
471.448425	2467.213789
471.819324	2469.792339
472.190164	2469.346197
472.560945	2469.482308
472.931667	2469.172277
473.302330	2468.590024
473.672934	2470.097329
474.043479	2470.583800
474.413965	2470.188070
474.784393	2467.624643
475.154761	2470.344346
475.525070	2471.254274
475.895321	2472.406178
476.265513	2470.099850
476.635645	2468.653038
477.005719	2467.778398
477.375734	2471.607155
477.745691	2471.292083
478.115588	2470.450210
478.485427	2473.061528
478.855207	2470.452730
479.224928	2469.079016
479.594591	2470.641774
479.964194	2470.059520
480.333739	2471.282000
480.703226	2469.560446
481.072653	2472.963225
481.442022	2473.134624
481.811333	2472.257463
482.180584	2464.776391
482.549777	2468.113635
482.918912	2467.022225
483.287988	2469.573049
483.657005	2470.934161
484.025964	2472.723770
484.394864	2470.203193
484.763706	2469.005919
485.132489	2469.822586
485.501213	2470.034315
485.869879	2470.188070
486.238487	2471.506332
486.607036	2470.939202
486.975527	2472.118832
487.343959	2470.321660
487.712333	2471.622278
488.080648	2470.135138
488.448905	2472.202011
488.817104	2470.102370
489.185244	2470.982052
489.553326	2473.550519
489.921350	2472.161682
490.289315	2471.652525
490.657222	2470.765282
491.025070	2474.372228
491.392861	2471.080354
491.760593	2474.130252
492.128267	2472.106229
492.495883	2470.966928
492.863440	2473.137145
493.230939	2470.903914
493.598380	2473.500108
493.965763	2472.028091
494.333088	2474.052114
494.700354	2471.448358
495.067563	2471.486167
495.434713	2471.995323
495.801805	2470.853502
496.168839	2473.424491
496.535815	2472.065900
496.902733	2473.404326
497.269593	2473.059007
497.636395	2470.268728
498.003139	2473.071610
498.369825	2473.976497
498.736453	2473.847948
499.103023	2472.693523
499.469535	2472.794346
499.835989	2471.024901
500.202385	2472.849799
500.568723	2470.188070
500.935003	2470.251084
501.301226	2469.900724
501.667390	2472.985910
502.033497	2472.539768
502.399546	2473.071610
502.765537	2474.410036
503.131470	2470.556074
503.497345	2474.107567
503.863163	2471.909624
504.228923	2472.784264
504.594625	2474.510859
504.960269	2475.377938
505.325856	2472.002885
505.691385	2470.500621
506.056856	2473.890797
506.422270	2474.062197
506.787625	2473.482464
507.152924	2477.258288
507.518164	2472.728811
507.883347	2475.569502
508.248472	2473.245530
508.613540	2473.815180
508.978550	2472.522124
509.343503	2474.127732
509.708398	2475.629995
510.073236	2475.967753
510.438016	2475.186374
510.802738	2474.150417
511.167403	2472.411219
511.532010	2471.261836
511.896561	2474.732670
512.261053	2470.800570
512.625488	2474.057155
512.989866	2471.370220
513.354186	2474.616723
513.718449	2473.278297
514.082655	2471.718060
514.446803	2473.243009
514.810894	2477.129739
515.174927	2474.324337
515.538904	2474.669656
515.902822	2474.057155
516.266684	2474.117649
516.630488	2471.589511
516.994235	2476.040849
517.357925	2475.448514
517.721558	2473.527834
518.085133	2474.271404
518.448651	2472.761579
518.812112	2471.060189
519.175516	2470.344346
519.538863	2469.709160
519.902152	2473.167392
520.265385	2474.382310
520.628560	2475.637557
520.991678	2475.982876
521.354739	2474.394913
521.717743	2474.190746
522.080690	2474.001703
522.443580	2475.430870
522.806413	2476.295428
523.169189	2473.996662
523.531908	2476.194605
523.894569	2475.859368
524.257174	2474.525983
524.619722	2473.361476
524.982213	2475.748462
525.344647	2475.377938
525.707025	2473.903400
526.069345	2475.181333
526.431608	2472.348204
526.793815	2473.888277
527.155964	2476.552527
527.518057	2474.619244
527.880093	2473.537917
528.242072	2472.761579
528.603995	2472.791826
528.965860	2475.138483
529.327669	2471.992803
529.689421	2474.646970
530.051117	2476.960860
530.412755	2475.758545
530.774337	2474.377269
531.135862	2475.110757
531.497331	2475.587146
531.858743	2474.533544
532.220098	2477.631333
532.581396	2474.001703
532.942638	2474.646970
533.303824	2475.771148
533.664953	2475.970273
534.026025	2477.220479
534.387040	2477.016313
534.747999	2475.025057
535.108902	2477.459934
535.469748	2474.775520
535.830537	2477.220479
536.191270	2474.984728
536.551947	2473.399285
536.912567	2472.023050
537.273131	2473.217803
537.633638	2471.702937
537.994089	2476.847434
538.354483	2476.245016
538.714821	2474.957001
539.075103	2477.621251
539.435328	2476.275263
539.795497	2474.979687
540.155609	2475.655201
540.515665	2474.402474
540.875665	2476.711323
541.235609	2474.515900
541.595496	2477.648977
541.955328	2476.434059
542.315102	2474.369707
542.674821	2476.696199
543.034483	2476.403812
543.394090	2475.511528
543.753640	2475.985397
544.113134	2477.797692
544.472571	2477.338947
544.831953	2477.283494
545.191278	2477.437249
545.550548	2476.217290
545.909761	2473.815180
546.268918	2476.655870
546.628019	2475.420788
546.987064	2475.224182
547.346053	2473.653863
547.704986	2474.528503
548.063863	2477.122177
548.422684	2473.923565
548.781449	2474.573874
549.140158	2474.475571
549.498811	2478.337095
549.857408	2474.707464
550.215949	2475.998000
550.574434	2472.499439
550.932864	2477.585963
551.291237	2473.963894
551.649555	2476.078658
552.007817	2476.272742
552.366022	2476.756693
552.724173	2477.139821
553.082267	2477.543113
553.440305	2476.403813
553.798288	2478.810963
554.156215	2476.154275
554.514086	2476.199646
554.871902	2473.394244
555.229661	2473.021198
555.587365	2472.025570
555.945014	2478.788278
556.302606	2474.750314
556.660143	2476.219810
557.017625	2476.759214
557.375050	2478.415233
557.732421	2476.091261
558.089735	2479.557054
558.446994	2477.066724
558.804197	2478.226190
559.161345	2474.815849
559.518437	2478.790799
559.875474	2477.265850
560.232455	2475.201497
560.589381	2474.962042
560.946251	2477.212918
561.303065	2476.486992
561.659825	2474.946919
562.016528	2478.148052
562.373177	2474.861219
562.729770	2475.002372
563.086307	2475.083030
563.442789	2474.838534
563.799216	2477.117136
564.155587	2475.715695
564.511904	2473.290900
564.868164	2476.000520
565.224370	2474.722588
565.580520	2476.020685
565.936615	2477.913638
566.292654	2479.594863
566.648638	2475.370376
567.004567	2475.088071
567.360441	2476.184522
567.716260	2474.588997
568.072023	2476.912969
568.427732	2475.108236
568.783385	2474.594038
569.138982	2476.532362
569.494525	2476.607979
569.850013	2477.351549
570.205445	2475.627475
570.560823	2478.236272
570.916145	2476.542444
571.271412	2478.546303
571.626625	2477.159986
571.981782	2473.908441
572.336884	2474.974645
572.691931	2473.384161
573.046923	2471.556743
573.401860	2471.176136
573.756743	2477.492702
574.111570	2476.928093
574.466342	2477.470017
574.821059	2477.780048
575.175722	2475.546816
575.530330	2476.376086
575.884882	2475.761065
576.239380	2476.413895
576.593823	2479.879688
576.948211	2477.038998
577.302544	2474.301651
577.656823	2475.856847
578.011047	2477.064204
578.365216	2478.054790
578.719330	2477.260809
579.073389	2476.386168
579.427394	2475.778709
579.781344	2475.148565
580.135239	2476.756693
580.489080	2477.737198
580.842866	2476.786940
581.196597	2477.830459
581.550273	2477.480099
581.903895	2477.527990
582.257463	2476.348360
582.610975	2474.198308
582.964434	2477.948926
583.317837	2475.645119
583.671186	2476.378607
584.024481	2476.028247
584.377721	2475.130921
584.730906	2476.313072
585.084037	2475.710654
585.437113	2475.529172
585.790135	2477.641416
586.143103	2474.679738
586.496016	2476.187043
586.848874	2475.254429
587.201679	2478.732826
587.554428	2474.349542
587.907124	2477.407002
588.259765	2477.845583
588.612352	2474.500777
588.964884	2474.097485
589.317362	2477.454893
589.669786	2477.147383
590.022155	2474.586477
590.374470	2471.934830
590.726731	2473.555561
591.078937	2472.844758
591.431090	2478.692496
591.783188	2474.707464
592.135232	2474.873822
592.487222	2477.137300
592.839157	2476.955819
593.191038	2476.184522
593.542866	2477.452373
593.894639	2476.423977
594.246358	2478.279122
594.598022	2477.588484
594.949633	2477.278453
595.301190	2476.368524
595.652692	2477.439770
596.004141	2477.626292
596.355535	2477.933803
596.706876	2475.995479
597.058162	2477.210397
597.409395	2477.041518
597.760573	2478.422795
598.111698	2477.016313
598.462768	2478.677373
598.813785	2477.527990
599.164748	2476.217290
599.515657	2475.924903
599.866511	2476.645788
600.217312	2473.963894
600.568060	2477.747280
600.918753	2480.595532
601.269392	2480.557723
601.619978	2473.898359
601.970510	2480.230048
602.320988	2477.510346
602.671412	2479.115953
603.021783	2476.013123
603.372100	2478.707620
603.722363	2476.718885
604.072572	2477.437249
604.422728	2475.224182
604.772830	2475.556899
605.122878	2478.120325
605.472872	2477.764924
605.822813	2479.972949
606.172701	2476.978504
606.522534	2475.793833
606.872314	2477.855665
607.222041	2476.567650
607.571714	2474.939357
607.921333	2473.245530
608.270899	2477.901035
608.620411	2471.569346
608.969870	2477.767445
609.319276	2474.861219
609.668627	2476.852475
610.017926	2475.148565
610.367171	2476.184522
610.716362	2476.131590
611.065500	2476.837352
611.414585	2477.104533
611.763616	2476.247537
612.112594	2477.535552
612.461518	2478.521097
612.810389	2475.864409
613.159207	2474.667135
613.507971	2478.382465
613.856682	2475.541775
614.205340	2476.451703
614.553945	2473.845427
614.902496	2475.471199
615.250994	2476.923051
615.599439	2475.536734
615.947830	2478.405151
616.296169	2476.963381
616.644454	2474.515900
616.992686	2479.355408
617.340864	2476.829790
617.688990	2477.280973
618.037063	2476.348360
618.385082	2478.069914
618.733048	2477.444811
619.080961	2474.725108
619.428821	2476.784420
619.776628	2473.323667
620.124382	2476.552527
620.472083	2475.070427
620.819731	2478.740387
621.167326	2473.994141
621.514868	2474.289048
621.862357	2478.453042
622.209793	2477.822897
622.557176	2476.804584
622.904506	2475.869450
623.251783	2476.262660
623.599007	2473.603452
623.946179	2473.991620
624.293297	2477.679224
624.640363	2479.297435
624.987376	2475.027578
625.334336	2470.873667
625.681243	2475.682928
626.028097	2471.622278
626.374899	2474.190746
626.721647	2474.914152
627.068343	2475.090592
627.414987	2476.020685
627.761577	2477.366673
628.108115	2476.366004
628.454600	2476.272743
628.801032	2477.119656
629.147412	2475.735860
629.493739	2475.020016
629.840014	2477.250726
630.186236	2477.258288
630.532405	2476.000520
630.878521	2477.467496
631.224585	2476.285345
631.570597	2476.423977
631.916556	2474.798205
632.262462	2475.198977
632.608316	2477.049080
632.954117	2477.747280
633.299866	2479.814153
633.645562	2477.144862
633.991206	2475.871971
634.336797	2476.665953
634.682336	2476.118987
635.027823	2475.372897
635.373257	2476.292907
635.718639	2477.666622
636.063968	2477.616210
636.409245	2475.322485
636.754470	2474.445324
637.099642	2474.997331
637.444762	2478.281642
637.789829	2476.713843
638.134845	2477.220479
638.479808	2475.367855
638.824719	2476.194605
639.169577	2476.124028
639.514383	2476.550006
639.859137	2475.158648
640.203839	2474.334419
640.548489	2474.722588
640.893086	2474.750314
641.237632	2476.381127
641.582125	2475.932465
641.926566	2474.694861
642.270955	2474.795684
642.615292	2472.156640
642.959576	2475.791312
643.303809	2470.316619
643.647990	2475.710654
643.992118	2475.244347
644.336195	2476.426498
644.680219	2477.316261
645.024192	2476.285345
645.368112	2473.643781
645.711981	2477.953967
646.055797	2476.411374
646.399562	2478.382465
646.743274	2472.653194
647.086935	2473.384161
647.430544	2475.435911
647.774101	2475.226703
648.117606	2475.319964
648.461059	2477.127218
648.804460	2481.543269
649.147810	2476.345839
649.491108	2476.058493
649.834354	2478.556385
650.177548	2474.485653
650.520690	2477.371714
650.863781	2479.393217
651.206820	2476.572691
651.549807	2475.687969
651.892742	2473.719398
652.235626	2478.309369
652.578458	2473.938688
652.921238	2475.771148
653.263967	2477.729636
653.606644	2475.579584
653.949269	2477.601087
654.291843	2476.403813
654.634365	2477.084368
654.976836	2475.259471
655.319255	2476.388689
655.661622	2476.718885
656.003938	2476.968422
656.346203	2475.509008
656.688416	2475.869450
657.030577	2473.033801
657.372687	2473.933647
657.714746	2475.680407
658.056753	2474.715026
658.398708	2476.245016
658.740612	2475.745942
659.082465	2474.541106
659.424266	2473.091774
659.766016	2472.577577
660.107715	2474.959522
660.449362	2471.864253
660.790958	2475.851806
661.132503	2473.656384
661.473996	2476.028247
661.815438	2477.646457
662.156829	2476.076138
662.498168	2475.173771
662.839456	2473.346353
663.180693	2476.308031
663.521879	2477.031436
663.863013	2477.260809
664.204097	2475.985397
664.545129	2476.040849
664.886110	2477.049080
665.227040	2475.980356
665.567918	2478.319451
665.908746	2477.326344
666.249522	2477.278453
666.590248	2473.409367
666.930922	2475.708133
667.271545	2476.166878
667.612118	2475.539255
667.952639	2476.005561
668.293109	2476.171919
668.633528	2471.004737
668.973896	2475.584625
669.314213	2474.339460
669.654480	2472.907772
669.994695	2476.897846
670.334859	2477.737198
670.674973	2477.212918
671.015035	2475.491364
671.355047	2473.298462
671.695008	2475.095633
672.034918	2474.730149
672.374777	2478.659729
672.714585	2474.878863
673.054342	2477.585963
673.394049	2475.831642
673.733705	2471.549181
674.073310	2475.100674
674.412864	2474.914152
674.752368	2476.882722
675.091820	2475.783751
675.431223	2472.726291
675.770574	2477.999338
676.109875	2475.425829
676.449125	2473.298462
676.788324	2470.697226
677.127473	2474.951960
677.466571	2471.826445
677.805619	2474.430201
678.144616	2472.781743
678.483562	2478.216107
678.822458	2475.309882
679.161303	2476.562609
679.500098	2473.774851
679.838842	2476.020685
680.177535	2473.860550
680.516179	2475.224182
680.854771	2474.031950
681.193314	2473.752166
681.531805	2472.973307
681.870247	2477.031436
682.208638	2473.754686
682.546978	2478.435398
682.885268	2474.515900
683.223508	2476.000520
683.561697	2474.909110
683.899836	2473.686631
684.237925	2476.212249
684.575963	2474.384830
684.913951	2475.761065
685.251889	2476.081179
685.589776	2476.187043
685.927614	2477.412043
686.265401	2476.539924
686.603137	2476.728967
686.940824	2476.280304
687.278460	2477.147383
687.616046	2475.226703
687.953582	2474.523462
688.291068	2474.069758
688.628504	2474.820890
688.965889	2475.778709
689.303224	2472.454068
689.640510	2476.892804
689.977745	2476.706282
690.314930	2475.176292
690.652065	2476.681076
690.989150	2473.832824
691.326185	2476.489512
691.663170	2475.771148
692.000105	2476.073617
692.336990	2472.587659
692.673825	2478.674852
693.010610	2475.501446
693.347345	2474.357104
693.684030	2471.329891
694.020665	2473.600931
694.357251	2468.726135
694.693786	2475.380458
695.030272	2475.040180
695.366707	2474.437763
695.703093	2475.098154
696.039429	2473.953812
696.375716	2476.003041
696.711952	2475.400623
697.048139	2475.141003
697.384276	2476.532362
697.720363	2474.435242
698.056400	2474.979687
698.392388	2473.875674
698.728326	2476.050932
699.064214	2471.811321
699.400053	2475.002372
699.735842	2474.208390
700.071581	2473.810139
700.407270	2475.476240
700.742910	2475.151086
701.078501	2475.171250
701.414042	2474.394913
701.749533	2474.737711
702.084974	2475.909779
702.420366	2475.521611
702.755709	2474.606641
703.091002	2475.569502
703.426246	2475.325006
703.761440	2473.389203
704.096584	2477.893473
704.431679	2471.231589
704.766725	2475.635037
705.101721	2474.780561
705.436668	2474.707464
705.771565	2475.095633
706.106413	2474.195787
706.441212	2474.972125
706.775961	2475.647639
707.110661	2473.822742
707.445311	2473.651342
707.779913	2474.727629
708.114465	2475.514049
708.448967	2472.887608
708.783421	2471.831486
709.117825	2474.641929
709.452180	2477.008751
709.786485	2474.982207
710.120742	2473.033801
710.454949	2471.402988
710.789107	2472.973307
711.123216	2469.825107
711.457275	2475.841724
711.791286	2474.853658
712.125247	2471.135807
712.459159	2474.740232
712.793023	2475.062866
713.126837	2470.508183
713.460602	2474.435242
713.794318	2472.980869
714.127985	2476.368524
714.461602	2473.900880
714.795171	2476.093782
715.128691	2474.120170
715.462162	2475.415746
715.795584	2471.569346
716.128957	2476.817187
716.462281	2472.701085
716.795556	2472.229737
717.128782	2471.551702
717.461960	2476.068576
717.795088	2472.181846
718.128167	2473.313585
718.461198	2474.644450
718.794180	2475.456076
719.127113	2476.507156
719.459997	2475.957670
719.792833	2474.362145
720.125619	2472.416260
720.458357	2472.910293
720.791046	2476.045891
721.123686	2470.876187
721.456278	2473.167392
721.788821	2475.715695
722.121315	2473.621096
722.453761	2476.113946
722.786158	2475.824080
723.118506	2474.094964
723.450805	2474.904069
723.783056	2473.132104
724.115259	2471.213945
724.447412	2474.780561
724.779518	2473.795015
725.111574	2473.747124
725.443582	2472.123873
725.775542	2472.633029
726.107453	2473.348873
726.439315	2476.408854
726.771129	2476.136631
727.102895	2471.213945
727.434612	2470.929119
727.766281	2469.996506
728.097901	2474.717547
728.429473	2471.942391
728.760996	2474.611682
729.092471	2472.900211
729.423897	2476.665952
729.755276	2472.703606
730.086606	2475.778709
730.417887	2473.079172
730.749120	2475.468678
731.080305	2475.065386
731.411442	2473.384161
731.742530	2471.937350
732.073570	2474.694861
732.404562	2474.588997
732.735506	2473.059007
733.066401	2473.888277
733.397249	2473.482464
733.728048	2475.231744
734.058798	2474.284007
734.389501	2473.852989
734.720156	2472.378451
735.050762	2474.838534
735.381320	2474.284007
735.711831	2474.652012
736.042293	2471.912144
736.372707	2475.627475
736.703073	2474.147896
737.033391	2473.243009
737.363661	2473.573205
737.693883	2475.551858
738.024056	2472.149079
738.354182	2472.754017
738.684260	2475.168730
739.014290	2473.273256
739.344272	2472.118832
739.674207	2473.386682
740.004093	2474.659573
740.333931	2474.455407
740.663722	2474.962043
740.993464	2473.522793
741.323159	2474.014306
741.652806	2472.441466
741.982405	2474.888946
742.311956	2472.761579
742.641460	2476.272743
742.970915	2473.618575
743.300323	2468.993316
743.629683	2471.705457
743.958996	2471.844089
744.288260	2469.641105
744.617477	2473.590849
744.946647	2470.944243
745.275768	2473.709316
745.604842	2472.355766
745.933869	2475.226703
746.262847	2475.710654
746.591778	2475.287197
746.920662	2472.824593
747.249498	2474.546147
747.578286	2473.157309
747.907027	2473.827783
748.235720	2471.680251
748.564365	2472.285190
748.892963	2474.440283
749.221514	2473.361476
749.550017	2472.033132
749.878473	2473.870633
750.206881	2474.263843
750.535242	2473.318626
750.863555	2473.674028
751.191821	2474.289048
751.520039	2471.478605
751.848210	2472.701085
752.176334	2472.527165
752.504411	2472.741414
752.832440	2472.438945
753.160421	2472.643112
753.488356	2471.400467
753.816243	2473.046404
754.144082	2470.929119
754.471875	2473.709316
754.799620	2474.594038
755.127318	2473.900880
755.454969	2471.730663
755.782572	2474.888946
756.110129	2470.430045
756.437638	2475.627475
756.765100	2473.326188
757.092515	2474.490695
757.419882	2471.622278
757.747203	2470.845940
758.074477	2470.543471
758.401703	2474.536065
758.728882	2474.964563
759.056014	2472.539768
759.383099	2473.227886
759.710138	2471.508852
760.037129	2470.039356
760.364073	2470.538430
760.690970	2467.014663
761.017820	2471.997844
761.344623	2473.043883
761.671379	2474.364666
761.998088	2473.179995
762.324751	2474.210911
762.651366	2474.291569
762.977935	2471.362659
763.304456	2471.806280
763.630931	2471.627319
763.957359	2472.696044
764.283740	2470.813173
764.610074	2472.391054
764.936362	2472.534727
765.262602	2473.381641
765.588796	2474.672176
765.914943	2471.738225
766.241044	2473.295941
766.567097	2471.166054
766.893104	2474.684779
767.219064	2473.300982
767.544978	2473.787454
767.870845	2475.970273
768.196665	2474.583956
768.522438	2468.829479
768.848165	2475.403143
769.173846	2471.075313
769.499479	2471.453399
769.825066	2473.963894
770.150607	2475.108236
770.476101	2475.614872
770.801548	2472.229737
771.126949	2473.923565
771.452303	2473.487505
771.777611	2471.483646
772.102872	2471.339973
772.428087	2475.072948
772.753256	2473.318626
773.078378	2473.447176
773.403453	2473.200159
773.728482	2470.087247
774.053465	2474.034470
774.378401	2472.771661
774.703291	2471.677731
775.028135	2472.186887
775.352932	2474.372227
775.677683	2473.948771
776.002388	2470.924078
776.327046	2469.777216
776.651658	2471.529017
776.976224	2467.259159
777.300743	2473.467340
777.625216	2473.555561
777.949643	2473.164871
778.274024	2472.398616
778.598359	2471.707978
778.922647	2472.428863
779.246889	2470.198152
779.571086	2472.254943
779.895236	2474.077320
780.219339	2472.922896
780.543397	2471.639922
780.867409	2472.912813
781.191374	2474.074799
781.515294	2471.304685
781.839167	2472.965746
782.162995	2471.589511
782.486776	2471.897021
782.810511	2471.962556
783.134201	2473.963894
783.457844	2472.275108
783.781441	2474.863740
784.104993	2471.783595
784.428498	2473.079172
784.751958	2471.637402
785.075372	2471.886939
785.398739	2473.300982
785.722061	2471.508852
786.045337	2475.624954
786.368568	2473.091774
786.691752	2471.902062
787.014891	2471.486167
787.337983	2473.248050
787.661030	2473.689151
787.984031	2474.762917
788.306987	2472.285190
788.629897	2471.786116
788.952760	2471.816363
789.275579	2471.486167
789.598351	2471.947433
789.921078	2474.117649
790.243759	2471.743266
790.566395	2471.299644
790.888984	2473.575725
791.211529	2472.123873
791.534027	2472.406178
791.856480	2471.718060
792.178888	2473.006075
792.501249	2469.494911
792.823566	2471.186218
793.145836	2468.111114
793.468062	2471.972638
793.790241	2471.466002
794.112375	2471.713019
794.434464	2472.297793
794.756507	2473.772330
795.078505	2470.251084
795.400457	2473.497587
795.722364	2473.419449
796.044226	2472.018009
796.366042	2471.276959
796.687812	2471.990282
797.009538	2470.228399
797.331218	2472.685962
797.652852	2471.251753
797.974442	2472.305354
798.295986	2471.100519
798.617484	2472.557412
798.938938	2470.545992
799.260346	2471.763430
799.581709	2472.834676
799.903026	2473.157309
800.224299	2472.020529
800.545526	2470.677062
800.866708	2470.016671
801.187845	2470.722432
801.508936	2470.954325
801.829983	2469.068934
802.150984	2470.931640
802.471940	2470.850982
802.792851	2471.622278
803.113717	2472.895169
803.434538	2470.994654
803.755314	2472.602783
804.076045	2469.373923
804.396731	2470.787967
804.717372	2471.473564
805.037967	2472.363328
805.358518	2472.754017
805.679024	2472.207052
805.999485	2470.024232
806.319901	2472.985910
806.640272	2472.529686
806.960598	2471.198821
807.280879	2471.173615
807.601115	2472.948102
807.921306	2473.341312
808.241453	2469.794860
808.561554	2466.278655
808.881611	2469.494911
809.201623	2468.176649
809.521590	2471.478605
809.841513	2469.754531
810.161390	2473.162351
810.481223	2470.707309
810.801011	2468.650518
811.120755	2472.476754
811.440453	2472.973307
811.760107	2472.786785
812.079716	2476.552527
812.399281	2471.067751
812.718801	2473.918524
813.038276	2468.869808
813.357707	2472.408698
813.677093	2472.983390
813.996434	2472.030612
814.315731	2468.252267
814.634983	2473.043883
814.954191	2470.956846
815.273354	2470.369551
815.592473	2470.493060
815.911547	2469.187401
816.230577	2473.321147
816.549562	2469.895683
816.868502	2471.100519
817.187399	2471.229068
817.506250	2468.496763
817.825058	2473.684110
818.143821	2469.903245
818.462539	2473.605972
818.781213	2470.661938
819.099843	2469.149592
819.418429	2469.026084
819.736970	2473.409367
820.055466	2470.104891
820.373919	2470.447689
820.692327	2470.314099
821.010691	2471.062710
821.329011	2473.046404
821.647286	2474.011785
821.965517	2470.084726
822.283704	2471.793677
822.601847	2470.871146
822.919945	2469.278142
823.237999	2471.655046
823.556010	2475.410705
823.873976	2471.463482
824.191897	2469.031125
824.509775	2468.262349
824.827609	2468.272431
825.145398	2466.581124
825.463144	2473.394244
825.780845	2470.868626
826.098502	2471.791157
826.416116	2471.740745
826.733685	2472.070941
827.051210	2473.217803
827.368692	2472.212093
827.686129	2471.440797
828.003522	2470.175467
828.320872	2474.513380
828.638177	2472.340643
828.955439	2471.743266
829.272656	2471.816363
829.589830	2473.280818
829.906960	2471.123204
830.224046	2471.574387
830.541088	2470.853502
830.858086	2473.358956
831.175041	2472.249902
831.491952	2470.871146
831.808819	2473.547999
832.125642	2472.212093
832.442421	2470.961887
832.759157	2469.459623
833.075849	2472.133955
833.392497	2472.237299
833.709101	2469.109263
834.025662	2470.921558
834.342179	2473.575725
834.658653	2470.326702
834.975083	2470.540951
835.291469	2472.239819
835.607811	2470.379634
835.924110	2470.508183
836.240366	2470.704788
836.556578	2467.531382
836.872746	2471.637402
837.188871	2470.361990
837.504952	2476.459265
837.820990	2471.266877
838.136984	2468.965590
838.452935	2471.644963
838.768842	2473.066569
839.084706	2472.335601
839.400526	2471.108080
839.716303	2473.003554
840.032037	2469.714201
840.347727	2470.533389
840.663373	2467.939715
840.978977	2466.381999
841.294537	2466.442493
841.610054	2469.452061
841.925527	2470.172946
842.240957	2472.040694
842.556344	2468.590024
842.871687	2470.208234
843.186987	2470.409881
843.502244	2472.176805
843.817458	2470.114973
844.132629	2471.047587
844.447756	2470.462813
844.762840	2470.369551
845.077881	2467.720425
845.392879	2472.711167
845.707833	2471.592031
846.022745	2472.718729
846.337613	2470.021712
846.652438	2471.287041
846.967221	2471.244192
847.281960	2469.152113
847.596656	2471.670169
847.911309	2470.835858
848.225919	2468.610189
848.540485	2470.331743
848.855009	2470.114973
849.169490	2470.364510
849.483928	2469.056331
849.798323	2472.252422
850.112675	2471.251753
850.426984	2469.265539
850.741251	2468.993316
851.055474	2470.107411
851.369654	2472.267546
851.683792	2471.655046
851.997887	2469.636063
852.311938	2469.817545
852.625947	2467.803604
852.939914	2469.129428
853.253837	2470.636733
853.567718	2470.727473
853.881555	2466.412246
854.195350	2468.463995
854.509103	2468.920220
854.822812	2471.556743
855.136479	2472.113791
855.450103	2470.062041
855.763685	2469.620940
856.077224	2465.663634
856.390720	2470.578759
856.704173	2464.322687
857.017584	2468.829479
857.330953	2470.334263
857.644278	2468.867287
857.957561	2472.267546
858.270802	2469.784777
858.584000	2469.464664
858.897155	2470.304016
859.210268	2471.345015
859.523339	2470.180508
859.836367	2470.283852
860.149352	2469.230251
860.462295	2469.252936
860.775195	2469.661269
861.088054	2470.729994
861.400869	2469.482308
861.713642	2473.646301
862.026373	2468.103553
862.339062	2471.095478
862.651708	2469.167236
862.964312	2471.755869
863.276873	2471.564305
863.589392	2468.471557
863.901869	2469.414253
864.214303	2469.663790
864.526696	2471.276959
864.839045	2469.701598
865.151353	2469.242853
865.463619	2467.425517
865.775842	2470.425004
866.088023	2469.961218
866.400162	2470.982052
866.712258	2472.081023
867.024313	2468.968111
867.336325	2467.569190
867.648296	2472.496918
867.960224	2471.977679
868.272110	2468.373254
868.583954	2469.300827
868.895755	2469.958697
869.207515	2469.958697
869.519233	2468.176649
869.830909	2469.164716
870.142542	2469.358800
870.454134	2471.279480
870.765684	2470.727473
871.077191	2470.775364
871.388657	2466.467698
871.700081	2467.407873
872.011463	2466.573562
872.322803	2463.082563
872.634101	2465.938377
872.945357	2468.539613
873.256571	2468.993316
873.567744	2469.925930
873.878874	2468.592545
874.189963	2469.580611
874.501010	2469.981383
874.812015	2469.469705
875.122979	2470.314099
875.433900	2469.081537
875.744780	2470.288893
876.055618	2470.278811
876.366415	2471.153451
876.677169	2470.057000
876.987882	2467.785960
877.298554	2469.099181
877.609183	2472.413739
877.919771	2471.783595
878.230317	2471.362659
878.540822	2471.181177
878.851285	2468.771506
879.161707	2468.675724
879.472087	2470.616568
879.782425	2469.943574
880.092722	2469.794860
880.402977	2471.148410
880.713191	2471.448358
881.023363	2467.107925
881.333494	2471.496249
881.643583	2467.664972
881.953631	2468.544654
882.263637	2469.053810
882.573602	2468.121197
882.883526	2468.683285
883.193408	2469.767133
883.503248	2471.103039
883.813048	2469.830148
884.122806	2469.537761
884.432522	2469.820066
884.742197	2470.251084
885.051831	2469.661269
885.361424	2467.768316
885.670975	2472.577577
885.980485	2467.856536
886.289954	2470.382154
886.599382	2468.872329
886.908768	2469.283183
887.218113	2467.118007
887.527417	2467.002061
887.836680	2464.549539
888.145901	2471.450879
888.455082	2470.853502
888.764221	2470.462813
889.073319	2471.297124
889.382376	2470.545992
889.691392	2469.084057
890.000366	2469.608337
890.309300	2469.270580
890.618193	2470.278811
890.927044	2469.200004
891.235855	2472.033132
891.544625	2470.677062
891.853353	2472.965746
892.162041	2468.335446
892.470687	2470.873667
892.779293	2468.547174
893.087858	2467.833851
893.396381	2471.597072
893.704864	2470.835858
894.013306	2470.107411
894.321707	2470.820735
894.630068	2467.639767
894.938387	2469.764613
895.246665	2468.557257
895.554903	2468.411063
895.863100	2471.271918
896.171256	2468.642956
896.479371	2468.277473
896.787446	2467.604478
897.095480	2470.034315
897.403473	2467.054993
897.711425	2468.970631
898.019336	2469.242853
898.327207	2470.019191
898.635038	2469.736887
898.942827	2471.866774
899.250576	2468.244705
899.558284	2470.581280
899.865952	2470.414922
900.173579	2469.986424
900.481165	2469.076495
900.788711	2470.402319
901.096216	2469.565487
901.403681	2466.923923
901.711105	2469.041207
902.018489	2469.878039
902.325832	2466.273614
902.633135	2465.628346
902.940397	2466.818058
903.247619	2461.280351
903.554800	2468.176649
903.861941	2468.073306
904.169041	2468.801753
904.476101	2465.956021
904.783121	2468.295117
905.090100	2468.819397
905.397039	2470.382154
905.703938	2466.669344
906.010796	2470.588842
906.317614	2469.769654
906.624391	2468.128758
906.931129	2470.450210
907.237826	2469.774695
907.544483	2468.267390
907.851099	2468.156485
908.157675	2468.567339
908.464211	2468.310240
908.770707	2469.535240
909.077163	2467.629684
909.383578	2469.464664
909.689954	2468.169088
909.996289	2467.581793
910.302584	2468.423666
910.608839	2468.249746
910.915054	2465.406535
911.221229	2469.588172
911.527363	2467.488532
911.833458	2468.161526
912.139513	2470.987093
912.445527	2466.981896
912.751502	2468.527010
913.057436	2468.363172
913.363331	2466.306381
913.669186	2465.696402
913.975000	2466.460137
914.280775	2466.946608
914.586510	2470.714870
914.892205	2470.102370
915.197859	2470.732514
915.503475	2468.947946
915.809050	2468.537092
916.114585	2469.343677
916.420081	2468.083388
916.725536	2468.766464
917.030952	2468.302678
917.336328	2467.604478
917.641665	2463.574076
917.946961	2466.460137
918.252218	2468.375775
918.557435	2461.920578
918.862612	2467.501135
919.167750	2468.574901
919.472848	2466.049283
919.777906	2466.840744
920.082925	2469.273100
920.387904	2466.074488
920.692843	2466.487863
920.997743	2467.659931
921.302603	2465.605661
921.607423	2467.087760
921.912204	2470.251084
922.216946	2468.564818
922.521647	2468.433748
922.826310	2468.171608
923.130932	2470.248564
923.435516	2468.857205
923.740059	2467.521299
924.044564	2466.288737
924.349028	2467.997688
924.653454	2468.791670
924.957840	2469.313430
925.262186	2467.337297
925.566493	2470.268728
925.870761	2468.332925
926.174989	2470.447689
926.479178	2468.829479
926.783328	2469.386526
927.087438	2466.676906
927.391509	2469.278142
927.695541	2467.271762
927.999533	2468.441310
928.303486	2471.697895
928.607400	2467.367544
928.911275	2468.647997
929.215110	2465.749334
929.518906	2465.489714
929.822663	2467.337297
930.126381	2468.078347
930.430060	2468.955508
930.733699	2468.746300
931.037299	2468.075826
931.340861	2466.460137
931.644383	2467.932153
931.947866	2465.214972
932.251309	2469.953656
932.554714	2465.570373
932.858080	2469.681434
933.161407	2465.293109
933.464694	2464.927626
933.767943	2462.129785
934.071153	2469.862915
934.374323	2465.121710
934.677455	2468.774026
934.980548	2467.498614
935.283602	2468.103553
935.586617	2466.671865
935.889593	2469.152113
936.192530	2467.919551
936.495428	2469.212607
936.798287	2468.537092
937.101108	2467.410394
937.403890	2466.492904
937.706632	2468.211937
938.009336	2466.666824
938.312002	2469.729325
938.614628	2466.886114
938.917216	2468.295117
939.219765	2468.912658
939.522275	2468.380816
939.824747	2470.379634
940.127179	2468.801752
940.429573	2467.821248
940.731929	2466.296299
941.034246	2469.804942
941.336524	2468.264870
941.638763	2468.431228
941.940964	2467.289406
942.243126	2465.593058
942.545250	2467.791001
942.847335	2465.842595
943.149381	2468.814355
943.451389	2466.722277
943.753359	2466.712194
944.055290	2467.400312
944.357182	2468.095991
944.659036	2465.272945
944.960851	2468.688327
945.262628	2467.670013
945.564367	2470.256125
945.866067	2466.949128
946.167729	2466.830661
946.469352	2468.080867
946.770937	2467.564149
947.072484	2465.194807
947.373992	2466.984417
947.675462	2464.912502
947.976893	2467.392750
948.278286	2464.431072
948.579641	2467.105404
948.880958	2460.627522
949.182236	2467.231433
949.483476	2468.285034
949.784678	2468.637915
950.085841	2468.521968
950.386967	2466.820579
950.688054	2467.405353
950.989103	2468.272431
951.290114	2466.835702
951.591087	2467.808645
951.892021	2467.178501
952.192917	2466.175311
952.493776	2470.074644
952.794596	2466.644139
953.095378	2468.831999
953.396122	2469.560446
953.696828	2468.262349
953.997496	2464.829323
954.298126	2470.235961
954.598718	2467.075157
954.899272	2469.068934
955.199788	2465.824951
955.500266	2467.412915
955.800706	2466.492904
956.101108	2467.105404
956.401472	2467.750672
956.701798	2466.097173
957.002087	2466.381999
957.302337	2465.847636
957.602550	2470.813173
957.902724	2467.130610
958.202861	2467.987606
958.502960	2466.702112
958.803022	2468.748820
959.103045	2465.580455
959.403031	2469.560446
959.702979	2464.877214
960.002889	2468.506845
960.302762	2468.093470
960.602596	2467.856536
960.902393	2467.155816
961.202153	2466.452575
961.501875	2466.797894
961.801559	2465.361165
962.101205	2465.759416
962.400814	2465.870322
962.700385	2470.099850
962.999918	2466.157667
963.299414	2462.273458
963.598873	2463.826134
963.898293	2462.838068
964.197677	2465.151957
964.497022	2465.499797
964.796331	2467.632205
965.095601	2466.563480
965.394835	2466.944087
965.694030	2464.980558
965.993189	2465.204889
966.292309	2466.177832
966.591393	2469.477267
966.890439	2468.693368
967.189447	2466.263532
967.488419	2468.007771
967.787353	2469.210086
968.086249	2466.197997
968.385108	2467.186063
968.683930	2466.669344
968.982714	2465.940898
969.281462	2469.157154
969.580172	2466.439972
969.878844	2468.665641
970.177480	2468.302678
970.476078	2467.193624
970.774639	2464.317646
971.073162	2466.278655
971.371649	2470.009109
971.670098	2466.898717
971.968510	2467.521299
972.266885	2466.888635
972.565223	2467.879221
972.863524	2466.374437
973.161788	2470.271249
973.460014	2468.527010
973.758204	2465.698922
974.056356	2467.551546
974.354471	2469.063892
974.652550	2466.636577
974.950591	2469.252936
975.248595	2467.785960
975.546563	2467.367544
975.844493	2466.560960
976.142386	2465.958542
976.440243	2465.373768
976.738062	2467.349900
977.035845	2467.496094
977.333590	2467.909468
977.631299	2466.603809
977.928971	2466.240846
978.226606	2462.457460
978.524204	2465.141875
978.821765	2461.292954
979.119290	2467.410394
979.416777	2465.247739
979.714228	2466.923923
980.011642	2466.008953
980.309020	2469.439458
980.606360	2466.361834
980.903664	2467.410394
981.200931	2466.046762
981.498162	2467.233954
981.795356	2464.814200
982.092513	2465.915692
982.389633	2468.869808
982.686717	2466.699591
982.983764	2467.077678
983.280775	2467.944756
983.577749	2466.651700
983.874686	2466.782770
984.171587	2467.614561
984.468451	2466.939046
984.765279	2465.948459
985.062070	2468.471557
985.358824	2466.623974
985.655543	2466.276134
985.952224	2465.270424
986.248869	2467.579273
986.545478	2466.671865
986.842050	2465.056175
987.138586	2465.857719
987.435086	2466.324025
987.731549	2466.460137
988.027975	2465.950980
988.324366	2463.284210
988.620719	2467.775878
988.917037	2467.334777
989.213318	2466.092132
989.509563	2467.294447
989.805772	2467.370065
990.101944	2465.167081
990.398080	2464.839406
990.694180	2468.489201
990.990244	2466.041721
991.286271	2466.568521
991.582262	2466.999540
991.878217	2468.227061
992.174136	2464.156329
992.470019	2466.651700
992.765865	2464.390743
993.061676	2461.718931
993.357450	2464.506689
993.653188	2460.569548
993.948890	2467.533902
994.244556	2465.091463
994.540186	2464.511731
994.835780	2468.698409
995.131337	2465.048613
995.426859	2467.254118
995.722345	2468.048100
996.017795	2466.876032
996.313208	2467.004581
996.608586	2466.588686
996.903928	2465.870322
997.199234	2465.109107
997.494504	2467.818728
997.789738	2465.759416
998.084936	2465.998871
998.380099	2466.558439
998.675225	2467.909468
998.970316	2466.530713
999.265371	2466.989458
999.560390	2466.679427
999.855373	2469.754531
1000.150320	2466.087091
1000.445232	2465.867801
1000.740108	2463.500979
1001.034948	2466.092132
1001.329752	2466.021556
1001.624521	2463.387553
1001.919254	2466.339149
1002.213951	2467.942236
1002.508613	2466.306381
1002.803239	2465.162039
1003.097829	2466.492904
1003.392384	2464.738582
1003.686903	2463.319498
1003.981386	2466.676906
1004.275834	2465.754375
1004.570246	2465.640949
1004.864623	2466.137503
1005.158964	2467.249077
1005.453270	2465.343521
1005.747540	2463.790846
1006.041775	2466.283696
1006.335974	2465.943418
1006.630138	2468.310240
1006.924266	2464.121041
1007.218359	2466.397122
1007.512416	2467.896865
1007.806438	2463.075002
1008.100425	2462.076853
1008.394376	2461.192131
1008.688292	2468.476598
1008.982172	2463.954683
1009.276017	2466.765126
1009.569827	2466.422328
1009.863602	2466.213120
1010.157341	2465.746813
1010.451045	2465.126751
1010.744714	2465.192286
1011.038347	2464.531895
1011.331945	2464.917543
1011.625508	2464.809159
1011.919036	2467.019705
1012.212528	2465.237657
1012.505986	2466.694550
1012.799408	2467.886783
1013.092795	2464.592389
1013.386147	2467.054993
1013.679464	2466.197997
1013.972745	2467.009622
1014.265992	2465.409056
1014.559204	2464.060547
1014.852380	2467.785960
1015.145521	2466.296299
1015.438628	2465.283027
1015.731699	2467.233954
1016.024736	2467.203707
1016.317737	2466.298820
1016.610703	2467.307050
1016.903635	2464.907461
1017.196531	2462.959055
1017.489393	2466.283696
1017.782219	2465.303192
1018.075011	2468.189252
1018.367768	2465.681278
1018.660490	2466.321505
1018.953177	2466.321505
1019.245829	2466.321505
