Dividing Wavelength (nm)	Counts (n)	Blue Motor Position (mm): 0.000000	Red Motor Position (mm): 3.000000	
326.493990	2057.027703
326.888308	2057.027703
327.282561	2057.027703
327.676750	2030.049969
328.070874	2031.912675
328.464933	2038.584642
328.858929	2046.834490
329.252859	2058.040975
329.646726	2069.053376
330.040528	2089.407035
330.434265	2103.650815
330.827938	2125.446243
331.221547	2144.963071
331.615091	2165.619198
332.008571	2188.264062
332.401986	2205.824921
332.795338	2226.710421
333.188625	2246.849831
333.581847	2264.269538
333.975006	2283.062960
334.368100	2298.430917
334.761129	2315.870789
335.154095	2333.368634
335.546996	2348.424040
335.939833	2359.340658
336.332606	2372.994624
336.725315	2385.161448
337.117960	2395.589075
337.510540	2404.249778
337.903056	2413.553227
338.295508	2421.240987
338.687896	2427.431523
339.080220	2434.249684
339.472480	2439.028698
339.864676	2441.135900
340.256807	2445.022630
340.648875	2447.076900
341.040879	2446.708896
341.432818	2451.490430
341.824694	2450.779628
342.216506	2450.961109
342.608253	2450.608228
342.999937	2447.555810
343.391557	2449.965481
343.783113	2445.589760
344.174605	2447.303752
344.566033	2444.687393
344.957397	2442.436518
345.348697	2441.246806
345.739934	2439.230344
346.131106	2436.243460
346.522215	2435.583069
346.913260	2432.545774
347.304241	2429.939497
347.695159	2430.226843
348.086012	2430.816658
348.476802	2427.968406
348.867528	2423.111255
349.258191	2422.891964
349.648789	2423.330545
350.039324	2416.552713
350.429796	2421.278795
350.820203	2422.745771
351.210548	2418.226377
351.600828	2418.985070
351.991045	2419.811819
352.381198	2421.117478
352.771288	2418.397776
353.161314	2419.526994
353.551276	2417.770152
353.941175	2421.732499
354.331010	2419.776531
354.720782	2417.810481
355.110490	2419.821902
355.500135	2416.416602
355.889717	2420.441964
356.279235	2419.942889
356.668689	2421.956830
357.058080	2420.494896
357.447408	2421.727458
357.836672	2421.906419
358.225873	2423.509506
358.615010	2420.787283
359.004084	2421.568662
359.393095	2420.852818
359.782043	2423.605288
360.170927	2423.393559
360.559748	2424.316090
360.948505	2425.538570
361.337199	2425.911616
361.725830	2427.197110
362.114398	2424.931111
362.502903	2426.103179
362.891344	2429.137954
363.279722	2424.991605
363.668037	2428.157450
364.056289	2427.726431
364.444478	2427.880186
364.832603	2431.595517
365.220665	2429.266503
365.608665	2430.186514
365.996601	2431.318253
366.384474	2430.279775
366.772284	2430.002512
367.160031	2431.900506
367.547715	2430.884714
367.935336	2430.652821
368.322893	2431.509817
368.710388	2428.701894
369.097820	2430.930084
369.485189	2427.439085
369.872495	2434.496701
370.259738	2434.925199
370.646918	2432.933943
371.034035	2433.385126
371.421090	2435.204983
371.808081	2435.542740
372.195010	2436.936619
372.581875	2434.368151
372.968678	2437.327308
373.355418	2437.100457
373.742096	2438.070879
374.128710	2438.549788
374.515262	2441.526590
374.901751	2438.461568
375.288177	2440.193204
375.674540	2439.684048
376.060841	2445.816612
376.447079	2445.312496
376.833254	2445.461210
377.219367	2446.557661
377.605417	2448.740481
377.991404	2449.605039
378.377329	2449.983125
378.763191	2451.641665
379.148991	2452.813733
379.534727	2454.121913
379.920402	2452.342385
380.306013	2455.830864
380.691563	2456.642489
381.077049	2455.843467
381.462474	2458.091821
381.847835	2461.441668
382.233134	2463.357306
382.618371	2464.400825
383.003545	2469.510035
383.388657	2466.870991
383.773706	2469.651187
384.158693	2470.712350
384.543618	2473.104377
384.928480	2470.772844
385.313280	2474.495736
385.698017	2474.117649
386.082692	2483.524442
386.467305	2477.601087
386.851856	2479.549493
387.236344	2482.654843
387.620770	2480.719040
388.005133	2478.790799
388.389435	2484.709113
388.773674	2479.181488
389.157851	2484.875472
389.541965	2483.829432
389.926018	2487.131388
390.310008	2484.598208
390.693936	2486.753301
391.077802	2485.548466
391.461606	2489.193220
391.845348	2484.890595
392.229027	2489.162973
392.612645	2482.397744
392.996200	2487.897643
393.379694	2484.762046
393.763125	2482.624596
394.146494	2482.586788
394.529801	2484.308342
394.913047	2480.857672
395.296230	2480.154431
395.679351	2476.444142
396.062410	2477.013792
396.445408	2471.594552
396.828343	2473.348873
397.211217	2470.482977
397.594028	2469.953656
397.976778	2468.232102
398.359466	2466.213120
398.742092	2465.557770
399.124656	2464.625157
399.507158	2463.259004
399.889598	2465.192286
400.271977	2460.645166
400.654294	2459.422686
401.036549	2457.799434
401.418742	2457.847325
401.800874	2458.106945
402.182944	2454.628548
402.564952	2454.772221
402.946898	2458.958900
403.328783	2457.312963
403.710606	2455.845987
404.092367	2455.969495
404.474067	2455.503189
404.855705	2450.610749
405.237282	2453.912705
405.618797	2453.678291
406.000250	2452.942283
406.381642	2452.985132
406.762972	2453.917746
407.144240	2451.472786
407.525447	2452.070163
407.906593	2446.376180
408.287677	2453.748867
408.668700	2454.409258
409.049661	2454.371450
409.430560	2455.311625
409.811399	2453.711058
410.192176	2454.573096
410.572891	2455.258693
410.953545	2456.821450
411.334138	2455.072170
411.714669	2454.368929
412.095139	2454.462190
412.475547	2454.724330
412.855894	2454.104268
413.236180	2454.716769
413.616405	2455.041923
413.996568	2454.643672
414.376670	2455.150308
414.756711	2455.777932
415.136691	2456.118209
415.516609	2457.565021
415.896466	2458.175000
416.276262	2456.937397
416.655997	2459.208437
417.035670	2456.337500
417.415283	2455.147787
417.794834	2457.199537
418.174324	2455.407407
418.553753	2459.226081
418.933121	2455.679629
419.312428	2459.105093
419.691674	2458.631225
420.070859	2458.205247
420.449983	2455.530915
420.829045	2456.750874
421.208047	2458.482511
421.586988	2459.853704
421.965867	2460.279682
422.344686	2458.348920
422.723444	2458.293467
423.102141	2460.572069
423.480777	2457.665844
423.859352	2459.694908
424.237866	2459.082408
424.616319	2456.571913
424.994712	2459.730196
425.373044	2460.025104
425.751314	2456.982767
426.129524	2455.518312
426.507673	2457.242387
426.885762	2454.280709
427.263789	2459.465536
427.641756	2460.463684
428.019662	2463.047275
428.397508	2459.982254
428.775292	2459.886472
429.153016	2462.699436
429.530679	2458.948817
429.908282	2463.241360
430.285824	2461.550053
430.663305	2462.308746
431.040726	2460.287244
431.418086	2458.323714
431.795385	2460.176338
432.172624	2462.427213
432.549802	2461.557614
432.926920	2463.127934
433.303977	2463.868983
433.680974	2462.281020
434.057910	2461.073664
434.434786	2464.763788
434.811601	2461.323201
435.188355	2462.371761
435.565050	2463.385033
435.941683	2462.412090
436.318257	2460.148612
436.694770	2464.516772
437.071222	2461.739096
437.447614	2460.919908
437.823946	2465.431741
438.200218	2465.167081
438.576429	2462.891000
438.952580	2463.664817
439.328670	2463.707667
439.704700	2463.233798
440.080670	2464.620115
440.456580	2464.889817
440.832429	2468.499283
441.208218	2466.432410
441.583947	2466.253449
441.959616	2463.195989
442.335224	2466.986937
442.710773	2465.635908
443.086261	2463.591720
443.461689	2468.711012
443.837057	2466.442493
444.212365	2464.983078
444.587612	2463.601802
444.962800	2461.764302
445.337927	2465.041052
445.712995	2460.909826
446.088002	2465.918212
446.462949	2467.049952
446.837837	2465.895527
447.212664	2468.383337
447.587431	2465.484673
447.962139	2463.909313
448.336786	2466.734879
448.711374	2466.230764
449.085901	2467.622123
449.460369	2465.328397
449.834776	2465.313274
450.209124	2469.136989
450.583412	2466.767647
450.957640	2467.591876
451.331808	2467.385188
451.705917	2471.254274
452.079965	2469.711681
452.453954	2467.846454
452.827883	2466.024077
453.201752	2468.925261
453.575562	2466.563480
453.949311	2469.504993
454.323001	2466.344190
454.696632	2466.603809
455.070202	2469.525158
455.443713	2468.491722
455.817164	2467.475929
456.190556	2467.201186
456.563888	2471.213945
456.937160	2466.974334
457.310373	2469.492391
457.683526	2469.872998
458.056619	2469.888121
458.429653	2469.683954
458.802628	2468.428707
459.175542	2469.762092
459.548398	2467.208748
459.921194	2472.963225
460.293930	2471.246712
460.666607	2469.769654
461.039224	2470.228399
461.411782	2469.031125
461.784280	2470.520786
462.156719	2469.830148
462.529099	2470.634212
462.901419	2468.224540
463.273680	2469.384006
463.645882	2467.997688
464.018024	2469.419294
464.390106	2464.307564
464.762130	2470.911475
465.134094	2471.685292
465.505999	2470.626650
465.877845	2473.608493
466.249631	2471.163533
466.621358	2470.704788
466.993026	2468.368213
467.364634	2476.849955
467.736184	2473.996662
468.107674	2471.236630
468.479105	2472.270066
468.850477	2471.844089
469.221790	2470.979531
469.593043	2471.917186
469.964238	2473.482464
470.335373	2474.026908
470.706449	2470.664459
471.077467	2472.406178
471.448425	2473.661425
471.819324	2472.413739
472.190164	2473.729480
472.560945	2473.724439
472.931667	2473.381641
473.302330	2471.297124
473.672934	2471.826445
474.043479	2470.326702
474.413965	2472.149079
474.784393	2472.769141
475.154761	2472.209572
475.525070	2472.373410
475.895321	2472.917855
476.265513	2472.524645
476.635645	2475.788792
477.005719	2471.355097
477.375734	2472.776702
477.745691	2474.762917
478.115588	2473.099336
478.485427	2476.267701
478.855207	2475.869450
479.224928	2474.709985
479.594591	2472.769141
479.964194	2472.867443
480.333739	2474.160499
480.703226	2472.018009
481.072653	2476.809625
481.442022	2474.780561
481.811333	2472.234778
482.180584	2472.222175
482.549777	2472.675879
482.918912	2469.106742
483.287988	2473.812659
483.657005	2474.775520
484.025964	2474.447845
484.394864	2473.449696
484.763706	2475.057824
485.132489	2474.672176
485.501213	2472.171764
485.869879	2475.945068
486.238487	2474.737711
486.607036	2474.664614
486.975527	2475.587146
487.343959	2473.111939
487.712333	2475.483802
488.080648	2473.313585
488.448905	2474.314254
488.817104	2474.858699
489.185244	2477.832980
489.553326	2474.117649
489.921350	2477.863227
490.289315	2475.393061
490.657222	2474.911631
491.025070	2475.677886
491.392861	2475.093112
491.760593	2473.989100
492.128267	2476.721405
492.495883	2474.823411
492.863440	2471.269397
493.230939	2475.476240
493.598380	2474.946919
493.965763	2475.660242
494.333088	2473.295941
494.700354	2472.466671
495.067563	2476.033288
495.434713	2473.883236
495.801805	2477.659060
496.168839	2475.987917
496.535815	2476.681076
496.902733	2473.074130
497.269593	2475.597228
497.636395	2475.604790
498.003139	2476.250057
498.369825	2478.100161
498.736453	2476.484471
499.103023	2474.725108
499.469535	2475.743421
499.835989	2477.722074
500.202385	2474.601600
500.568723	2472.703606
500.935003	2476.459265
501.301226	2471.521455
501.667390	2474.276446
502.033497	2476.159317
502.399546	2475.314923
502.765537	2475.453555
503.131470	2476.068576
503.497345	2476.509677
503.863163	2477.641416
504.228923	2475.433390
504.594625	2476.940695
504.960269	2474.442804
505.325856	2476.827269
505.691385	2475.365335
506.056856	2477.152424
506.422270	2473.424491
506.787625	2477.190232
507.152924	2477.381796
507.518164	2476.328195
507.883347	2475.829121
508.248472	2476.429018
508.613540	2477.701910
508.978550	2478.243834
509.343503	2477.812815
509.708398	2477.318782
510.073236	2475.748462
510.438016	2477.457414
510.802738	2475.793833
511.167403	2473.300982
511.532010	2475.549337
511.896561	2476.532362
512.261053	2476.008082
512.625488	2477.674183
512.989866	2478.687455
513.354186	2476.323154
513.718449	2476.534883
514.082655	2476.499594
514.446803	2478.150572
514.810894	2479.799030
515.174927	2477.482619
515.538904	2479.799030
515.902822	2476.103864
516.266684	2477.631333
516.630488	2477.482619
516.994235	2476.310551
517.357925	2475.279635
517.721558	2479.925058
518.085133	2477.530510
518.448651	2473.742083
518.812112	2475.314923
519.175516	2476.499594
519.538863	2472.607824
519.902152	2479.947744
520.265385	2478.624441
520.628560	2478.425315
520.991678	2475.526652
521.354739	2481.596201
521.717743	2475.786271
522.080690	2476.280304
522.443580	2479.105871
522.806413	2478.823566
523.169189	2477.490181
523.531908	2478.967239
523.894569	2475.851806
524.257174	2479.564616
524.619722	2476.010603
524.982213	2480.565285
525.344647	2478.248875
525.707025	2476.423977
526.069345	2479.582260
526.431608	2478.412712
526.793815	2478.354739
527.155964	2480.225007
527.518057	2477.061683
527.880093	2479.904894
528.242072	2479.231900
528.603995	2480.837507
528.965860	2477.631333
529.327669	2475.975314
529.689421	2478.455562
530.051117	2479.635192
530.412755	2479.335243
530.774337	2476.776858
531.135862	2476.880202
531.497331	2476.202166
531.858743	2478.077476
532.220098	2478.158134
532.581396	2475.254429
532.942638	2478.150572
533.303824	2478.069914
533.664953	2478.886581
534.026025	2476.260140
534.387040	2477.371714
534.747999	2477.051601
535.108902	2480.345995
535.469748	2478.195943
535.830537	2477.255768
536.191270	2479.683083
536.551947	2476.638226
536.912567	2471.607155
537.273131	2476.214769
537.633638	2472.345684
537.994089	2478.773155
538.354483	2475.385499
538.714821	2480.439256
539.075103	2477.996817
539.435328	2476.726446
539.795497	2478.311889
540.155609	2479.322641
540.515665	2480.726602
540.875665	2478.702579
541.235609	2479.378093
541.595496	2475.914821
541.955328	2479.965388
542.315102	2479.584781
542.674821	2477.076807
543.034483	2479.221817
543.394090	2479.811633
543.753640	2478.269039
544.113134	2478.848772
544.472571	2480.126705
544.831953	2478.253916
545.191278	2479.874647
545.550548	2479.080665
545.909761	2478.682414
546.268918	2476.706282
546.628019	2477.356591
546.987064	2479.118474
547.346053	2477.611169
547.704986	2478.609317
548.063863	2477.525469
548.422684	2478.178299
548.781449	2481.076962
549.140158	2474.974645
549.498811	2479.000007
549.857408	2477.270891
550.215949	2479.506643
550.574434	2479.206694
550.932864	2479.120994
551.291237	2478.538741
551.649555	2480.426653
552.007817	2479.466313
552.366022	2477.235603
552.724173	2479.375573
553.082267	2478.788278
553.440305	2478.687455
553.798288	2478.730305
554.156215	2479.620069
554.514086	2477.732157
554.871902	2473.217803
555.229661	2477.679224
555.587365	2473.288379
555.945014	2477.893473
556.302606	2477.084368
556.660143	2477.800212
557.017625	2478.654688
557.375050	2479.819194
557.732421	2478.725264
558.089735	2479.335243
558.446994	2480.575367
558.804197	2478.024543
559.161345	2480.570326
559.518437	2478.100161
559.875474	2479.126036
560.232455	2480.708958
560.589381	2480.517394
560.946251	2478.314410
561.303065	2477.459934
561.659825	2477.772486
562.016528	2479.955305
562.373177	2479.433546
562.729770	2479.448669
563.086307	2479.405820
563.442789	2476.166878
563.799216	2479.398258
564.155587	2478.261478
564.511904	2479.093268
564.868164	2479.980511
565.224370	2479.867085
565.580520	2479.181488
565.936615	2480.101499
566.292654	2477.767445
566.648638	2480.494709
567.004567	2477.711992
567.360441	2478.195943
567.716260	2476.570171
568.072023	2479.907414
568.427732	2480.729122
568.783385	2480.106540
569.138982	2478.440439
569.494525	2478.939513
569.850013	2481.182826
570.205445	2478.178299
570.560823	2479.504122
570.916145	2479.143680
571.271412	2479.360449
571.626625	2480.494709
571.981782	2482.138125
572.336884	2475.461117
572.691931	2476.459265
573.046923	2478.289204
573.401860	2473.197639
573.756743	2480.620738
574.111570	2480.618217
574.466342	2478.889101
574.821059	2480.086375
575.175722	2479.839359
575.530330	2479.216776
575.884882	2480.461941
576.239380	2478.959678
576.593823	2479.862044
576.948211	2478.770634
577.302544	2480.116622
577.656823	2478.511015
578.011047	2480.116622
578.365216	2480.600573
578.719330	2480.325830
579.073389	2479.090747
579.427394	2478.788278
579.781344	2480.237610
580.135239	2479.957826
580.489080	2481.691983
580.842866	2480.814822
581.196597	2485.535863
581.550273	2479.191571
581.903895	2481.402117
582.257463	2477.948926
582.610975	2478.730305
582.964434	2479.100830
583.317837	2481.175265
583.671186	2477.447331
584.024481	2477.860706
584.377721	2479.552013
584.730906	2479.695686
585.084037	2479.761221
585.437113	2478.992445
585.790135	2481.588639
586.143103	2479.022692
586.496016	2480.393886
586.848874	2479.806591
587.201679	2477.815336
587.554428	2479.030254
587.907124	2478.710140
588.259765	2477.349029
588.612352	2481.142497
588.964884	2481.873464
589.317362	2480.081334
589.669786	2478.682414
590.022155	2475.115798
590.374470	2474.367186
590.726731	2477.200315
591.078937	2473.185036
591.431090	2478.309369
591.783188	2479.920017
592.135232	2478.695017
592.487222	2480.167034
592.839157	2478.190902
593.191038	2477.691827
593.542866	2478.657208
593.894639	2479.715851
594.246358	2477.570840
594.598022	2480.280460
594.949633	2482.443115
595.301190	2478.909266
595.652692	2479.574698
596.004141	2479.640233
596.355535	2477.152424
596.706876	2478.188381
597.058162	2480.756849
597.409395	2475.917341
597.760573	2478.289204
598.111698	2478.546303
598.462768	2478.337095
598.813785	2477.147383
599.164748	2480.116622
599.515657	2479.433546
599.866511	2474.732670
600.217312	2479.917497
600.568060	2477.117136
600.918753	2480.837507
601.269392	2477.895994
601.619978	2479.393217
601.970510	2480.464462
602.320988	2476.663432
602.671412	2480.025882
603.021783	2479.650316
603.372100	2477.258288
603.722363	2476.955819
604.072572	2480.532518
604.422728	2479.304997
604.772830	2478.662249
605.122878	2480.419092
605.472872	2481.593680
605.822813	2479.983032
606.172701	2477.732157
606.522534	2478.712661
606.872314	2479.206694
607.222041	2478.117805
607.571714	2477.076807
607.921333	2474.382310
608.270899	2478.768114
608.620411	2474.480612
608.969870	2479.496560
609.319276	2479.302476
609.668627	2480.030923
610.017926	2479.821715
610.367171	2477.492702
610.716362	2477.885912
611.065500	2478.049749
611.414585	2479.057980
611.763616	2480.035964
612.112594	2478.261478
612.461518	2480.376242
612.810389	2478.571509
613.159207	2478.982363
613.507971	2477.263329
613.856682	2478.049749
614.205340	2478.994966
614.553945	2477.888432
614.902496	2477.996817
615.250994	2479.670480
615.599439	2477.711992
615.947830	2479.819194
616.296169	2480.086375
616.644454	2476.449183
616.992686	2480.474544
617.340864	2479.098309
617.688990	2481.127374
618.037063	2475.312403
618.385082	2479.509163
618.733048	2481.434884
619.080961	2479.811632
619.428821	2478.183340
619.776628	2477.505305
620.124382	2477.578401
620.472083	2477.825418
620.819731	2479.718371
621.167326	2477.689307
621.514868	2480.391365
621.862357	2475.955150
622.209793	2479.284832
622.557176	2479.312558
622.904506	2479.657877
623.251783	2478.019502
623.599007	2477.437249
623.946179	2477.714513
624.293297	2481.787765
624.640363	2476.865078
624.987376	2477.585963
625.334336	2474.299131
625.681243	2474.470530
626.028097	2473.893318
626.374899	2479.436067
626.721647	2477.654019
627.068343	2480.857672
627.414987	2478.596714
627.761577	2479.410861
628.108115	2476.628144
628.454600	2478.473206
628.801032	2478.901704
629.147412	2479.214256
629.493739	2477.275932
629.840014	2478.364821
630.186236	2477.863227
630.532405	2478.873978
630.878521	2480.051087
631.224585	2479.607466
631.570597	2479.292394
631.916556	2480.729123
632.262462	2477.800212
632.608316	2481.071921
632.954117	2477.961529
633.299866	2476.885243
633.645562	2477.946406
633.991206	2478.049749
634.336797	2477.704430
634.682336	2478.818525
635.027823	2480.845069
635.373257	2476.912969
635.718639	2477.565798
636.063968	2478.747949
636.409245	2479.965388
636.754470	2479.068062
637.099642	2477.659060
637.444762	2480.114102
637.789829	2478.130408
638.134845	2478.392548
638.479808	2480.073772
638.824719	2479.481437
639.169577	2476.532362
639.514383	2479.176447
639.859137	2477.361632
640.203839	2477.848103
640.548489	2479.219297
640.893086	2477.356591
641.237632	2477.419605
641.582125	2479.322641
641.926566	2476.393730
642.270955	2476.113946
642.615292	2474.336939
642.959576	2475.705613
643.303809	2472.824593
643.647990	2478.125367
643.992118	2478.601756
644.336195	2475.231744
644.680219	2479.168885
645.024192	2476.020685
645.368112	2476.693679
645.711981	2478.102681
646.055797	2479.708289
646.399562	2477.782568
646.743274	2480.121663
647.086935	2478.523618
647.430544	2474.518421
647.774101	2477.611169
648.117606	2474.321816
648.461059	2479.209215
648.804460	2479.032774
649.147810	2475.783751
649.491108	2475.982876
649.834354	2477.898515
650.177548	2478.216107
650.520690	2476.550006
650.863781	2476.882722
651.206820	2474.352063
651.549807	2477.775006
651.892742	2477.044039
652.235626	2479.572178
652.578458	2479.410861
652.921238	2477.636375
653.263967	2480.023361
653.606644	2476.887763
653.949269	2477.994297
654.291843	2480.920686
654.634365	2477.666622
654.976836	2477.775006
655.319255	2477.394399
655.661622	2476.383648
656.003938	2476.096302
656.346203	2476.865078
656.688416	2479.572178
657.030577	2475.796353
657.372687	2476.416415
657.714746	2475.501446
658.056753	2474.609162
658.398708	2477.149903
658.740612	2474.120170
659.082465	2478.311889
659.424266	2473.805098
659.766016	2473.883236
660.107715	2476.585294
660.449362	2471.947432
660.790958	2477.860706
661.132503	2476.393730
661.473996	2477.086889
661.815438	2477.333905
662.156829	2478.092599
662.498168	2476.544965
662.839456	2479.020171
663.180693	2474.437763
663.521879	2476.224852
663.863013	2477.565798
664.204097	2477.845583
664.545129	2475.128401
664.886110	2476.592856
665.227040	2474.619244
665.567918	2478.531179
665.908746	2475.622434
666.249522	2477.696868
666.590248	2474.901549
666.930922	2476.912969
667.271545	2477.071765
667.612118	2477.719554
667.952639	2477.407002
668.293109	2475.841724
668.633528	2476.567650
668.973896	2478.037146
669.314213	2477.931282
669.654480	2477.938844
669.994695	2476.176961
670.334859	2476.686117
670.674973	2475.660242
671.015035	2476.257619
671.355047	2475.158647
671.695008	2475.705613
672.034918	2474.664614
672.374777	2479.526807
672.714585	2477.177630
673.054342	2476.723926
673.394049	2476.519759
673.733705	2476.600417
674.073310	2476.562609
674.412864	2478.745428
674.752368	2478.458083
675.091820	2478.604276
675.431223	2475.297279
675.770574	2477.873309
676.109875	2475.637557
676.449125	2476.653350
676.788324	2471.881898
677.127473	2475.347691
677.466571	2470.457772
677.805619	2475.438432
678.144616	2473.013637
678.483562	2478.044708
678.822458	2477.893473
679.161303	2476.340798
679.500098	2475.579584
679.838842	2476.187043
680.177535	2476.083699
680.516179	2475.693010
680.854771	2475.400623
681.193314	2479.816674
681.531805	2474.011785
681.870247	2476.484471
682.208638	2476.635706
682.546978	2477.752321
682.885268	2478.463124
683.223508	2477.061683
683.561697	2477.245685
683.899836	2478.311889
684.237925	2473.968935
684.575963	2477.825418
684.913951	2476.683597
685.251889	2476.948257
685.589776	2475.786271
685.927614	2475.675366
686.265401	2476.905407
686.603137	2475.927423
686.940824	2477.807774
687.278460	2479.892291
687.616046	2476.290387
687.953582	2476.413895
688.291068	2474.011785
688.628504	2479.201653
688.965889	2474.563791
689.303224	2477.333905
689.640510	2475.297279
689.977745	2477.545634
690.314930	2475.808956
690.652065	2476.847434
690.989150	2477.195274
691.326185	2474.662094
691.663170	2478.823566
692.000105	2476.093782
692.336990	2474.268884
692.673825	2477.238123
693.010610	2476.176961
693.347345	2472.292752
693.684030	2473.338791
694.020665	2475.735860
694.357251	2469.000878
694.693786	2478.384986
695.030272	2476.456745
695.366707	2477.527990
695.703093	2474.215952
696.039429	2476.202166
696.375716	2476.507156
696.711952	2474.878863
697.048139	2477.099492
697.384276	2475.955150
697.720363	2476.842393
698.056400	2474.528503
698.392388	2474.210911
698.728326	2478.269039
699.064214	2474.672176
699.400053	2476.489512
699.735842	2477.525469
700.071581	2475.370376
700.407270	2476.121508
700.742910	2476.688638
701.078501	2475.451034
701.414042	2477.129739
701.749533	2476.587815
702.084974	2477.091930
702.420366	2473.694192
702.755709	2474.120170
703.091002	2474.188225
703.426246	2475.430870
703.761440	2478.601756
704.096584	2476.514718
704.431679	2473.467340
704.766725	2477.018833
705.101721	2476.887763
705.436668	2473.331229
705.771565	2473.830303
706.106413	2475.241827
706.441212	2474.185705
706.775961	2475.458596
707.110661	2475.088071
707.445311	2475.158648
707.779913	2476.103864
708.114465	2477.908597
708.448967	2477.117136
708.783421	2475.982876
709.117825	2473.089254
709.452180	2477.336426
709.786485	2475.123359
710.120742	2474.185705
710.454949	2472.060858
710.789107	2474.407516
711.123216	2470.493060
711.457275	2475.793833
711.791286	2475.335088
712.125247	2475.912300
712.459159	2473.855509
712.793023	2476.688638
713.126837	2474.266363
713.460602	2475.864409
713.794318	2474.074799
714.127985	2476.189563
714.461602	2475.607310
714.795171	2477.454893
715.128691	2474.828452
715.462162	2473.686631
715.795584	2476.126549
716.128957	2478.483288
716.462281	2475.151086
716.795556	2475.793833
717.128782	2475.380458
717.461960	2474.820890
717.795088	2475.677886
718.128167	2474.157978
718.461198	2475.965232
718.794180	2477.890953
719.127113	2472.025570
719.459997	2475.146045
719.792833	2474.830973
720.125619	2475.430870
720.458357	2475.561940
720.791046	2475.284676
721.123686	2474.150417
721.456278	2475.350211
721.788821	2476.728967
722.121315	2472.668318
722.453761	2473.023719
722.786158	2475.055304
723.118506	2472.300313
723.450805	2478.715182
723.783056	2474.750314
724.115259	2474.319295
724.447412	2475.103195
724.779518	2476.776858
725.111574	2472.489357
725.443582	2474.498256
725.775542	2475.816518
726.107453	2475.423308
726.439315	2474.087402
726.771129	2476.227372
727.102895	2470.674541
727.434612	2474.654532
727.766281	2469.104222
728.097901	2478.453042
728.429473	2471.496249
728.760996	2476.497074
729.092471	2473.449696
729.423897	2477.137300
729.755276	2476.328195
730.086606	2472.958184
730.417887	2474.243678
730.749120	2474.626806
731.080305	2475.778709
731.411442	2475.889615
731.742530	2474.170581
732.073570	2476.915490
732.404562	2475.781230
732.735506	2474.243678
733.066401	2476.151755
733.397249	2476.723926
733.728048	2476.640747
734.058798	2477.286014
734.389501	2479.778865
734.720156	2475.012454
735.050762	2473.916003
735.381320	2475.327526
735.711831	2475.037660
736.042293	2474.457927
736.372707	2475.002372
736.703073	2474.178143
737.033391	2474.992289
737.363661	2475.168730
737.693883	2475.085551
738.024056	2473.187556
738.354182	2472.764099
738.684260	2477.013792
739.014290	2474.115129
739.344272	2474.755355
739.674207	2474.911631
740.004093	2476.136631
740.333931	2472.012968
740.663722	2474.137814
740.993464	2475.103195
741.323159	2475.125880
741.652806	2473.870633
741.982405	2475.151086
742.311956	2475.829121
742.641460	2474.072279
742.970915	2475.020016
743.300323	2473.742083
743.629683	2468.368213
743.958996	2471.513893
744.288260	2468.698409
744.617477	2474.147896
744.946647	2471.793677
745.275768	2476.446662
745.604842	2476.149234
745.933869	2474.039511
746.262847	2475.544296
746.591778	2475.272073
746.920662	2475.887094
747.249498	2476.492033
747.578286	2474.899028
747.907027	2475.400623
748.235720	2474.011785
748.564365	2476.182002
748.892963	2474.944398
749.221514	2475.062866
749.550017	2475.425829
749.878473	2476.582773
750.206881	2476.169399
750.535242	2474.510859
750.863555	2476.373566
751.191821	2473.737042
751.520039	2474.210911
751.848210	2474.301651
752.176334	2474.110088
752.504411	2473.492546
752.832440	2473.845427
753.160421	2473.585808
753.488356	2475.745942
753.816243	2473.563122
754.144082	2476.030767
754.471875	2473.174953
754.799620	2472.832155
755.127318	2474.846096
755.454969	2474.248719
755.782572	2474.437763
756.110129	2474.170581
756.437638	2471.650004
756.765100	2473.074130
757.092515	2473.069089
757.419882	2474.906590
757.747203	2471.599593
758.074477	2474.588997
758.401703	2473.540437
758.728882	2473.490026
759.056014	2471.491208
759.383099	2472.070941
759.710138	2470.898873
760.037129	2470.626650
760.364073	2469.867957
760.690970	2470.941722
761.017820	2472.867443
761.344623	2474.883905
761.671379	2472.993472
761.998088	2475.307362
762.324751	2473.971456
762.651366	2475.009933
762.977935	2474.916672
763.304456	2474.586477
763.630931	2472.864922
763.957359	2473.863071
764.283740	2474.770479
764.610074	2474.707464
764.936362	2473.333750
765.262602	2472.280149
765.588796	2473.643781
765.914943	2471.314768
766.241044	2474.246199
766.567097	2475.007413
766.893104	2474.455407
767.219064	2472.053297
767.544978	2475.191415
767.870845	2475.400623
768.196665	2474.392392
768.522438	2473.769810
768.848165	2474.319295
769.173846	2474.147896
769.499479	2471.662607
769.825066	2472.408698
770.150607	2475.284676
770.476101	2474.601600
770.801548	2474.755355
771.126949	2474.026908
771.452303	2474.841055
771.777611	2471.176136
772.102872	2475.322485
772.428087	2475.836683
772.753256	2474.238637
773.078378	2474.684779
773.403453	2472.585138
773.728482	2471.962556
774.053465	2474.772999
774.378401	2476.149234
774.703291	2472.703606
775.028135	2474.533544
775.352932	2472.363328
775.677683	2473.482464
776.002388	2470.016671
776.327046	2470.404839
776.651658	2470.558595
776.976224	2467.024746
777.300743	2472.859881
777.625216	2474.772999
777.949643	2472.738894
778.274024	2476.242496
778.598359	2472.043214
778.922647	2471.944912
779.246889	2474.183184
779.571086	2471.307206
779.895236	2472.547330
780.219339	2472.396095
780.543397	2474.253760
780.867409	2474.195787
781.191374	2474.604121
781.515294	2473.159830
781.839167	2471.178657
782.162995	2471.675210
782.486776	2473.059007
782.810511	2471.080354
783.134201	2471.702937
783.457844	2473.298462
783.781441	2472.817032
784.104993	2472.144037
784.428498	2474.601600
784.751958	2471.168574
785.075372	2473.938688
785.398739	2473.386682
785.722061	2473.222844
786.045337	2475.047742
786.368568	2475.839203
786.691752	2476.068576
787.014891	2473.555561
787.337983	2470.571197
787.661030	2473.278297
787.984031	2473.235447
788.306987	2472.222175
788.629897	2470.750158
788.952760	2473.404326
789.275579	2475.050263
789.598351	2471.980200
789.921078	2472.058338
790.243759	2473.737042
790.566395	2472.683441
790.888984	2472.280149
791.211529	2470.883749
791.534027	2474.745273
791.856480	2470.256125
792.178888	2471.410550
792.501249	2467.352421
792.823566	2469.099181
793.145836	2465.789663
793.468062	2474.493215
793.790241	2472.834676
794.112375	2472.403657
794.434464	2470.871146
794.756507	2469.825107
795.078505	2473.147227
795.400457	2472.824593
795.722364	2473.202680
796.044226	2473.217803
796.366042	2468.063223
796.687812	2472.116311
797.009538	2472.680920
797.331218	2474.881384
797.652852	2471.135807
797.974442	2474.142855
798.295986	2471.138327
798.617484	2471.909624
798.938938	2472.275108
799.260346	2472.905252
799.581709	2473.626137
799.903026	2476.398771
800.224299	2473.376600
800.545526	2471.518934
800.866708	2472.277628
801.187845	2472.373410
801.508936	2475.118318
801.829983	2471.183698
802.150984	2475.445993
802.471940	2474.377269
802.792851	2471.692854
803.113717	2473.270735
803.434538	2472.068420
803.755314	2473.243009
804.076045	2473.192598
804.396731	2471.327371
804.717372	2471.544140
805.037967	2471.884418
805.358518	2471.881898
805.679024	2475.526652
805.999485	2469.946094
806.319901	2472.638071
806.640272	2471.962556
806.960598	2472.701085
807.280879	2470.026753
807.601115	2474.052114
807.921306	2471.655046
808.241453	2471.949953
808.561554	2468.249746
808.881611	2472.590180
809.201623	2465.207410
809.521590	2474.389872
809.841513	2470.856023
810.161390	2472.149079
810.481223	2472.398616
810.801011	2471.181177
811.120755	2473.076651
811.440453	2472.741414
811.760107	2474.102526
812.079716	2473.232927
812.399281	2470.482977
812.718801	2472.272587
813.038276	2472.965746
813.357707	2472.691003
813.677093	2472.161682
813.996434	2473.343832
814.315731	2470.281331
814.634983	2471.302165
814.954191	2471.155971
815.273354	2472.007926
815.592473	2470.719912
815.911547	2470.732514
816.230577	2472.305354
816.549562	2473.099336
816.868502	2472.469192
817.187399	2473.255612
817.506250	2470.825776
817.825058	2473.137145
818.143821	2471.299644
818.462539	2473.356435
818.781213	2471.876856
819.099843	2471.309727
819.418429	2472.010447
819.736970	2472.811990
820.055466	2469.777216
820.373919	2469.968780
820.692327	2471.758389
821.010691	2472.640591
821.329011	2474.692341
821.647286	2472.118832
821.965517	2478.190902
822.283704	2474.367186
822.601847	2475.672845
822.919945	2475.085551
823.237999	2475.791312
823.556010	2474.525983
823.873976	2474.951960
824.191897	2471.629840
824.509775	2470.382154
824.827609	2468.494242
825.145398	2469.212607
825.463144	2471.597072
825.780845	2473.316106
826.098502	2472.902731
826.416116	2471.965077
826.733685	2474.397433
827.051210	2471.798718
827.368692	2472.927937
827.686129	2472.141517
828.003522	2472.262505
828.320872	2474.359625
828.638177	2472.748976
828.955439	2470.931640
829.272656	2472.133955
829.589830	2472.736373
829.906960	2471.158492
830.224046	2470.551033
830.541088	2468.499283
830.858086	2471.554223
831.175041	2473.585808
831.491952	2470.760241
831.808819	2471.163533
832.125642	2471.282000
832.442421	2472.292752
832.759157	2472.658235
833.075849	2470.392237
833.392497	2472.685962
833.709101	2471.317288
834.025662	2472.973307
834.342179	2473.169912
834.658653	2470.853502
834.975083	2469.600775
835.291469	2475.604790
835.607811	2471.448358
835.924110	2471.309727
836.240366	2471.261836
836.556578	2471.050107
836.872746	2475.206538
837.188871	2473.104377
837.504952	2474.412557
837.820990	2471.760910
838.136984	2469.590693
838.452935	2472.718729
838.768842	2470.596403
839.084706	2469.252936
839.400526	2469.610858
839.716303	2470.001547
840.032037	2469.648666
840.347727	2465.376288
840.663373	2469.237812
840.978977	2465.315795
841.294537	2469.746969
841.610054	2470.412401
841.925527	2471.491208
842.240957	2470.820735
842.556344	2472.751497
842.871687	2471.985241
843.186987	2470.566156
843.502244	2469.963738
843.817458	2470.881228
844.132629	2468.952987
844.447756	2471.052628
844.762840	2470.672021
845.077881	2469.721763
845.392879	2470.800570
845.707833	2471.617237
846.022745	2470.820735
846.337613	2471.080354
846.652438	2472.166723
846.967221	2470.888790
847.281960	2470.104891
847.596656	2472.784264
847.911309	2470.057000
848.225919	2472.554892
848.540485	2471.939871
848.855009	2470.931640
849.169490	2469.389047
849.483928	2468.960549
849.798323	2469.913327
850.112675	2470.934161
850.426984	2470.518265
850.741251	2470.755200
851.055474	2471.082875
851.369654	2474.823411
851.683792	2470.908955
851.997887	2473.147227
852.311938	2469.545323
852.625947	2470.561115
852.939914	2471.869295
853.253837	2471.312247
853.567718	2472.171764
853.881555	2472.360807
854.195350	2472.360807
854.509103	2472.113791
854.822812	2471.511373
855.136479	2471.339973
855.450103	2471.534058
855.763685	2471.705457
856.077224	2466.339149
856.390720	2468.446351
856.704173	2464.121041
857.017584	2473.525314
857.330953	2471.632360
857.644278	2472.902731
857.957561	2473.611013
858.270802	2469.545323
858.584000	2469.361321
858.897155	2470.525827
859.210268	2467.503655
859.523339	2469.862915
859.836367	2470.213276
860.149352	2473.641260
860.462295	2470.218317
860.775195	2471.433235
861.088054	2472.030612
861.400869	2472.204531
861.713642	2471.080354
862.026373	2470.374592
862.339062	2468.683285
862.651708	2470.374593
862.964312	2469.893162
863.276873	2471.135807
863.589392	2471.806280
863.901869	2469.557926
864.214303	2471.385344
864.526696	2469.908286
864.839045	2470.593883
865.151353	2472.544809
865.463619	2469.830148
865.775842	2472.106229
866.088023	2467.770837
866.400162	2471.483646
866.712258	2467.745631
867.024313	2471.982721
867.336325	2472.154120
867.648296	2468.249746
867.960224	2469.315950
868.272110	2470.619088
868.583954	2468.416104
868.895755	2470.122535
869.207515	2471.579428
869.519233	2470.609006
869.830909	2469.008440
870.142542	2469.578090
870.454134	2469.580611
870.765684	2473.041363
871.077191	2470.394757
871.388657	2467.919551
871.700081	2464.637759
872.011463	2468.027935
872.322803	2462.233129
872.634101	2471.581949
872.945357	2471.143368
873.256571	2471.208903
873.567744	2472.398616
873.878874	2469.709160
874.189963	2468.945425
874.501010	2473.376600
874.812015	2471.027422
875.122979	2469.200004
875.433900	2470.331743
875.744780	2469.746969
876.055618	2468.479119
876.366415	2469.686475
876.677169	2468.895014
876.987882	2471.687813
877.298554	2469.852833
877.609183	2471.864253
877.919771	2467.029787
878.230317	2469.537761
878.540822	2470.987093
878.851285	2471.125724
879.161707	2471.042545
879.472087	2471.438276
879.782425	2468.521968
880.092722	2470.601444
880.402977	2469.565487
880.713191	2472.018009
881.023363	2471.808801
881.333494	2474.278966
881.643583	2471.821404
881.953631	2470.561115
882.263637	2471.672690
882.573602	2471.985241
882.883526	2472.277628
883.193408	2472.030612
883.503248	2469.384006
883.813048	2471.518934
884.122806	2469.212607
884.432522	2471.103039
884.742197	2466.021556
885.051831	2471.045066
885.361424	2468.133800
885.670975	2472.239819
885.980485	2469.568008
886.289954	2472.779223
886.599382	2469.436938
886.908768	2467.410394
887.218113	2464.763788
887.527417	2468.403501
887.836680	2465.499797
888.145901	2469.681434
888.455082	2471.077833
888.764221	2471.342494
889.073319	2469.308388
889.382376	2469.724284
889.691392	2467.501135
890.000366	2470.684623
890.309300	2470.351907
890.618193	2470.974490
890.927044	2468.940384
891.235855	2469.494911
891.544625	2469.053810
891.853353	2469.855354
892.162041	2471.526496
892.470687	2470.525827
892.779293	2469.283183
893.087858	2469.966259
893.396381	2468.184211
893.704864	2468.456433
894.013306	2469.625981
894.321707	2470.281331
894.630068	2468.824438
894.938387	2470.939202
895.246665	2468.005250
895.554903	2471.067751
895.863100	2469.872998
896.171256	2467.198666
896.479371	2467.352421
896.787446	2470.714870
897.095480	2471.271918
897.403473	2468.577421
897.711425	2468.970631
898.019336	2469.696557
898.327207	2469.817545
898.635038	2471.594552
898.942827	2469.963738
899.250576	2469.797380
899.558284	2468.675724
899.865952	2473.621096
900.173579	2470.994654
900.481165	2469.918368
900.788711	2467.354941
901.096216	2469.746969
901.403681	2469.076495
901.711105	2467.581793
902.018489	2468.060703
902.325832	2470.004068
902.633135	2463.937039
902.940397	2464.786473
903.247619	2463.909313
903.554800	2469.671352
903.861941	2467.670013
904.169041	2469.550364
904.476101	2467.871660
904.783121	2470.253605
905.090100	2469.862915
905.397039	2473.318626
905.703938	2471.486167
906.010796	2470.382154
906.317614	2467.422997
906.624391	2471.992803
906.931129	2470.551033
907.237826	2468.101032
907.544483	2468.375775
907.851099	2471.095478
908.157675	2469.872998
908.464211	2471.002216
908.770707	2469.205045
909.077163	2470.175467
909.383578	2470.714870
909.689954	2470.193111
909.996289	2467.785960
910.302584	2467.627164
910.608839	2469.711681
910.915054	2468.138841
911.221229	2470.835858
911.527363	2470.717391
911.833458	2467.483491
912.139513	2471.236630
912.445527	2467.486011
912.751502	2468.617750
913.057436	2469.215127
913.363331	2469.512555
913.669186	2468.438789
913.975000	2469.532720
914.280775	2468.060703
914.586510	2470.886270
914.892205	2471.770992
915.197859	2469.862915
915.503475	2467.125569
915.809050	2468.895014
916.114585	2472.212093
916.420081	2467.967442
916.725536	2468.259828
917.030952	2467.375106
917.336328	2471.594552
917.641665	2467.392750
917.946961	2465.928295
918.252218	2464.496607
918.557435	2463.884107
918.862612	2468.721094
919.167750	2468.632874
919.472848	2469.676393
919.777906	2464.070630
920.082925	2469.147072
920.387904	2468.499283
920.692843	2468.053141
920.997743	2466.939046
921.302603	2467.743110
921.607423	2468.673203
921.912204	2467.733028
922.216946	2469.812504
922.521647	2470.041876
922.826310	2467.191104
923.130932	2470.815693
923.435516	2465.905610
923.740059	2469.320991
924.044564	2470.268728
924.349028	2469.005919
924.653454	2468.159005
924.957840	2469.646146
925.262186	2469.575570
925.566493	2469.157154
925.870761	2468.963069
926.174989	2471.541620
926.479178	2468.821917
926.783328	2467.498614
927.087438	2468.680765
927.391509	2467.302009
927.695541	2466.807976
927.999533	2468.940384
928.303486	2469.590693
928.607400	2467.153295
928.911275	2471.614716
929.215110	2468.327884
929.518906	2467.667493
929.822663	2468.274952
930.126381	2467.768316
930.430060	2468.499283
930.733699	2469.588172
931.037299	2469.010960
931.340861	2468.564818
931.644383	2466.523151
931.947866	2469.812504
932.251309	2468.658080
932.554714	2466.916361
932.858080	2468.365693
933.161407	2465.610702
933.464694	2465.020887
933.767943	2463.614405
934.071153	2465.716566
934.374323	2471.168574
934.677455	2467.228912
934.980548	2468.935343
935.283602	2467.299489
935.586617	2467.057513
935.889593	2469.194963
936.192530	2467.670013
936.495428	2465.071299
936.798287	2467.816207
937.101108	2468.179170
937.403890	2471.090436
937.706632	2469.865436
938.009336	2468.990796
938.312002	2469.575570
938.614628	2470.180508
938.917216	2465.645990
939.219765	2468.063223
939.522275	2469.676393
939.824747	2469.356279
940.127179	2469.807463
940.429573	2465.766978
940.731929	2466.656742
941.034246	2469.885601
941.336524	2467.483491
941.638763	2469.351238
941.940964	2468.776547
942.243126	2468.889973
942.545250	2468.988275
942.847335	2467.959880
943.149381	2467.700260
943.451389	2469.779736
943.753359	2468.779067
944.055290	2467.181022
944.357182	2469.290744
944.659036	2466.147585
944.960851	2465.832513
945.262628	2471.347535
945.564367	2464.037862
945.866067	2469.036166
946.167729	2466.445013
946.469352	2467.065075
946.770937	2468.315281
947.072484	2468.343007
947.373992	2470.016671
947.675462	2469.250415
947.976893	2468.282514
948.278286	2462.223047
948.579641	2468.295117
948.880958	2463.874025
949.182236	2470.795529
949.483476	2468.088429
949.784678	2467.155816
950.085841	2468.476598
950.386967	2466.266052
950.688054	2466.470219
950.989103	2468.960549
951.290114	2464.927626
951.591087	2470.530868
951.892021	2468.441310
952.192917	2468.927781
952.493776	2466.770168
952.794596	2468.222020
953.095378	2466.548357
953.396122	2468.249746
953.696828	2465.943418
953.997496	2468.796711
954.298126	2466.896196
954.598718	2467.730507
954.899272	2469.999027
955.199788	2466.724797
955.500266	2464.541978
955.800706	2469.366362
956.101108	2466.586165
956.401472	2465.688840
956.701798	2468.703450
957.002087	2467.344859
957.302337	2466.646659
957.602550	2466.767647
957.902724	2464.909982
958.202861	2467.733028
958.502960	2466.429890
958.803022	2467.425518
959.103045	2467.276803
959.403031	2468.146402
959.702979	2470.094808
960.002889	2468.448872
960.302762	2467.327215
960.602596	2465.451906
960.902393	2466.649180
961.202153	2468.151444
961.501875	2468.040538
961.801559	2467.644808
962.101205	2468.181691
962.400814	2469.537761
962.700385	2466.623974
962.999918	2462.586010
963.299414	2461.068623
963.598873	2463.649693
963.898293	2462.815382
964.197677	2468.562298
964.497022	2468.970631
964.796331	2467.460806
965.095601	2469.646146
965.394835	2467.186063
965.694030	2470.324181
965.993189	2465.424179
966.292309	2465.635908
966.591393	2469.406691
966.890439	2466.855867
967.189447	2465.905610
967.488419	2465.416618
967.787353	2469.663790
968.086249	2466.649180
968.385108	2467.823769
968.683930	2470.659418
968.982714	2467.085240
969.281462	2467.889304
969.580172	2466.283696
969.878844	2467.987606
970.177480	2466.192955
970.476078	2466.341669
970.774639	2469.174798
971.073162	2469.189921
971.371649	2467.425518
971.670098	2467.065075
971.968510	2466.964252
972.266885	2467.715384
972.565223	2467.627164
972.863524	2466.583645
973.161788	2465.088943
973.460014	2467.816207
973.758204	2467.027266
974.056356	2467.284365
974.354471	2465.144395
974.652550	2464.234467
974.950591	2467.964921
975.248595	2467.324694
975.546563	2466.407204
975.844493	2467.775878
976.142386	2465.819910
976.440243	2465.582976
976.738062	2466.276134
977.035845	2467.148254
977.333590	2466.981896
977.631299	2467.289406
977.928971	2464.242029
978.226606	2463.075002
978.524204	2465.630867
978.821765	2462.091977
979.119290	2466.326546
979.416777	2467.586834
979.714228	2469.757051
980.011642	2467.208748
980.309020	2467.473408
980.606360	2466.649180
980.903664	2466.601289
981.200931	2466.364355
981.498162	2467.322174
981.795356	2466.155147
982.092513	2464.231947
982.389633	2467.017184
982.686717	2468.166567
982.983764	2470.545992
983.280775	2466.785291
983.577749	2464.758747
983.874686	2467.763275
984.171587	2467.276803
984.468451	2468.312761
984.765279	2467.649849
985.062070	2468.642956
985.358824	2468.680765
985.655543	2466.813017
985.952224	2466.389560
986.248869	2466.024077
986.545478	2467.433079
986.842050	2465.590538
987.138586	2466.896196
987.435086	2467.118007
987.731549	2463.909313
988.027975	2468.151444
988.324366	2466.351752
988.620719	2464.564663
988.917037	2465.393933
989.213318	2468.133800
989.509563	2467.259159
989.805772	2464.887297
990.101944	2466.011474
990.398080	2465.134313
990.694180	2465.525003
990.990244	2468.022894
991.286271	2467.334777
991.582262	2463.173304
991.878217	2465.416618
992.174136	2467.216310
992.470019	2466.102215
992.765865	2464.882255
993.061676	2463.027111
993.357450	2462.757409
993.653188	2462.134827
993.948890	2465.182204
994.244556	2465.156998
994.540186	2465.507358
994.835780	2465.104066
995.131337	2466.848305
995.426859	2464.378140
995.722345	2466.089612
996.017795	2464.552060
996.313208	2467.062554
996.608586	2466.082050
996.903928	2464.844447
997.199234	2466.588686
997.494504	2465.996350
997.789738	2467.486011
998.084936	2465.721607
998.380099	2466.490383
998.675225	2467.349900
998.970316	2468.532051
999.265371	2466.409725
999.560390	2465.835033
999.855373	2466.437451
1000.150320	2467.271762
1000.445232	2466.840744
1000.740108	2466.616412
1001.034948	2467.428038
1001.329752	2466.911320
1001.624521	2466.694550
1001.919254	2468.159005
1002.213951	2468.388378
1002.508613	2466.649180
1002.803239	2467.823769
1003.097829	2464.970476
1003.392384	2464.927626
1003.686903	2467.836372
1003.981386	2468.078347
1004.275834	2465.290589
1004.570246	2467.044910
1004.864623	2469.106742
1005.158964	2468.905096
1005.453270	2465.252780
1005.747540	2466.535754
1006.041775	2467.480970
1006.335974	2465.484673
1006.630138	2465.829992
1006.924266	2465.378809
1007.218359	2465.565332
1007.512416	2463.707667
1007.806438	2463.349745
1008.100425	2461.965948
1008.394376	2460.143571
1008.688292	2464.801597
1008.982172	2465.950980
1009.276017	2466.099694
1009.569827	2466.777729
1009.863602	2464.521813
1010.157341	2467.727987
1010.451045	2464.844447
1010.744714	2464.604992
1011.038347	2466.218161
1011.331945	2465.819910
1011.625508	2464.831844
1011.919036	2464.980558
1012.212528	2467.065075
1012.505986	2465.812348
1012.799408	2465.799745
1013.092795	2467.856536
1013.386147	2463.566514
1013.679464	2467.720425
1013.972745	2466.505507
1014.265992	2465.736731
1014.559204	2467.503655
1014.852380	2464.967955
1015.145521	2464.821762
1015.438628	2466.981896
1015.731699	2465.565332
1016.024736	2463.309415
1016.317737	2466.951649
1016.610703	2465.532564
1016.903635	2469.250415
1017.196531	2465.217492
1017.489393	2465.358644
1017.782219	2466.271093
1018.075011	2464.715897
1018.367768	2465.913171
1018.660490	2463.057358
1018.953177	2463.057358
1019.245829	2463.057358
