Dividing Wavelength (nm)	Counts (n)	Blue Motor Position (mm): 0.000000	Red Motor Position (mm): 10.000000	
326.493990	2056.064843
326.888308	2056.064843
327.282561	2056.064843
327.676750	2028.920750
328.070874	2028.787160
328.464933	2037.984745
328.858929	2045.690148
329.252859	2053.841694
329.646726	2068.708057
330.040528	2083.193813
330.434265	2101.465475
330.827938	2125.597478
331.221547	2142.293780
331.615091	2163.053251
332.008571	2186.734071
332.401986	2204.579756
332.795338	2224.872921
333.188625	2242.481671
333.581847	2263.326842
333.975006	2280.600356
334.368100	2296.021246
334.761129	2313.740901
335.154095	2329.839826
335.546996	2346.105109
335.939833	2358.581965
336.332606	2373.377751
336.725315	2385.872251
337.117960	2394.333828
337.510540	2403.912020
337.903056	2412.923083
338.295508	2420.754515
338.687896	2427.292892
339.080220	2432.422266
339.472480	2436.409818
339.864676	2442.063473
340.256807	2442.086158
340.648875	2445.471293
341.040879	2446.262754
341.432818	2449.375666
341.824694	2448.984977
342.216506	2447.689400
342.608253	2450.038578
342.999937	2448.208639
343.391557	2449.196705
343.783113	2443.197732
344.174605	2444.536158
344.566033	2444.863833
344.957397	2442.572629
345.348697	2439.910900
345.739934	2438.330498
346.131106	2437.201280
346.522215	2433.551484
346.913260	2430.814138
347.304241	2432.780188
347.695159	2428.212902
348.086012	2430.494024
348.476802	2425.586461
348.867528	2421.382139
349.258191	2417.644123
349.648789	2420.857859
350.039324	2416.093968
350.429796	2419.960533
350.820203	2420.363826
351.210548	2419.776531
351.600828	2420.116809
351.991045	2418.412899
352.381198	2418.276788
352.771288	2418.052457
353.161314	2416.903074
353.551276	2419.728640
353.941175	2415.395769
354.331010	2416.552713
354.720782	2418.123033
355.110490	2419.922725
355.500135	2416.250244
355.889717	2419.678229
356.279235	2415.050450
356.668689	2420.915832
357.058080	2419.113620
357.447408	2419.153949
357.836672	2421.316604
358.225873	2421.306522
358.615010	2419.426171
359.004084	2421.273754
359.393095	2420.676377
359.782043	2421.898857
360.170927	2422.435740
360.559748	2423.575041
360.948505	2426.002356
361.337199	2424.757191
361.725830	2426.924887
362.114398	2425.228539
362.502903	2427.532347
362.891344	2426.773653
363.279722	2428.114600
363.668037	2426.892120
364.056289	2428.822882
364.444478	2432.147523
364.832603	2428.538057
365.220665	2426.970258
365.608665	2428.147367
365.996601	2428.601071
366.384474	2431.441761
366.772284	2430.466298
367.160031	2432.881011
367.547715	2433.584252
367.935336	2430.415887
368.322893	2429.848757
368.710388	2428.442275
369.097820	2432.336566
369.485189	2429.377409
369.872495	2435.368820
370.259738	2433.604416
370.646918	2437.153389
371.034035	2434.940322
371.421090	2439.520210
371.808081	2438.438883
372.195010	2441.193873
372.581875	2438.484253
372.968678	2439.550457
373.355418	2442.386106
373.742096	2443.742177
374.128710	2444.458021
374.515262	2450.522529
374.901751	2447.671756
375.288177	2457.653241
375.674540	2457.053343
376.060841	2462.210444
376.447079	2464.620115
376.833254	2467.334777
377.219367	2474.168061
377.605417	2482.979998
377.991404	2487.751450
378.377329	2491.766729
378.763191	2498.524396
379.148991	2508.026971
379.534727	2514.719102
379.920402	2525.176976
380.306013	2532.731145
380.691563	2543.652805
381.077049	2556.593447
381.462474	2565.496124
381.847835	2580.251582
382.233134	2596.113572
382.618371	2604.620519
383.003545	2619.358333
383.388657	2637.075468
383.773706	2656.867038
384.158693	2668.144099
384.543618	2685.589012
384.928480	2699.290868
385.313280	2722.638972
385.698017	2739.867115
386.082692	2761.256731
386.467305	2773.970521
386.851856	2797.668985
387.236344	2822.741164
387.620770	2839.883608
388.005133	2853.595546
388.389435	2885.964795
388.773674	2895.550549
389.157851	2922.954261
389.541965	2947.981070
389.926018	2956.462811
390.310008	2984.242089
390.693936	3003.567353
391.077802	3019.278108
391.461606	3044.153682
391.845348	3053.026113
392.229027	3073.243660
392.612645	3103.140223
392.996200	3119.377780
393.379694	3142.178919
393.763125	3171.238650
394.146494	3182.072090
394.529801	3203.335677
394.913047	3228.170921
395.296230	3220.117678
395.679351	3226.708986
396.062410	3252.486927
396.445408	3220.037019
396.828343	3235.677199
397.211217	3245.825042
397.594028	3211.091492
397.976778	3231.480438
398.359466	3234.500090
398.742092	3224.511043
399.124656	3215.003427
399.507158	3236.781212
399.889598	3220.977194
400.271977	3241.562746
400.654294	3210.216852
401.036549	3225.753688
401.418742	3202.685368
401.800874	3219.827811
402.182944	3210.476471
402.564952	3229.693349
402.946898	3199.350644
403.328783	3174.628826
403.710606	3172.922395
404.092367	3179.957326
404.474067	3177.104032
404.855705	3142.277221
405.237282	3106.091819
405.618797	3117.638582
406.000250	3118.485496
406.381642	3119.816360
406.762972	3087.638675
407.144240	3050.089641
407.525447	3044.385575
407.906593	3016.911287
408.287677	3017.790968
408.668700	2995.047803
409.049661	2981.920638
409.430560	2959.880713
409.811399	2930.498348
410.192176	2915.936975
410.572891	2908.980183
410.953545	2902.038514
411.334138	2856.453880
411.714669	2850.636389
412.095139	2815.189516
412.475547	2806.445634
412.855894	2786.533077
413.236180	2777.610234
413.616405	2746.287025
413.996568	2742.796026
414.376670	2722.628890
414.756711	2703.447299
415.136691	2692.787780
415.516609	2680.111798
415.896466	2669.578307
416.276262	2662.273675
416.655997	2652.745895
417.035670	2644.362456
417.415283	2638.459265
417.794834	2628.818058
418.174324	2613.084617
418.553753	2600.383430
418.933121	2595.518716
419.312428	2582.252920
419.691674	2570.088616
420.070859	2566.554767
420.449983	2553.349464
420.829045	2550.561706
421.208047	2541.094419
421.586988	2535.884387
421.965867	2532.385826
422.344686	2526.530526
422.723444	2520.508867
423.102141	2511.563340
423.480777	2511.185253
423.859352	2506.320540
424.237866	2506.529748
424.616319	2503.048831
424.994712	2500.470281
425.373044	2497.226298
425.751314	2492.941318
426.129524	2487.655668
426.507673	2488.432006
426.885762	2485.117447
427.263789	2486.465956
427.641756	2488.757160
428.019662	2486.198774
428.397508	2482.140646
428.775292	2483.199288
429.153016	2485.508136
429.530679	2482.891778
429.908282	2481.691983
430.285824	2480.461941
430.663305	2481.754997
431.040726	2480.328351
431.418086	2477.538072
431.795385	2482.944710
432.172624	2479.065542
432.549802	2478.884060
432.926920	2475.342650
433.303977	2479.897332
433.680974	2478.193422
434.057910	2477.217959
434.434786	2479.516725
434.811601	2478.904225
435.188355	2480.081334
435.565050	2478.775675
435.941683	2477.936323
436.318257	2477.775006
436.694770	2474.954481
437.071222	2479.478916
437.447614	2475.584625
437.823946	2478.553865
438.200218	2477.021354
438.576429	2475.735860
438.952580	2478.395068
439.328670	2480.603094
439.704700	2479.980511
440.080670	2476.567650
440.456580	2478.566468
440.832429	2478.649647
441.208218	2480.933289
441.583947	2478.372383
441.959616	2479.194091
442.335224	2478.684935
442.710773	2478.727784
443.086261	2479.178968
443.461689	2477.580922
443.837057	2479.642754
444.212365	2478.458083
444.587612	2478.969760
444.962800	2473.265694
445.337927	2478.977322
445.712995	2472.315437
446.088002	2481.926397
446.462949	2475.738380
446.837837	2483.695842
447.212664	2479.741056
447.587431	2480.885398
447.962139	2487.048209
448.336786	2487.569968
448.711374	2486.629793
449.085901	2484.356233
449.460369	2483.227014
449.834776	2483.547128
450.209124	2484.865389
450.583412	2486.594505
450.957640	2487.685915
451.331808	2485.455204
451.705917	2484.260451
452.079965	2483.103506
452.453954	2483.489154
452.827883	2483.022848
453.201752	2485.273723
453.575562	2484.754484
453.949311	2486.891933
454.323001	2483.221973
454.696632	2486.889413
455.070202	2485.709783
455.443713	2486.097951
455.817164	2484.220122
456.190556	2486.871768
456.563888	2488.389156
456.937160	2486.662561
457.310373	2487.713641
457.683526	2489.001656
458.056619	2487.529639
458.429653	2486.927221
458.802628	2487.290184
459.175542	2488.777325
459.548398	2487.476707
459.921194	2490.738333
460.293930	2490.486276
460.666607	2492.114568
461.039224	2493.518530
461.411782	2495.222440
461.784280	2496.530619
462.156719	2495.479539
462.529099	2497.211175
462.901419	2491.648262
463.273680	2490.922336
463.645882	2487.086017
464.018024	2491.204640
464.390106	2489.294043
464.762130	2496.291164
465.134094	2496.301247
465.505999	2501.481032
465.877845	2507.956394
466.249631	2509.637619
466.621358	2507.762310
466.993026	2506.917917
467.364634	2506.000427
467.736184	2504.057062
468.107674	2503.164778
468.479105	2500.558501
468.850477	2503.976403
469.221790	2499.159581
469.593043	2499.230157
469.964238	2499.348624
470.335373	2496.908706
470.706449	2497.117914
471.077467	2498.857112
471.448425	2506.567557
471.819324	2506.025633
472.190164	2508.321878
472.560945	2505.730725
472.931667	2501.738131
473.302330	2503.366424
473.672934	2497.758140
474.043479	2500.911382
474.413965	2498.393326
474.784393	2500.745024
475.154761	2501.632267
475.525070	2499.572956
475.895321	2499.575476
476.265513	2499.149499
476.635645	2502.320384
477.005719	2501.662514
477.375734	2500.581186
477.745691	2501.332318
478.115588	2506.512104
478.485427	2507.296003
478.855207	2511.028978
479.224928	2512.448063
479.594591	2512.783299
479.964194	2513.373114
480.333739	2512.538803
480.703226	2515.611387
481.072653	2516.259175
481.442022	2515.369411
481.811333	2512.851355
482.180584	2511.084430
482.549777	2512.674914
482.918912	2507.971518
483.287988	2512.354801
483.657005	2511.981756
484.025964	2513.418485
484.394864	2508.248781
484.763706	2513.695748
485.132489	2510.232475
485.501213	2513.877230
485.869879	2508.669718
486.238487	2510.494615
486.607036	2508.896570
486.975527	2512.684997
487.343959	2511.177692
487.712333	2512.034688
488.080648	2512.949657
488.448905	2513.584843
488.817104	2510.252640
489.185244	2512.579132
489.553326	2514.736746
489.921350	2517.045595
490.289315	2519.384690
490.657222	2522.293436
491.025070	2520.864269
491.392861	2521.393590
491.760593	2518.391583
492.128267	2520.120699
492.495883	2517.443846
492.863440	2513.736077
493.230939	2514.769514
493.598380	2514.963598
493.965763	2515.087107
494.333088	2511.034019
494.700354	2512.127949
495.067563	2511.656601
495.434713	2512.800943
495.801805	2513.310100
496.168839	2509.504029
496.535815	2513.899915
496.902733	2513.829339
497.269593	2512.987466
497.636395	2511.717095
498.003139	2514.494771
498.369825	2511.064266
498.736453	2513.902435
499.103023	2512.327075
499.469535	2514.232631
499.835989	2511.840603
500.202385	2510.804646
500.568723	2508.122753
500.935003	2510.476971
501.301226	2506.277690
501.667390	2512.894205
502.033497	2512.682476
502.399546	2513.393279
502.765537	2509.630057
503.131470	2512.695079
503.497345	2514.575429
503.863163	2512.357322
504.228923	2510.938237
504.594625	2514.068793
504.960269	2509.531755
505.325856	2510.000582
505.691385	2512.077538
506.056856	2512.909328
506.422270	2511.369256
506.787625	2510.965963
507.152924	2511.608710
507.518164	2513.098371
507.883347	2510.802126
508.248472	2511.996879
508.613540	2512.324554
508.978550	2513.446211
509.343503	2510.015706
509.708398	2512.952178
510.073236	2514.227590
510.438016	2512.266581
510.802738	2511.127280
511.167403	2510.164420
511.532010	2509.514111
511.896561	2513.529390
512.261053	2515.371932
512.625488	2511.757424
512.989866	2511.011334
513.354186	2511.956550
513.718449	2509.758607
514.082655	2513.030316
514.446803	2510.461848
514.810894	2512.574091
515.174927	2516.075173
515.538904	2512.989987
515.902822	2512.604338
516.266684	2513.060563
516.630488	2508.909173
516.994235	2511.066786
517.357925	2513.373114
517.721558	2513.829339
518.085133	2512.203567
518.448651	2512.039729
518.812112	2508.488236
519.175516	2511.820439
519.538863	2508.609224
519.902152	2512.427898
520.265385	2512.385048
520.628560	2511.638957
520.991678	2513.778927
521.354739	2512.367404
521.717743	2511.157527
522.080690	2513.829339
522.443580	2513.108454
522.806413	2514.590553
523.169189	2511.820439
523.531908	2513.864627
523.894569	2513.075686
524.257174	2511.407064
524.619722	2510.915552
524.982213	2514.552744
525.344647	2513.121057
525.707025	2510.948319
526.069345	2512.261540
526.431608	2510.517301
526.793815	2513.153824
527.155964	2512.259019
527.518057	2512.700120
527.880093	2512.327075
528.242072	2512.062414
528.603995	2513.917559
528.965860	2513.494102
529.327669	2511.596108
529.689421	2510.436642
530.051117	2511.351612
530.412755	2509.874553
530.774337	2511.477640
531.135862	2512.024606
531.497331	2514.149452
531.858743	2511.540655
532.220098	2512.057373
532.581396	2510.126611
532.942638	2514.310769
533.303824	2514.104082
533.664953	2511.984276
534.026025	2512.856396
534.387040	2512.165758
534.747999	2515.412261
535.108902	2512.281704
535.469748	2512.632065
535.830537	2510.711385
536.191270	2510.101405
536.551947	2509.776251
536.912567	2508.243740
537.273131	2510.587877
537.633638	2503.414315
537.994089	2513.136180
538.354483	2510.794564
538.714821	2510.960922
539.075103	2510.895387
539.435328	2510.005623
539.795497	2510.955881
540.155609	2509.141066
540.515665	2511.180212
540.875665	2509.418329
541.235609	2509.027640
541.595496	2510.184584
541.955328	2510.108967
542.315102	2510.038391
542.674821	2512.788340
543.034483	2511.770027
543.394090	2507.386744
543.753640	2512.332116
544.113134	2512.790861
544.472571	2507.603514
544.831953	2510.557630
545.191278	2511.722136
545.550548	2508.337002
545.909761	2509.251971
546.268918	2511.331447
546.628019	2511.356653
546.987064	2510.814729
547.346053	2510.093844
547.704986	2509.420850
548.063863	2509.582167
548.422684	2508.861282
548.781449	2510.716426
549.140158	2509.509070
549.498811	2510.426560
549.857408	2510.787002
550.215949	2509.357835
550.574434	2508.147958
550.932864	2510.376148
551.291237	2513.000069
551.649555	2508.909173
552.007817	2508.979749
552.366022	2507.308606
552.724173	2511.069307
553.082267	2509.864471
553.440305	2511.157527
553.798288	2511.402023
554.156215	2509.060407
554.514086	2509.743483
554.871902	2506.779285
555.229661	2505.879439
555.587365	2506.456651
555.945014	2510.668535
556.302606	2508.314316
556.660143	2512.914369
557.017625	2509.751045
557.375050	2509.176354
557.732421	2511.109636
558.089735	2509.511590
558.446994	2507.580828
558.804197	2511.454955
559.161345	2511.127280
559.518437	2509.783813
559.875474	2510.902949
560.232455	2511.447393
560.589381	2510.008144
560.946251	2511.863289
561.303065	2507.966477
561.659825	2510.328257
562.016528	2511.127280
562.373177	2510.073679
562.729770	2513.040398
563.086307	2513.055522
563.442789	2509.859430
563.799216	2509.559481
564.155587	2510.020747
564.511904	2511.442352
564.868164	2510.867661
565.224370	2510.630727
565.580520	2509.839265
565.936615	2510.824811
566.292654	2509.519152
566.648638	2510.814729
567.004567	2511.197856
567.360441	2510.408916
567.716260	2509.826662
568.072023	2511.041581
568.427732	2509.458658
568.783385	2508.631909
569.138982	2512.473268
569.494525	2511.036539
569.850013	2507.807680
570.205445	2510.096364
570.560823	2508.825993
570.916145	2511.631396
571.271412	2509.670387
571.626625	2512.180881
571.981782	2509.435973
572.336884	2506.678462
572.691931	2506.655777
573.046923	2507.444717
573.401860	2504.162926
573.756743	2508.667197
574.111570	2510.018226
574.466342	2507.603514
574.821059	2511.160048
575.175722	2510.507218
575.530330	2507.727022
575.884882	2510.731550
576.239380	2507.573267
576.593823	2512.500995
576.948211	2508.911693
577.302544	2511.795233
577.656823	2508.662156
578.011047	2509.367918
578.365216	2510.613082
578.719330	2508.384893
579.073389	2508.949502
579.427394	2507.290962
579.781344	2510.340860
580.135239	2511.505367
580.489080	2506.547392
580.842866	2508.427742
581.196597	2506.920437
581.550273	2507.076713
581.903895	2508.394975
582.257463	2506.796929
582.610975	2507.371621
582.964434	2508.412619
583.317837	2508.712567
583.671186	2506.391116
584.024481	2507.999244
584.377721	2507.812722
584.730906	2507.863133
585.084037	2509.151148
585.437113	2505.002278
585.790135	2509.685510
586.143103	2507.810201
586.496016	2509.370438
586.848874	2507.837927
587.201679	2509.133504
587.554428	2505.786178
587.907124	2505.937412
588.259765	2507.583349
588.612352	2508.233658
588.964884	2507.109481
589.317362	2506.375993
589.669786	2506.277690
590.022155	2504.619151
590.374470	2502.703512
590.726731	2504.528410
591.078937	2502.690909
591.431090	2506.953205
591.783188	2506.476816
592.135232	2507.048987
592.487222	2508.372290
592.839157	2507.099398
593.191038	2507.517814
593.542866	2508.515963
593.894639	2504.576301
594.246358	2505.990344
594.598022	2509.136024
594.949633	2505.153513
595.301190	2504.803153
595.652692	2506.905314
596.004141	2505.818945
596.355535	2507.371621
596.706876	2504.609068
597.058162	2505.829028
597.409395	2503.880622
597.760573	2506.391116
598.111698	2503.782319
598.462768	2505.004799
598.813785	2502.748882
599.164748	2506.870026
599.515657	2506.338184
599.866511	2504.770385
600.217312	2502.995899
600.568060	2503.726866
600.918753	2507.454800
601.269392	2505.057731
601.619978	2503.661331
601.970510	2505.251815
602.320988	2504.283914
602.671412	2506.706188
603.021783	2503.923471
603.372100	2503.978924
603.722363	2504.087309
604.072572	2504.029336
604.422728	2505.743328
604.772830	2505.821466
605.122878	2506.121414
605.472872	2505.128307
605.822813	2504.052021
606.172701	2503.694099
606.522534	2503.903307
606.872314	2507.628719
607.222041	2502.234685
607.571714	2502.408605
607.921333	2500.717297
608.270899	2504.273832
608.620411	2497.969869
608.969870	2505.750890
609.319276	2504.329284
609.668627	2505.534120
610.017926	2503.999089
610.367171	2504.178050
610.716362	2504.846002
611.065500	2503.232833
611.414585	2506.312978
611.763616	2505.140910
612.112594	2503.941115
612.461518	2505.866836
612.810389	2503.845333
613.159207	2507.434635
613.507971	2503.885663
613.856682	2506.867505
614.205340	2507.197701
614.553945	2506.494460
614.902496	2504.261229
615.250994	2503.353821
615.599439	2504.919099
615.947830	2506.222238
616.296169	2505.955056
616.644454	2505.844151
616.992686	2504.798112
617.340864	2507.109481
617.688990	2506.232320
618.037063	2504.964470
618.385082	2504.961949
618.733048	2504.611589
619.080961	2504.493122
619.428821	2503.752072
619.776628	2508.112670
620.124382	2505.193842
620.472083	2504.440190
620.819731	2503.442041
621.167326	2507.419512
621.514868	2506.529748
621.862357	2504.445231
622.209793	2508.102588
622.557176	2502.786691
622.904506	2505.481188
623.251783	2503.963801
623.599007	2505.589573
623.946179	2503.699140
624.293297	2503.817607
624.640363	2506.973369
624.987376	2504.803153
625.334336	2499.197390
625.681243	2499.464571
626.028097	2496.132368
626.374899	2503.545385
626.721647	2502.275014
627.068343	2503.915910
627.414987	2502.572442
627.761577	2505.443379
628.108115	2504.387258
628.454600	2501.720487
628.801032	2500.868532
629.147412	2502.491784
629.493739	2499.600682
629.840014	2502.285096
630.186236	2502.834582
630.532405	2501.624705
630.878521	2504.954387
631.224585	2503.179901
631.570597	2502.537154
631.916556	2500.734942
632.262462	2502.995899
632.608316	2503.578152
632.954117	2501.599499
633.299866	2500.177894
633.645562	2498.385764
633.991206	2500.132524
634.336797	2500.364417
634.682336	2499.252842
635.027823	2499.162102
635.373257	2501.826351
635.718639	2499.144458
636.063968	2498.899962
636.409245	2498.605054
636.754470	2498.552122
637.099642	2497.657317
637.444762	2498.405928
637.789829	2499.333501
638.134845	2497.138078
638.479808	2499.169663
638.824719	2497.294354
639.169577	2496.807883
639.514383	2498.789056
639.859137	2496.689416
640.203839	2495.938284
640.548489	2499.557832
640.893086	2495.688747
641.237632	2497.891731
641.582125	2499.157060
641.926566	2497.382574
642.270955	2498.703357
642.615292	2494.425937
642.959576	2492.966523
643.303809	2493.503406
643.647990	2497.165805
643.992118	2495.471977
644.336195	2496.840650
644.680219	2495.943325
645.024192	2499.759478
645.368112	2498.617657
645.711981	2497.664879
646.055797	2498.554643
646.399562	2497.697646
646.743274	2501.050014
647.086935	2499.875425
647.430544	2500.921464
647.774101	2499.784684
648.117606	2501.140754
648.461059	2500.152688
648.804460	2504.190652
649.147810	2497.889210
649.491108	2500.568583
649.834354	2498.940291
650.177548	2498.973058
650.520690	2498.022801
650.863781	2496.089518
651.206820	2500.334170
651.549807	2497.019611
651.892742	2498.436175
652.235626	2500.152688
652.578458	2497.022132
652.921238	2495.640856
653.263967	2496.281082
653.606644	2495.139261
653.949269	2494.173880
654.291843	2494.798983
654.634365	2499.484735
654.976836	2495.378716
655.319255	2496.727224
655.661622	2496.923829
656.003938	2497.012049
656.346203	2496.540702
656.688416	2496.752430
657.030577	2495.156905
657.372687	2495.565238
657.714746	2496.313850
658.056753	2494.534322
658.398708	2494.889724
658.740612	2496.671772
659.082465	2496.727224
659.424266	2491.597850
659.766016	2491.620535
660.107715	2493.815958
660.449362	2491.169352
660.790958	2495.713952
661.132503	2493.775629
661.473996	2497.357368
661.815438	2495.441730
662.156829	2497.690085
662.498168	2499.504900
662.839456	2497.763181
663.180693	2495.320742
663.521879	2494.287306
663.863013	2494.458705
664.204097	2496.707060
664.545129	2495.688747
664.886110	2497.289313
665.227040	2493.818478
665.567918	2496.573469
665.908746	2497.458192
666.249522	2495.310660
666.590248	2494.221771
666.930922	2496.540702
667.271545	2495.890393
667.612118	2496.391988
667.952639	2495.734117
668.293109	2494.287306
668.633528	2496.389467
668.973896	2495.212358
669.314213	2494.836792
669.654480	2498.479025
669.994695	2497.458192
670.334859	2493.039620
670.674973	2497.780825
671.015035	2494.821668
671.355047	2497.062461
671.695008	2495.759323
672.034918	2494.680516
672.374777	2498.257214
672.714585	2496.938953
673.054342	2495.782008
673.394049	2495.363592
673.733705	2495.386277
674.073310	2496.200424
674.412864	2496.611278
674.752368	2494.534322
675.091820	2494.521719
675.431223	2495.532471
675.770574	2496.172697
676.109875	2491.668426
676.449125	2491.154229
676.788324	2489.906543
677.127473	2489.712459
677.466571	2491.260093
677.805619	2493.342089
678.144616	2493.049702
678.483562	2496.510455
678.822458	2495.124137
679.161303	2493.763026
679.500098	2496.132368
679.838842	2494.055413
680.177535	2492.220433
680.516179	2493.810917
680.854771	2493.077429
681.193314	2491.449136
681.531805	2494.917450
681.870247	2497.012049
682.208638	2495.109014
682.546978	2498.466422
682.885268	2495.255207
683.223508	2497.493480
683.561697	2494.075577
683.899836	2494.083139
684.237925	2490.753457
684.575963	2493.566421
684.913951	2494.110865
685.251889	2494.804024
685.589776	2494.206647
685.927614	2493.740341
686.265401	2496.008860
686.603137	2496.013901
686.940824	2491.933087
687.278460	2496.056751
687.616046	2493.178252
687.953582	2496.487769
688.291068	2494.241935
688.628504	2494.680516
688.965889	2496.518016
689.303224	2496.044148
689.640510	2495.628253
689.977745	2496.923829
690.314930	2495.837461
690.652065	2494.846874
690.989150	2494.917450
691.326185	2493.659682
691.663170	2493.868890
692.000105	2491.595330
692.336990	2491.754126
692.673825	2494.083139
693.010610	2493.208499
693.347345	2487.751450
693.684030	2486.644917
694.020665	2488.401759
694.357251	2486.032416
694.693786	2492.454846
695.030272	2487.075935
695.366707	2490.297233
695.703093	2489.024341
696.039429	2490.854280
696.375716	2489.498210
696.711952	2487.625421
697.048139	2489.346975
697.384276	2490.478714
697.720363	2490.259424
698.056400	2490.405617
698.392388	2490.118272
698.728326	2488.994094
699.064214	2485.379587
699.400053	2488.782366
699.735842	2487.431337
700.071581	2487.292705
700.407270	2489.044506
700.742910	2489.538539
701.078501	2487.751450
701.414042	2486.274392
701.749533	2487.224649
702.084974	2485.982005
702.420366	2485.193064
702.755709	2489.941831
703.091002	2484.202477
703.426246	2486.884371
703.761440	2484.751963
704.096584	2488.487458
704.431679	2485.460245
704.766725	2486.939824
705.101721	2484.590646
705.436668	2488.868065
705.771565	2485.074597
706.106413	2486.770945
706.441212	2485.414875
706.775961	2489.588950
707.110661	2487.098620
707.445311	2488.779845
707.779913	2488.147180
708.114465	2484.174751
708.448967	2488.474855
708.783421	2484.938486
709.117825	2489.039465
709.452180	2486.024855
709.786485	2488.542911
710.120742	2488.772283
710.454949	2485.319093
710.789107	2485.417396
711.123216	2486.526449
711.457275	2489.478045
711.791286	2490.599702
712.125247	2489.871255
712.459159	2490.592140
712.793023	2489.402428
713.126837	2489.084835
713.460602	2490.740854
713.794318	2489.558703
714.127985	2492.227994
714.461602	2489.861173
714.795171	2489.536018
715.128691	2487.113744
715.462162	2486.670122
715.795584	2490.443426
716.128957	2487.695997
716.462281	2486.891933
716.795556	2484.396562
717.128782	2486.750781
717.461960	2484.194916
717.795088	2488.127016
718.128167	2490.088025
718.461198	2486.113075
718.794180	2482.995121
719.127113	2484.734319
719.459997	2485.674494
719.792833	2486.342447
720.125619	2485.513177
720.458357	2481.971767
720.791046	2485.165338
721.123686	2485.944196
721.456278	2485.911429
721.788821	2484.903198
722.121315	2485.785400
722.453761	2485.503095
722.786158	2482.133084
723.118506	2484.961171
723.450805	2484.343630
723.783056	2482.687611
724.115259	2483.043012
724.447412	2483.002683
724.779518	2485.586274
725.111574	2484.109216
725.443582	2486.438229
725.775542	2482.604432
726.107453	2486.942345
726.439315	2483.529483
726.771129	2487.360760
727.102895	2483.816829
727.434612	2482.821201
727.766281	2479.766262
728.097901	2485.170379
728.429473	2483.158959
728.760996	2486.022334
729.092471	2485.616521
729.423897	2487.625421
729.755276	2483.211891
730.086606	2487.232211
730.417887	2485.704741
730.749120	2488.288333
731.080305	2485.959320
731.411442	2489.631800
731.742530	2487.012921
732.073570	2487.854793
732.404562	2488.467294
732.735506	2488.401759
733.066401	2487.166676
733.397249	2487.451501
733.728048	2484.714155
734.058798	2487.852273
734.389501	2484.492344
734.720156	2484.378918
735.050762	2481.964205
735.381320	2486.612149
735.711831	2482.213742
736.042293	2485.934114
736.372707	2483.083341
736.703073	2483.882364
737.033391	2482.422950
737.363661	2487.645586
737.693883	2483.126191
738.024056	2482.077631
738.354182	2486.259268
738.684260	2483.458907
739.014290	2486.327324
739.344272	2488.434526
739.674207	2483.831953
740.004093	2486.314721
740.333931	2485.266161
740.663722	2484.509988
740.993464	2484.434371
741.323159	2483.897488
741.652806	2484.547797
741.982405	2485.563589
742.311956	2484.204998
742.641460	2487.272540
742.970915	2482.876654
743.300323	2479.504122
743.629683	2479.063021
743.958996	2483.801706
744.288260	2479.025213
744.617477	2484.164669
744.946647	2482.642240
745.275768	2486.153404
745.604842	2482.057467
745.933869	2480.227528
746.262847	2480.792137
746.591778	2480.890439
746.920662	2483.968064
747.249498	2480.159472
747.578286	2481.450008
747.907027	2482.241469
748.235720	2483.952940
748.564365	2483.607621
748.892963	2481.172744
749.221514	2481.669298
749.550017	2482.107878
749.878473	2482.911942
750.206881	2482.743063
750.535242	2481.818012
750.863555	2483.829432
751.191821	2480.880357
751.520039	2484.441932
751.848210	2481.754997
752.176334	2481.351705
752.504411	2481.775162
752.832440	2480.081334
753.160421	2477.711992
753.488356	2482.201139
753.816243	2482.337251
754.144082	2482.400265
754.471875	2480.386324
754.799620	2480.434215
755.127318	2480.966057
755.454969	2482.543938
755.782572	2481.886067
756.110129	2484.270533
756.437638	2480.782055
756.765100	2481.460090
757.092515	2482.415388
757.419882	2478.241313
757.747203	2482.911942
758.074477	2482.914463
758.401703	2482.816160
758.728882	2481.470172
759.056014	2483.940337
759.383099	2479.872126
759.710138	2480.444297
760.037129	2477.117136
760.364073	2482.223825
760.690970	2476.343319
761.017820	2482.453197
761.344623	2483.610142
761.671379	2482.914463
761.998088	2483.007724
762.324751	2482.342292
762.651366	2485.450163
762.977935	2488.913436
763.304456	2490.861842
763.630931	2494.436020
763.957359	2494.052892
764.283740	2490.244300
764.610074	2491.141626
764.936362	2487.688435
765.262602	2484.734319
765.588796	2484.666264
765.914943	2482.879175
766.241044	2483.768938
766.567097	2484.230204
766.893104	2479.403299
767.219064	2478.783237
767.544978	2481.202991
767.870845	2479.675521
768.196665	2480.230048
768.522438	2480.988742
768.848165	2480.789616
769.173846	2478.211066
769.499479	2477.028916
769.825066	2480.782055
770.150607	2480.008238
770.476101	2473.643781
770.801548	2478.183340
771.126949	2475.037660
771.452303	2477.225521
771.777611	2477.059162
772.102872	2477.780048
772.428087	2478.049749
772.753256	2478.758031
773.078378	2477.832980
773.403453	2479.302476
773.728482	2478.228710
774.053465	2476.670994
774.378401	2476.124028
774.703291	2475.834162
775.028135	2475.211580
775.352932	2478.422795
775.677683	2475.743421
776.002388	2475.473720
776.327046	2472.738894
776.651658	2476.302989
776.976224	2468.700929
777.300743	2479.952785
777.625216	2476.171919
777.949643	2477.265850
778.274024	2476.335757
778.598359	2478.863896
778.922647	2476.159317
779.246889	2474.334419
779.571086	2476.449183
779.895236	2478.085037
780.219339	2475.647639
780.543397	2473.646301
780.867409	2477.661580
781.191374	2477.190233
781.515294	2477.154944
781.839167	2477.535552
782.162995	2478.319451
782.486776	2476.587815
782.810511	2475.675366
783.134201	2477.656539
783.457844	2475.214100
783.781441	2478.064873
784.104993	2474.669656
784.428498	2476.885243
784.751958	2475.196456
785.075372	2476.391210
785.398739	2476.116467
785.722061	2477.343988
786.045337	2474.518421
786.368568	2475.635037
786.691752	2474.510859
787.014891	2477.419605
787.337983	2475.632516
787.661030	2476.209728
787.984031	2477.026395
788.306987	2479.158803
788.629897	2477.091930
788.952760	2479.340285
789.275579	2477.273412
789.598351	2479.438587
789.921078	2477.374235
790.243759	2478.848772
790.566395	2477.260809
790.888984	2475.352732
791.211529	2476.676035
791.534027	2476.504636
791.856480	2476.739049
792.178888	2474.967084
792.501249	2471.352576
792.823566	2473.114460
793.145836	2471.720581
793.468062	2477.588484
793.790241	2474.082361
794.112375	2475.839203
794.434464	2473.338791
794.756507	2475.362814
795.078505	2473.638740
795.400457	2476.761734
795.722364	2476.471868
796.044226	2477.409523
796.366042	2472.791826
796.687812	2478.087558
797.009538	2475.352732
797.331218	2474.982207
797.652852	2474.954481
797.974442	2473.895838
798.295986	2476.643267
798.617484	2478.039667
798.938938	2478.175778
799.260346	2476.698720
799.581709	2476.633185
799.903026	2480.409009
800.224299	2477.364152
800.545526	2478.624441
800.866708	2475.856847
801.187845	2475.554378
801.508936	2476.688638
801.829983	2474.057155
802.150984	2473.308544
802.471940	2477.893473
802.792851	2475.635037
803.113717	2474.404995
803.434538	2473.893318
803.755314	2479.120994
804.076045	2474.657053
804.396731	2476.640747
804.717372	2474.901549
805.037967	2474.344501
805.358518	2471.342494
805.679024	2476.517238
805.999485	2474.904069
806.319901	2475.927423
806.640272	2473.185036
806.960598	2473.613534
807.280879	2476.038329
807.601115	2477.525469
807.921306	2473.401805
808.241453	2472.312916
808.561554	2471.324850
808.881611	2473.492546
809.201623	2470.233440
809.521590	2477.374235
809.841513	2475.191415
810.161390	2475.314923
810.481223	2473.011116
810.801011	2476.182002
811.120755	2475.030098
811.440453	2476.794502
811.760107	2473.467340
812.079716	2476.456745
812.399281	2474.047073
812.718801	2472.789305
813.038276	2475.766107
813.357707	2472.577577
813.677093	2476.839872
813.996434	2476.764255
814.315731	2477.364152
814.634983	2471.571867
814.954191	2474.485653
815.273354	2476.295428
815.592473	2473.381641
815.911547	2477.061683
816.230577	2474.563791
816.549562	2474.682258
816.868502	2475.750983
817.187399	2475.836683
817.506250	2475.667804
817.825058	2473.061527
818.143821	2477.124698
818.462539	2476.232413
818.781213	2477.911118
819.099843	2478.392548
819.418429	2478.558906
819.736970	2480.512353
820.055466	2479.315079
820.373919	2483.164000
820.692327	2484.353712
821.010691	2488.641213
821.329011	2495.635814
821.647286	2510.464368
821.965517	2527.256452
822.283704	2537.696682
822.601847	2547.007693
822.919945	2541.265818
823.237999	2533.131917
823.556010	2525.446678
823.873976	2517.834535
824.191897	2508.662156
824.509775	2499.527585
824.827609	2496.679333
825.145398	2490.045175
825.463144	2494.872080
825.780845	2493.561380
826.098502	2495.242604
826.416116	2500.697133
826.733685	2501.138234
827.051210	2502.186794
827.368692	2501.332318
827.686129	2501.944818
828.003522	2493.289157
828.320872	2489.725062
828.638177	2486.778507
828.955439	2489.417551
829.272656	2484.953609
829.589830	2480.262816
829.906960	2481.593680
830.224046	2480.658546
830.541088	2478.493371
830.858086	2476.199646
831.175041	2475.503967
831.491952	2478.274081
831.808819	2472.743935
832.125642	2477.510346
832.442421	2477.603607
832.759157	2477.744759
833.075849	2483.116109
833.392497	2484.399082
833.709101	2486.665081
834.025662	2485.493013
834.342179	2487.380925
834.658653	2486.750781
834.975083	2482.168372
835.291469	2485.523260
835.607811	2479.342805
835.924110	2477.772486
836.240366	2476.726446
836.556578	2476.302989
836.872746	2477.701910
837.188871	2476.597897
837.504952	2474.808287
837.820990	2474.470530
838.136984	2476.469347
838.452935	2473.182515
838.768842	2475.904738
839.084706	2470.795529
839.400526	2473.946250
839.716303	2477.485140
840.032037	2476.134111
840.347727	2471.778554
840.663373	2476.721405
840.978977	2470.389716
841.294537	2474.392392
841.610054	2474.611682
841.925527	2477.739718
842.240957	2476.565129
842.556344	2472.885087
842.871687	2472.055817
843.186987	2472.857361
843.502244	2471.662607
843.817458	2473.215283
844.132629	2472.985910
844.447756	2472.391054
844.762840	2471.854171
845.077881	2472.446507
845.392879	2471.009778
845.707833	2471.770992
846.022745	2470.661938
846.337613	2471.382823
846.652438	2472.759058
846.967221	2472.282669
847.281960	2471.309727
847.596656	2468.791670
847.911309	2471.060189
848.225919	2471.831486
848.540485	2470.646815
848.855009	2471.965077
849.169490	2469.988944
849.483928	2468.988275
849.798323	2469.068934
850.112675	2469.704119
850.426984	2471.135807
850.741251	2472.186887
851.055474	2468.353090
851.369654	2472.350725
851.683792	2469.363841
851.997887	2470.452730
852.311938	2472.489357
852.625947	2470.939202
852.939914	2471.047587
853.253837	2473.225365
853.567718	2470.891311
853.881555	2470.949284
854.195350	2471.488688
854.509103	2471.667648
854.822812	2472.265025
855.136479	2471.463482
855.450103	2472.781743
855.763685	2469.028604
856.077224	2467.042390
856.390720	2469.056331
856.704173	2467.864098
857.017584	2470.384675
857.330953	2470.528348
857.644278	2470.707309
857.957561	2470.891311
858.270802	2470.301496
858.584000	2469.681434
858.897155	2473.288379
859.210268	2469.320991
859.523339	2468.937864
859.836367	2472.005406
860.149352	2469.404170
860.462295	2469.003399
860.775195	2472.033132
861.088054	2469.159674
861.400869	2470.558595
861.713642	2472.862402
862.026373	2470.367031
862.339062	2470.508183
862.651708	2470.689665
862.964312	2472.040694
863.276873	2472.766620
863.589392	2470.740076
863.901869	2472.438945
864.214303	2470.750158
864.526696	2471.299644
864.839045	2469.744448
865.151353	2470.356948
865.463619	2470.288893
865.775842	2469.678913
866.088023	2470.031794
866.400162	2471.922227
866.712258	2470.465333
867.024313	2469.537761
867.336325	2472.141517
867.648296	2470.566156
867.960224	2470.218317
868.272110	2470.183029
868.583954	2468.978193
868.895755	2471.166054
869.207515	2473.149748
869.519233	2472.252422
869.830909	2471.133286
870.142542	2471.183698
870.454134	2474.057155
870.765684	2471.113122
871.077191	2471.148410
871.388657	2472.121352
871.700081	2470.949284
872.011463	2467.891824
872.322803	2468.247226
872.634101	2470.588842
872.945357	2470.586321
873.256571	2475.231744
873.567744	2472.297793
873.878874	2472.287710
874.189963	2474.110087
874.501010	2472.544809
874.812015	2473.003554
875.122979	2470.631691
875.433900	2474.813328
875.744780	2471.702937
876.055618	2473.832824
876.366415	2473.253091
876.677169	2470.051959
876.987882	2474.520942
877.298554	2472.398616
877.609183	2472.973307
877.919771	2470.447689
878.230317	2473.376600
878.540822	2472.940540
878.851285	2472.822073
879.161707	2473.858030
879.472087	2475.607310
879.782425	2477.407002
880.092722	2482.977477
880.402977	2483.161479
880.713191	2490.549290
881.023363	2497.647235
881.333494	2505.902124
881.643583	2508.024450
881.953631	2504.581342
882.263637	2503.598317
882.573602	2500.392143
882.883526	2501.128152
883.193408	2493.952069
883.503248	2491.955772
883.813048	2494.592296
884.122806	2489.798158
884.432522	2486.476038
884.742197	2483.358084
885.051831	2481.518063
885.361424	2480.925727
885.670975	2477.888432
885.980485	2478.193422
886.289954	2476.854996
886.599382	2474.906590
886.908768	2471.617237
887.218113	2470.762761
887.527417	2470.795529
887.836680	2468.436269
888.145901	2473.951291
888.455082	2473.001034
888.764221	2476.015644
889.073319	2469.464664
889.382376	2472.202011
889.691392	2473.215283
890.000366	2471.559264
890.309300	2473.081692
890.618193	2473.621096
890.927044	2471.828965
891.235855	2473.658904
891.544625	2472.643112
891.853353	2471.080354
892.162041	2469.202524
892.470687	2474.319295
892.779293	2471.045066
893.087858	2472.990951
893.396381	2475.753504
893.704864	2474.957001
894.013306	2478.833649
894.321707	2478.561426
894.630068	2481.276088
894.938387	2479.998155
895.246665	2481.828094
895.554903	2482.120481
895.863100	2480.832466
896.171256	2475.919862
896.479371	2476.791981
896.787446	2477.467496
897.095480	2474.629326
897.403473	2476.222331
897.711425	2475.299800
898.019336	2474.720067
898.327207	2473.517752
898.635038	2474.271404
898.942827	2471.617237
899.250576	2473.812659
899.558284	2470.397278
899.865952	2471.599593
900.173579	2472.038173
900.481165	2472.045735
900.788711	2468.511886
901.096216	2471.536578
901.403681	2470.868626
901.711105	2470.644294
902.018489	2470.488018
902.325832	2470.293934
902.633135	2466.240846
902.940397	2467.982565
903.247619	2468.254787
903.554800	2473.792495
903.861941	2476.673514
904.169041	2481.250882
904.476101	2483.610142
904.783121	2481.749956
905.090100	2481.913794
905.397039	2482.622076
905.703938	2477.805253
906.010796	2478.833649
906.317614	2478.868937
906.624391	2476.570171
906.931129	2476.058493
907.237826	2473.492546
907.544483	2475.798874
907.851099	2473.651343
908.157675	2473.631178
908.464211	2470.125055
908.770707	2471.768472
909.077163	2471.385344
909.383578	2471.408029
909.689954	2468.642956
909.996289	2467.173460
910.302584	2469.333594
910.608839	2470.427525
910.915054	2470.951805
911.221229	2467.682616
911.527363	2470.120014
911.833458	2470.752679
912.139513	2470.971969
912.445527	2469.225209
912.751502	2471.304685
913.057436	2470.974490
913.363331	2470.977010
913.669186	2472.063379
913.975000	2473.318626
914.280775	2472.413739
914.586510	2472.340643
914.892205	2473.389203
915.197859	2479.544451
915.503475	2477.013792
915.809050	2482.619555
916.114585	2481.560913
916.420081	2484.048722
916.725536	2481.888588
917.030952	2481.066880
917.336328	2483.136273
917.641665	2478.329533
917.946961	2474.901549
918.252218	2476.527321
918.557435	2471.554222
918.862612	2477.089409
919.167750	2475.884574
919.472848	2475.067907
919.777906	2473.172433
920.082925	2473.041363
920.387904	2474.442804
920.692843	2473.169912
920.997743	2473.003554
921.302603	2474.248719
921.607423	2471.198821
921.912204	2469.890642
922.216946	2470.911475
922.521647	2468.975672
922.826310	2469.948615
923.130932	2470.601444
923.435516	2469.051290
923.740059	2469.641105
924.044564	2467.639767
924.349028	2470.392237
924.653454	2467.760754
924.957840	2468.088429
925.262186	2469.293265
925.566493	2470.220837
925.870761	2469.487349
926.174989	2466.727318
926.479178	2468.668162
926.783328	2467.886783
927.087438	2469.021043
927.391509	2468.287555
927.695541	2467.168419
927.999533	2468.711012
928.303486	2468.758903
928.607400	2471.176136
928.911275	2467.095322
929.215110	2469.353759
929.518906	2468.176649
929.822663	2468.282514
930.126381	2467.412915
930.430060	2467.559108
930.733699	2468.831999
931.037299	2467.357462
931.340861	2466.868470
931.644383	2467.312092
931.947866	2466.495425
932.251309	2466.011474
932.554714	2469.764613
932.858080	2465.426700
933.161407	2463.274127
933.464694	2462.540639
933.767943	2464.978037
934.071153	2465.272945
934.374323	2465.847636
934.677455	2469.900724
934.980548	2468.892493
935.283602	2466.273614
935.586617	2470.112453
935.889593	2468.698409
936.192530	2468.758903
936.495428	2465.807307
936.798287	2468.032977
937.101108	2464.844447
937.403890	2466.727318
937.706632	2468.532051
938.009336	2468.446351
938.312002	2469.835189
938.614628	2467.422997
938.917216	2470.659418
939.219765	2469.003399
939.522275	2468.446351
939.824747	2471.954994
940.127179	2470.805611
940.429573	2469.545323
940.731929	2468.988275
941.034246	2468.955508
941.336524	2469.578090
941.638763	2467.685137
941.940964	2470.334263
942.243126	2466.369396
942.545250	2471.897021
942.847335	2466.974334
943.149381	2472.176805
943.451389	2468.385857
943.753359	2467.995168
944.055290	2466.235805
944.357182	2468.274952
944.659036	2464.753706
944.960851	2468.216979
945.262628	2467.644808
945.564367	2467.120528
945.866067	2467.377627
946.167729	2468.027935
946.469352	2467.932153
946.770937	2465.464509
947.072484	2470.321660
947.373992	2466.901237
947.675462	2466.807976
947.976893	2467.763275
948.278286	2466.250929
948.579641	2462.586010
948.880958	2462.086936
949.182236	2469.436938
949.483476	2467.410394
949.784678	2464.897379
950.085841	2462.863273
950.386967	2467.112966
950.688054	2466.099694
950.989103	2466.394602
951.290114	2469.273100
951.591087	2469.908286
951.892021	2466.208079
952.192917	2467.838892
952.493776	2468.831999
952.794596	2464.373099
953.095378	2465.784622
953.396122	2465.887966
953.696828	2467.508697
953.997496	2468.106073
954.298126	2465.020887
954.598718	2468.665641
954.899272	2466.046762
955.199788	2468.630353
955.500266	2467.085240
955.800706	2468.491722
956.101108	2465.502317
956.401472	2467.788481
956.701798	2466.571042
957.002087	2465.739252
957.302337	2466.558439
957.602550	2467.233954
957.902724	2467.440641
958.202861	2467.087760
958.502960	2465.194807
958.803022	2465.368727
959.103045	2464.617595
959.403031	2464.302523
959.702979	2464.925105
960.002889	2464.524333
960.302762	2465.986268
960.602596	2468.322843
960.902393	2467.251598
961.202153	2465.847636
961.501875	2468.443831
961.801559	2461.050978
962.101205	2466.462657
962.400814	2465.467029
962.700385	2466.830661
962.999918	2465.046093
963.299414	2463.954683
963.598873	2463.692543
963.898293	2463.017028
964.197677	2465.711525
964.497022	2465.993830
964.796331	2463.067440
965.095601	2465.404015
965.394835	2466.132462
965.694030	2467.967442
965.993189	2467.649849
966.292309	2467.120528
966.591393	2465.827472
966.890439	2466.187914
967.189447	2464.453757
967.488419	2465.230095
967.787353	2465.741772
968.086249	2464.983078
968.385108	2462.139868
968.683930	2464.393263
968.982714	2463.674899
969.281462	2464.844447
969.580172	2467.962400
969.878844	2462.951493
970.177480	2467.637246
970.476078	2465.827472
970.774639	2463.291771
971.073162	2465.565332
971.371649	2466.828141
971.670098	2467.478450
971.968510	2465.978706
972.266885	2465.003243
972.565223	2464.547019
972.863524	2464.862091
973.161788	2464.547019
973.460014	2465.073819
973.758204	2466.177832
974.056356	2464.481484
974.354471	2465.746813
974.652550	2467.130610
974.950591	2465.517441
975.248595	2465.696402
975.546563	2467.753193
975.844493	2466.094653
976.142386	2468.809314
976.440243	2465.469550
976.738062	2466.762606
977.035845	2466.054324
977.333590	2465.812348
977.631299	2465.245218
977.928971	2463.498459
978.226606	2462.515434
978.524204	2462.770012
978.821765	2461.877728
979.119290	2465.419138
979.416777	2464.587348
979.714228	2467.904427
980.011642	2467.017184
980.309020	2467.075157
980.606360	2465.724128
980.903664	2466.215641
981.200931	2468.164047
981.498162	2464.577266
981.795356	2463.369909
982.092513	2468.181691
982.389633	2465.015846
982.686717	2468.509366
982.983764	2466.823100
983.280775	2467.233954
983.577749	2466.946608
983.874686	2466.071968
984.171587	2467.478450
984.468451	2466.192955
984.765279	2469.706640
985.062070	2466.873511
985.358824	2467.541464
985.655543	2467.216310
985.952224	2462.212964
986.248869	2465.882924
986.545478	2465.880404
986.842050	2466.417287
987.138586	2464.173973
987.435086	2466.727318
987.731549	2463.526185
988.027975	2464.683130
988.324366	2463.437965
988.620719	2465.162039
988.917037	2467.549026
989.213318	2463.558953
989.509563	2465.893007
989.805772	2465.426700
990.101944	2463.828654
990.398080	2466.530713
990.694180	2465.056175
990.990244	2465.444344
991.286271	2464.604992
991.582262	2464.307564
991.878217	2464.350414
992.174136	2467.342338
992.470019	2465.071299
992.765865	2465.099025
993.061676	2459.795731
993.357450	2461.933180
993.653188	2456.700463
993.948890	2465.255301
994.244556	2464.668006
994.540186	2464.191617
994.835780	2464.814200
995.131337	2465.409056
995.426859	2466.301340
995.722345	2464.952832
996.017795	2464.070630
996.313208	2469.822586
996.608586	2464.788994
996.903928	2465.530044
997.199234	2464.617595
997.494504	2463.437965
997.789738	2464.206741
998.084936	2466.124900
998.380099	2466.792853
998.675225	2467.044910
998.970316	2463.316977
999.265371	2466.422328
999.560390	2467.004581
999.855373	2467.813686
1000.150320	2465.441823
1000.445232	2465.961062
1000.740108	2464.214302
1001.034948	2466.591207
1001.329752	2464.718418
1001.624521	2465.386371
1001.919254	2462.424693
1002.213951	2465.358644
1002.508613	2463.412759
1002.803239	2466.089612
1003.097829	2462.535598
1003.392384	2463.478294
1003.686903	2463.957204
1003.981386	2467.513738
1004.275834	2465.277986
1004.570246	2465.865280
1004.864623	2461.850001
1005.158964	2466.197997
1005.453270	2463.339662
1005.747540	2465.756896
1006.041775	2463.465691
1006.335974	2465.008284
1006.630138	2464.582307
1006.924266	2464.942749
1007.218359	2464.897379
1007.512416	2460.803962
1007.806438	2462.812862
1008.100425	2463.130454
1008.394376	2457.938066
1008.688292	2464.922585
1008.982172	2463.659776
1009.276017	2466.530713
1009.569827	2462.956535
1009.863602	2462.911164
1010.157341	2464.242029
1010.451045	2463.523664
1010.744714	2464.005095
1011.038347	2464.481484
1011.331945	2465.257821
1011.625508	2464.083232
1011.919036	2466.581124
1012.212528	2464.670527
1012.505986	2464.947790
1012.799408	2465.638428
1013.092795	2465.875363
1013.386147	2462.770012
1013.679464	2463.616926
1013.972745	2463.861422
1014.265992	2464.839406
1014.559204	2468.499283
1014.852380	2463.921916
1015.145521	2463.755558
1015.438628	2461.792028
1015.731699	2465.469550
1016.024736	2463.022070
1016.317737	2466.220682
1016.610703	2465.114148
1016.903635	2464.683130
1017.196531	2464.352934
1017.489393	2466.533233
1017.782219	2463.672378
1018.075011	2463.851339
1018.367768	2464.894858
1018.660490	2462.480146
1018.953177	2462.480146
1019.245829	2462.480146
