Dividing Wavelength (nm)	Counts (n)	Blue Motor Position (mm): 0.000000	Red Motor Position (mm): 26.000000	
326.493990	2049.287012
326.888308	2049.287012
327.282561	2049.287012
327.676750	2026.473270
328.070874	2029.941584
328.464933	2031.549712
328.858929	2039.292924
329.252859	2053.128371
329.646726	2064.576831
330.040528	2083.055181
330.434265	2098.526482
330.827938	2120.142950
331.221547	2139.596762
331.615091	2157.739875
332.008571	2181.876920
332.401986	2201.522296
332.795338	2219.877137
333.188625	2241.944788
333.581847	2261.081008
333.975006	2276.582556
334.368100	2293.276337
334.761129	2310.259985
335.154095	2324.387818
335.546996	2345.553103
335.939833	2363.267717
336.332606	2376.503267
336.725315	2384.523742
337.117960	2396.289796
337.510540	2407.221538
337.903056	2416.792168
338.295508	2424.888261
338.687896	2430.521751
339.080220	2436.220775
339.472480	2440.455344
339.864676	2444.515994
340.256807	2447.429781
340.648875	2449.320213
341.040879	2449.395831
341.432818	2453.126285
341.824694	2451.888681
342.216506	2451.419854
342.608253	2455.659464
342.999937	2451.651747
343.391557	2451.888681
343.783113	2449.002621
344.174605	2450.051181
344.566033	2448.468258
344.957397	2448.014555
345.348697	2446.918104
345.739934	2441.176229
346.131106	2442.567588
346.522215	2440.725046
346.913260	2438.204469
347.304241	2435.371341
347.695159	2432.780188
348.086012	2436.208172
348.476802	2429.039652
348.867528	2427.449167
349.258191	2422.765936
349.648789	2423.413724
350.039324	2422.108065
350.429796	2424.968920
350.820203	2425.286513
351.210548	2424.948755
351.600828	2421.709814
351.991045	2422.768456
352.381198	2423.270051
352.771288	2423.441450
353.161314	2422.080339
353.551276	2423.539753
353.941175	2422.861717
354.331010	2422.922211
354.720782	2421.863569
355.110490	2424.051430
355.500135	2423.653179
355.889717	2424.439599
356.279235	2425.067222
356.668689	2424.432037
357.058080	2425.994795
357.447408	2422.871800
357.836672	2427.101328
358.225873	2424.724424
358.615010	2425.659558
359.004084	2426.352717
359.393095	2426.975299
359.782043	2427.827254
360.170927	2427.000505
360.559748	2429.016966
360.948505	2430.088212
361.337199	2431.678696
361.725830	2429.793304
362.114398	2432.949066
362.502903	2431.358582
362.891344	2433.622060
363.279722	2432.354210
363.668037	2432.951587
364.056289	2434.418563
364.444478	2434.947884
364.832603	2435.565425
365.220665	2438.786722
365.608665	2434.698347
365.996601	2436.992072
366.384474	2434.668100
366.772284	2435.704057
367.160031	2438.239757
367.547715	2438.338060
367.935336	2436.296392
368.322893	2436.762699
368.710388	2435.147009
369.097820	2434.418563
369.485189	2435.257915
369.872495	2441.405602
370.259738	2441.677824
370.646918	2442.749069
371.034035	2442.481888
371.421090	2443.530448
371.808081	2446.895418
372.195010	2448.221242
372.581875	2445.050356
372.968678	2448.067487
373.355418	2447.084462
373.742096	2451.359360
374.128710	2453.607715
374.515262	2455.188117
374.901751	2455.909002
375.288177	2463.952163
375.674540	2466.578604
376.060841	2467.680096
376.447079	2471.957515
376.833254	2479.057980
377.219367	2481.916314
377.605417	2488.704228
377.991404	2490.776142
378.377329	2502.673265
378.763191	2506.164264
379.148991	2516.266737
379.534727	2525.575227
379.920402	2534.467823
380.306013	2542.997455
380.691563	2556.507747
381.077049	2567.341187
381.462474	2577.962898
381.847835	2590.132243
382.233134	2604.796960
382.618371	2616.424381
383.003545	2632.523306
383.388657	2648.539052
383.773706	2665.822648
384.158693	2681.039371
384.543618	2695.832637
384.928480	2710.275542
385.313280	2734.621795
385.698017	2753.982346
386.082692	2774.595624
386.467305	2791.758232
386.851856	2814.771100
387.236344	2843.152796
387.620770	2860.262472
388.005133	2879.643188
388.389435	2914.984197
388.773674	2930.016918
389.157851	2962.222329
389.541965	2984.307624
389.926018	3000.580469
390.310008	3032.228833
390.693936	3057.248079
391.077802	3085.763366
391.461606	3118.992132
391.845348	3134.654997
392.229027	3163.233298
392.612645	3206.012529
392.996200	3233.312898
393.379694	3272.984258
393.763125	3315.662667
394.146494	3338.332735
394.529801	3377.749517
394.913047	3421.189140
395.296230	3427.054523
395.679351	3452.673666
396.062410	3501.575379
396.445408	3479.830362
396.828343	3520.348636
397.211217	3554.870458
397.594028	3526.584543
397.976778	3577.376689
398.359466	3608.737707
398.742092	3621.721199
399.124656	3636.295175
399.507158	3694.417158
399.889598	3699.531408
400.271977	3766.210750
400.654294	3754.981580
401.036549	3813.153975
401.418742	3811.276145
401.800874	3882.056466
402.182944	3908.830034
402.564952	3995.343796
402.946898	3989.579236
403.328783	3984.845593
403.710606	4033.258314
404.092367	4104.822534
404.474067	4169.371988
404.855705	4152.005213
405.237282	4126.333137
405.618797	4220.166654
406.000250	4296.063746
406.381642	4384.646901
406.762972	4382.958115
407.144240	4352.451572
407.525447	4416.436417
407.906593	4433.483079
408.287677	4518.073641
408.668700	4540.244635
409.049661	4582.136624
409.430560	4618.659783
409.811399	4597.428964
410.192176	4654.898118
410.572891	4729.353440
410.953545	4844.014484
411.334138	4736.315273
411.714669	4845.531871
412.095139	4762.433491
412.475547	4872.706211
412.855894	4881.591245
413.236180	4977.647911
413.616405	4903.444647
413.996568	5009.258466
414.376670	5011.085884
414.756711	5005.931304
415.136691	5077.770267
415.516609	5162.501981
415.896466	5199.330130
416.276262	5275.358292
416.655997	5387.234099
417.035670	5484.051979
417.415283	5624.904338
417.794834	5696.024937
418.174324	5656.666128
418.553753	5661.626623
418.933121	5827.548640
419.312428	5840.239745
419.691674	5761.557416
420.070859	5992.207848
420.449983	5867.156986
420.829045	6065.135701
421.208047	5986.143340
421.586988	6148.934801
421.965867	6221.839968
422.344686	6298.362163
422.723444	6470.341126
423.102141	6086.457261
423.480777	6476.559389
423.859352	6289.252798
424.237866	6658.497152
424.616319	6649.629763
424.994712	6818.994888
425.373044	6734.157310
425.751314	7049.405866
426.129524	6767.446569
426.507673	7029.662187
426.885762	7077.843014
427.263789	7121.189376
427.641756	7198.344235
428.019662	7285.253728
428.397508	7327.075140
428.775292	7306.454300
429.153016	7480.502657
429.530679	7406.246461
429.908282	7453.585416
430.285824	7397.469812
430.663305	7683.217536
431.040726	7564.662200
431.418086	7569.279897
431.795385	7702.068931
432.172624	7893.801655
432.549802	7775.561392
432.926920	7905.620641
433.303977	7847.395314
433.680974	7889.705718
434.057910	8092.637366
434.434786	8142.927917
434.811601	8097.285310
435.188355	8433.527751
435.565050	8326.297367
435.941683	8334.529572
436.318257	8671.513062
436.694770	8620.529353
437.071222	8855.061474
437.447614	8623.468345
437.823946	8589.264117
438.200218	8745.570133
438.576429	8617.141697
438.952580	8789.619735
439.328670	8793.158625
439.704700	8865.017752
440.080670	8757.696628
440.456580	9027.257207
440.832429	8999.344338
441.208218	8739.828258
441.583947	8848.538221
441.959616	8971.597827
442.335224	9004.161160
442.710773	9079.334847
443.086261	9256.818750
443.461689	8965.649266
443.837057	9136.967838
444.212365	9351.731074
444.587612	9325.506992
444.962800	9214.306700
445.337927	9342.536009
445.712995	8879.445535
446.088002	9542.465650
446.462949	9593.126726
446.837837	9567.142098
447.212664	9578.837575
447.587431	10383.375482
447.962139	11364.971315
448.336786	12272.802464
448.711374	12055.377499
449.085901	10855.832421
449.460369	10768.567527
449.834776	10520.807418
450.209124	11401.441543
450.583412	11197.194153
450.957640	11480.101187
451.331808	11065.415871
451.705917	10481.105811
452.079965	10347.308547
452.453954	10510.223516
452.827883	10425.685887
453.201752	10367.463080
453.575562	10342.390902
453.949311	10635.907043
454.323001	10654.705506
454.696632	10537.352485
455.070202	11046.824096
455.443713	11055.068903
455.817164	11164.409009
456.190556	11404.816595
456.563888	11236.240411
456.937160	11430.460945
457.310373	10913.979610
457.683526	10871.596109
458.056619	10829.293266
458.429653	10826.941568
458.802628	10891.843903
459.175542	10874.472087
459.548398	11267.228383
459.921194	11668.962974
460.293930	11831.870382
460.666607	12472.369142
461.039224	13074.729054
461.411782	13291.551601
461.784280	12929.609358
462.156719	12795.849902
462.529099	12636.365439
462.901419	12018.317457
463.273680	11617.926333
463.645882	11685.772702
464.018024	11494.549134
464.390106	11671.924652
464.762130	12366.068852
465.134094	13397.088157
465.505999	14925.878555
465.877845	16456.934951
466.249631	17263.144000
466.621358	16807.632901
466.993026	16089.223107
467.364634	15404.400001
467.736184	14685.125650
468.107674	14109.009985
468.479105	13862.278272
468.850477	13548.158935
469.221790	13120.646403
469.593043	12541.306921
469.964238	12158.368272
470.335373	12047.115048
470.706449	12344.412055
471.077467	12724.600754
471.448425	14068.602617
471.819324	15042.200659
472.190164	14859.529408
472.560945	13710.852093
472.931667	12625.476546
473.302330	12271.925304
473.672934	11828.170175
474.043479	11906.781928
474.413965	11656.039977
474.784393	11425.056828
475.154761	11630.279680
475.525070	11569.644682
475.895321	11342.419713
476.265513	11460.012189
476.635645	11613.802669
477.005719	11512.896413
477.375734	11535.667305
477.745691	11684.741786
478.115588	11821.319247
478.485427	12196.323119
478.855207	12851.526926
479.224928	13494.266480
479.594591	13940.373307
479.964194	13625.830513
480.333739	13632.389054
480.703226	13531.268549
481.072653	13509.833563
481.442022	13530.351059
481.811333	13503.877439
482.180584	13154.868276
482.549777	12864.109646
482.918912	12577.590626
483.287988	12366.162113
483.657005	12137.933955
484.025964	11836.833397
484.394864	11716.803524
484.763706	11522.910665
485.132489	11175.713797
485.501213	11022.621516
485.869879	10907.327807
486.238487	10725.770652
486.607036	10643.657817
486.975527	10384.681141
487.343959	10317.996758
487.712333	10257.560885
488.080648	10083.303320
488.448905	10037.189365
488.817104	9846.482515
489.185244	9893.607222
489.553326	9964.495927
489.921350	10262.102965
490.289315	10700.350633
490.657222	10746.653631
491.025070	10704.864987
491.392861	10462.640065
491.760593	10104.667730
492.128267	9703.943890
492.495883	9314.668511
492.863440	8948.721071
493.230939	8587.834949
493.598380	8314.375038
493.965763	8121.795400
494.333088	7885.902167
494.700354	7695.729680
495.067563	7541.233438
495.434713	7375.036678
495.801805	7275.730988
496.168839	7117.360619
496.535815	6952.608150
496.902733	6838.725964
497.269593	6683.579413
497.636395	6573.352064
498.003139	6481.429144
498.369825	6322.713456
498.736453	6247.862404
499.103023	6108.424089
499.469535	6000.994580
499.835989	5894.076748
500.202385	5758.973825
500.568723	5647.206403
500.935003	5564.954937
501.301226	5447.463284
501.667390	5406.176234
502.033497	5325.293442
502.399546	5203.355492
502.765537	5064.630500
503.131470	4997.434439
503.497345	4940.285399
503.863163	4761.435343
504.228923	4725.640630
504.594625	4666.016383
504.960269	4547.874422
505.325856	4497.788038
505.691385	4398.835229
506.056856	4338.210313
506.422270	4287.632416
506.787625	4185.586859
507.152924	4135.661792
507.518164	4074.631063
507.883347	3988.175275
508.248472	3930.847273
508.613540	3894.624062
508.978550	3843.526927
509.343503	3778.377575
509.708398	3733.652458
510.073236	3696.879762
510.438016	3655.411230
510.802738	3591.189451
511.167403	3557.222156
511.532010	3521.636651
511.896561	3494.174965
512.261053	3467.507262
512.625488	3424.279367
512.989866	3381.497615
513.354186	3346.678366
513.718449	3308.902479
514.082655	3295.036786
514.446803	3259.761312
514.810894	3241.464444
515.174927	3214.491750
515.538904	3186.485620
515.902822	3173.446675
516.266684	3146.363076
516.630488	3127.962865
516.994235	3103.321705
517.357925	3095.066815
517.721558	3080.712130
518.085133	3064.991292
518.448651	3048.771379
518.812112	3031.497865
519.175516	3020.692152
519.538863	3009.354597
519.902152	2997.986795
520.265385	2993.923625
520.628560	2981.325782
520.991678	2967.996971
521.354739	2958.438943
521.717743	2950.879733
522.080690	2943.161727
522.443580	2942.791202
522.806413	2932.487083
523.169189	2923.407965
523.531908	2918.548293
523.894569	2909.494381
524.257174	2899.659089
524.619722	2897.619943
524.982213	2893.912174
525.344647	2883.456821
525.707025	2880.969012
526.069345	2876.318547
526.431608	2870.233874
526.793815	2866.019470
527.155964	2858.230887
527.518057	2853.555217
527.880093	2849.665967
528.242072	2845.741428
528.603995	2838.860253
528.965860	2834.373627
529.327669	2827.764674
529.689421	2824.838284
530.051117	2822.327789
530.412755	2819.960968
530.774337	2815.794454
531.135862	2808.560398
531.497331	2805.971766
531.858743	2801.122176
532.220098	2803.718370
532.581396	2795.544139
532.942638	2789.159518
533.303824	2787.072480
533.664953	2786.245731
534.026025	2779.525873
534.387040	2779.571243
534.747999	2776.735594
535.108902	2775.649225
535.469748	2764.173039
535.830537	2765.672782
536.191270	2761.783532
536.551947	2759.572986
536.912567	2754.856986
537.273131	2752.802716
537.633638	2747.224679
537.994089	2750.380442
538.354483	2746.319792
538.714821	2748.144690
539.075103	2748.426995
539.435328	2743.355594
539.795497	2739.844430
540.155609	2737.752351
540.515665	2736.043400
540.875665	2729.966289
541.235609	2733.621126
541.595496	2730.523337
541.955328	2732.754047
542.315102	2726.669375
542.674821	2725.885475
543.034483	2724.189127
543.394090	2720.335165
543.753640	2721.595453
544.113134	2724.413458
544.472571	2716.841645
544.831953	2721.116544
545.191278	2716.342571
545.550548	2710.232693
545.909761	2713.537169
546.268918	2713.688403
546.628019	2712.521376
546.987064	2708.362424
547.346053	2702.557536
547.704986	2706.219934
548.063863	2706.971066
548.422684	2702.605427
548.781449	2698.567462
549.140158	2698.693491
549.498811	2699.240457
549.857408	2692.465146
550.215949	2695.358768
550.574434	2696.951773
550.932864	2694.325332
551.291237	2696.067050
551.649555	2697.314736
552.007817	2693.168387
552.366022	2691.945907
552.724173	2691.482121
553.082267	2693.327183
553.440305	2692.172759
553.798288	2687.688652
554.156215	2689.740402
554.514086	2685.926769
554.871902	2682.183712
555.229661	2683.386028
555.587365	2679.383352
555.945014	2685.221008
556.302606	2681.372087
556.660143	2684.449711
557.017625	2682.967612
557.375050	2685.495751
557.732421	2681.906449
558.089735	2682.985256
558.446994	2682.453414
558.804197	2682.720595
559.161345	2683.983404
559.518437	2681.858558
559.875474	2678.423012
560.232455	2681.896367
560.589381	2679.605162
560.946251	2677.399657
561.303065	2678.899401
561.659825	2677.293793
562.016528	2678.322189
562.373177	2672.058555
562.729770	2680.310924
563.086307	2673.492763
563.442789	2675.839420
563.799216	2677.873526
564.155587	2677.419822
564.511904	2670.223575
564.868164	2673.354132
565.224370	2673.369255
565.580520	2672.171981
565.936615	2675.221879
566.292654	2673.427228
566.648638	2676.285562
567.004567	2672.028308
567.360441	2673.480160
567.716260	2670.765499
568.072023	2674.054852
568.427732	2674.412774
568.783385	2671.105777
569.138982	2672.706343
569.494525	2672.812207
569.850013	2670.702485
570.205445	2669.724501
570.560823	2669.742145
570.916145	2668.413801
571.271412	2668.479336
571.626625	2668.416321
571.981782	2668.091167
572.336884	2662.888696
572.691931	2666.450271
573.046923	2663.642349
573.401860	2664.942966
573.756743	2661.888027
574.111570	2665.512617
574.466342	2666.004129
574.821059	2665.845333
575.175722	2663.798624
575.530330	2664.481701
575.884882	2663.317194
576.239380	2661.189827
576.593823	2664.020435
576.948211	2663.949859
577.302544	2660.264776
577.656823	2659.339724
578.011047	2660.093376
578.365216	2660.352996
578.719330	2657.172028
579.073389	2658.376863
579.427394	2660.736123
579.781344	2657.303098
580.135239	2658.936432
580.489080	2657.222439
580.842866	2655.379897
581.196597	2656.705721
581.550273	2658.139929
581.903895	2655.347130
582.257463	2656.872079
582.610975	2656.874600
582.964434	2655.997439
583.317837	2653.088693
583.671186	2652.960144
584.024481	2653.570123
584.377721	2652.884526
584.730906	2655.531132
585.084037	2654.573313
585.437113	2650.989052
585.790135	2654.328817
586.143103	2650.676501
586.496016	2650.779845
586.848874	2651.407468
587.201679	2652.347643
587.554428	2651.606594
587.907124	2654.091883
588.259765	2648.944865
588.612352	2649.764052
588.964884	2648.140801
589.317362	2650.850421
589.669786	2649.547282
590.022155	2645.900008
590.374470	2647.205667
590.726731	2646.046201
591.078937	2641.002527
591.431090	2646.416726
591.783188	2643.881026
592.135232	2644.632157
592.487222	2645.249699
592.839157	2645.330357
593.191038	2644.422950
593.542866	2642.711478
593.894639	2640.793319
594.246358	2642.187198
594.598022	2643.089564
594.949633	2639.661580
595.301190	2640.339615
595.652692	2641.541930
596.004141	2642.159472
596.355535	2639.298617
596.706876	2635.205200
597.058162	2633.317288
597.409395	2638.988586
597.760573	2641.047897
598.111698	2636.644449
598.462768	2636.263842
598.813785	2637.332567
599.164748	2633.415590
599.515657	2635.109418
599.866511	2632.636732
600.217312	2635.769809
600.568060	2629.770836
600.918753	2636.228554
601.269392	2636.258801
601.619978	2635.399284
601.970510	2634.897689
602.320988	2633.362658
602.671412	2635.124541
603.021783	2633.229067
603.372100	2632.540950
603.722363	2633.672689
604.072572	2634.726290
604.422728	2633.251753
604.772830	2631.688995
605.122878	2633.173615
605.472872	2632.848460
605.822813	2634.214613
606.172701	2632.664458
606.522534	2632.863584
606.872314	2635.381640
607.222041	2631.573048
607.571714	2630.809314
607.921333	2627.061216
608.270899	2628.109776
608.620411	2629.624642
608.969870	2631.845271
609.319276	2633.450878
609.668627	2634.133955
610.017926	2634.847278
610.367171	2634.801908
610.716362	2634.769140
611.065500	2633.539098
611.414585	2631.799900
611.763616	2637.077988
612.112594	2635.747124
612.461518	2635.648821
612.810389	2635.676548
613.159207	2635.369037
613.507971	2633.922226
613.856682	2635.459778
614.205340	2635.248050
614.553945	2637.382978
614.902496	2636.142854
615.250994	2635.472381
615.599439	2637.100674
615.947830	2637.768627
616.296169	2639.780047
616.644454	2636.735190
616.992686	2638.678555
617.340864	2641.047897
617.688990	2638.068575
618.037063	2639.336425
618.385082	2638.418935
618.733048	2643.008906
619.080961	2637.267032
619.428821	2639.482619
619.776628	2639.860705
620.124382	2639.696868
620.472083	2639.885911
620.819731	2640.269039
621.167326	2636.410036
621.514868	2638.499594
621.862357	2636.231075
622.209793	2638.290386
622.557176	2636.843575
622.904506	2632.251084
623.251783	2633.347535
623.599007	2627.850156
623.946179	2630.310239
624.293297	2629.780918
624.640363	2625.551390
624.987376	2624.144908
625.334336	2622.093159
625.681243	2621.926801
626.028097	2620.621142
626.374899	2624.308746
626.721647	2621.190792
627.068343	2623.255145
627.414987	2624.457460
627.761577	2621.117695
628.108115	2621.984774
628.454600	2618.067797
628.801032	2617.150307
629.147412	2618.909670
629.493739	2618.627365
629.840014	2616.696603
630.186236	2616.074021
630.532405	2617.525873
630.878521	2617.238527
631.224585	2617.205760
631.570597	2615.365739
631.916556	2617.031840
632.262462	2614.690224
632.608316	2613.308948
632.954117	2615.285080
633.299866	2614.206273
633.645562	2615.965636
633.991206	2615.075872
634.336797	2607.708226
634.682336	2607.433483
635.027823	2609.954060
635.373257	2605.618668
635.718639	2606.155551
636.063968	2609.404574
636.409245	2606.246292
636.754470	2606.382403
637.099642	2602.536002
637.444762	2601.648759
637.789829	2600.290168
638.134845	2601.066506
638.479808	2602.266301
638.824719	2601.631115
639.169577	2600.622884
639.514383	2599.097935
639.859137	2598.402256
640.203839	2599.929726
640.548489	2596.554673
640.893086	2597.368820
641.237632	2598.296392
641.582125	2594.482759
641.926566	2595.574169
642.270955	2592.723396
642.615292	2590.603591
642.959576	2591.669795
643.303809	2588.887078
643.647990	2593.663572
643.992118	2594.205496
644.336195	2594.132399
644.680219	2594.618870
645.024192	2593.824888
645.368112	2596.191710
645.711981	2593.706421
646.055797	2598.303954
646.399562	2598.956783
646.743274	2600.363265
647.086935	2602.094901
647.430544	2601.994078
647.774101	2599.720518
648.117606	2603.965169
648.461059	2603.957608
648.804460	2607.007506
649.147810	2599.521392
649.491108	2598.840837
649.834354	2598.530806
650.177548	2595.425455
650.520690	2594.951586
650.863781	2597.031062
651.206820	2594.495362
651.549807	2593.255238
651.892742	2590.671647
652.235626	2590.621235
652.578458	2589.421441
652.921238	2589.159301
653.263967	2591.077460
653.606644	2587.394897
653.949269	2586.593353
654.291843	2586.699217
654.634365	2584.816347
654.976836	2584.536562
655.319255	2586.774835
655.661622	2582.704103
656.003938	2585.176789
656.346203	2584.274422
656.688416	2584.859196
657.030577	2583.263671
657.372687	2584.828949
657.714746	2582.071438
658.056753	2583.629155
658.398708	2582.636047
658.740612	2584.087900
659.082465	2585.166707
659.424266	2582.651171
659.766016	2579.384503
660.107715	2581.789134
660.449362	2578.217476
660.790958	2582.454566
661.132503	2582.739391
661.473996	2583.908939
661.815438	2582.237796
662.156829	2584.198805
662.498168	2585.698548
662.839456	2583.606470
663.180693	2580.929617
663.521879	2580.405337
663.863013	2582.411716
664.204097	2579.797878
664.545129	2584.032447
664.886110	2581.816860
665.227040	2583.404823
665.567918	2582.963722
665.908746	2585.048240
666.249522	2581.650502
666.590248	2587.614187
666.930922	2584.660071
667.271545	2584.569330
667.612118	2585.678384
667.952639	2585.050760
668.293109	2586.757191
668.633528	2584.148394
668.973896	2583.213260
669.314213	2585.461614
669.654480	2582.691500
669.994695	2582.784762
670.334859	2584.329875
670.674973	2581.421129
671.015035	2582.527663
671.355047	2580.969946
671.695008	2583.432550
672.034918	2579.823084
672.374777	2584.362643
672.714585	2584.118147
673.054342	2580.869123
673.394049	2583.485482
673.733705	2584.725606
674.073310	2582.126891
674.412864	2581.932807
674.752368	2581.731160
675.091820	2581.363156
675.431223	2579.112281
675.770574	2583.672005
676.109875	2580.367528
676.449125	2577.836869
676.788324	2576.085068
677.127473	2572.621795
677.466571	2574.144224
677.805619	2575.810325
678.144616	2576.841241
678.483562	2574.159347
678.822458	2574.902918
679.161303	2573.100705
679.500098	2570.229768
679.838842	2569.803790
680.177535	2572.198338
680.516179	2574.585325
680.854771	2574.592887
681.193314	2577.836869
681.531805	2579.787796
681.870247	2579.800398
682.208638	2581.902560
682.546978	2584.970102
682.885268	2588.261975
683.223508	2584.040009
683.561697	2581.975656
683.899836	2582.063877
684.237925	2583.414906
684.575963	2582.257961
684.913951	2577.821746
685.251889	2577.569688
685.589776	2578.706468
685.927614	2579.306365
686.265401	2581.216963
686.603137	2579.694534
686.940824	2581.894998
687.278460	2584.481110
687.616046	2582.436922
687.953582	2585.557396
688.291068	2586.878178
688.628504	2588.004876
688.965889	2584.967581
689.303224	2588.002356
689.640510	2586.951275
689.977745	2585.668302
690.314930	2582.948599
690.652065	2580.430543
690.989150	2576.533731
691.326185	2573.204049
691.663170	2571.245560
692.000105	2567.817576
692.336990	2568.117524
692.673825	2567.552915
693.010610	2565.309602
693.347345	2563.136864
693.684030	2558.614949
694.020665	2557.906667
694.357251	2551.522046
694.693786	2558.075546
695.030272	2553.934238
695.366707	2556.699311
695.703093	2554.335010
696.039429	2556.245607
696.375716	2552.290822
696.711952	2553.717468
697.048139	2551.383414
697.384276	2552.648744
697.720363	2553.301573
698.056400	2552.384083
698.392388	2551.574978
698.728326	2549.200595
699.064214	2551.222097
699.400053	2548.661191
699.735842	2548.605738
700.071581	2548.572971
700.407270	2546.248999
700.742910	2547.950388
701.078501	2544.109029
701.414042	2545.170192
701.749533	2542.697506
702.084974	2538.523431
702.420366	2544.310675
702.755709	2539.763555
703.091002	2541.885880
703.426246	2542.200952
703.761440	2541.016281
704.096584	2540.340767
704.431679	2540.199614
704.766725	2540.091230
705.101721	2538.727597
705.436668	2536.489325
705.771565	2539.793802
706.106413	2541.177598
706.441212	2541.091899
706.775961	2541.512835
707.110661	2538.780530
707.445311	2541.434697
707.779913	2541.172557
708.114465	2541.280942
708.448967	2539.403112
708.783421	2543.252033
709.117825	2544.683721
709.452180	2545.712116
709.786485	2546.853937
710.120742	2548.217570
710.454949	2545.626417
710.789107	2550.796120
711.123216	2550.110523
711.457275	2557.223591
711.791286	2556.500185
712.125247	2559.229970
712.459159	2556.036399
712.793023	2560.946483
713.126837	2558.854404
713.460602	2558.854404
713.794318	2558.733417
714.127985	2557.397511
714.461602	2553.099927
714.795171	2554.342572
715.128691	2550.337375
715.462162	2549.714792
715.795584	2547.426108
716.128957	2547.257230
716.462281	2543.317568
716.795556	2544.131714
717.128782	2541.747249
717.461960	2542.561395
717.795088	2537.792463
718.128167	2541.321271
718.461198	2535.193749
718.794180	2537.905889
719.127113	2534.745086
719.459997	2534.878677
719.792833	2533.504962
720.125619	2532.025383
720.458357	2531.100332
720.791046	2533.895652
721.123686	2531.617050
721.456278	2529.595547
721.788821	2530.656710
722.121315	2527.871473
722.453761	2529.381298
722.786158	2531.307019
723.118506	2531.430527
723.450805	2528.063037
723.783056	2529.777029
724.115259	2525.539939
724.447412	2528.899868
724.779518	2529.459436
725.111574	2527.112779
725.443582	2530.223171
725.775542	2532.264838
726.107453	2534.049407
726.439315	2532.945394
726.771129	2535.244160
727.102895	2532.035466
727.434612	2537.522762
727.766281	2531.085208
728.097901	2538.677186
728.429473	2536.622916
728.760996	2539.448482
729.092471	2542.800850
729.423897	2538.795653
729.755276	2540.250026
730.086606	2537.802546
730.417887	2537.948739
730.749120	2543.985521
731.080305	2540.718853
731.411442	2546.248999
731.742530	2544.693803
732.073570	2541.790098
732.404562	2547.295038
732.735506	2549.692107
733.066401	2544.998793
733.397249	2544.794626
733.728048	2544.865202
734.058798	2540.711292
734.389501	2535.753317
734.720156	2534.505631
735.050762	2535.150899
735.381320	2535.249201
735.711831	2530.177801
736.042293	2528.662934
736.372707	2532.227030
736.703073	2527.695032
737.033391	2527.004394
737.363661	2528.494055
737.693883	2529.681247
738.024056	2532.917668
738.354182	2529.739220
738.684260	2533.333563
739.014290	2531.664941
739.344272	2533.580579
739.674207	2534.608975
740.004093	2535.677699
740.333931	2535.939839
740.663722	2536.229706
740.993464	2535.702905
741.323159	2532.088398
741.652806	2535.662576
741.982405	2533.749458
742.311956	2532.232071
742.641460	2533.411701
742.970915	2532.133768
743.300323	2527.634538
743.629683	2525.812161
743.958996	2526.729651
744.288260	2521.922911
744.617477	2528.045393
744.946647	2525.335772
745.275768	2524.967768
745.604842	2525.008097
745.933869	2521.799403
746.262847	2521.794362
746.591778	2522.467356
746.920662	2522.043899
747.249498	2521.630524
747.578286	2521.459125
747.907027	2520.720596
748.235720	2523.218488
748.564365	2524.534229
748.892963	2522.590864
749.221514	2524.249404
749.550017	2522.490041
749.878473	2525.393746
750.206881	2521.517098
750.535242	2523.944414
750.863555	2523.024403
751.191821	2521.433919
751.520039	2523.939373
751.848210	2521.353261
752.176334	2520.317304
752.504411	2522.689167
752.832440	2523.089938
753.160421	2520.937366
753.488356	2522.772346
753.816243	2520.350071
754.144082	2521.764115
754.471875	2520.639937
754.799620	2518.545338
755.127318	2519.339320
755.454969	2517.950482
755.782572	2520.763446
756.110129	2518.585667
756.437638	2519.944258
756.765100	2519.051974
757.092515	2518.036182
757.419882	2522.477438
757.747203	2520.231604
758.074477	2518.530215
758.401703	2520.680267
758.728882	2520.637417
759.056014	2522.217819
759.383099	2519.379649
759.710138	2520.168590
760.037129	2519.011645
760.364073	2523.828467
760.690970	2518.255472
761.017820	2522.933663
761.344623	2523.364681
761.671379	2524.231760
761.998088	2529.530012
762.324751	2533.381454
762.651366	2545.321427
762.977935	2561.269117
763.304456	2573.183884
763.630931	2584.072776
763.957359	2580.533886
764.283740	2576.816035
764.610074	2567.956208
764.936362	2556.913560
765.262602	2551.610266
765.588796	2537.890766
765.914943	2532.985723
766.241044	2528.468849
766.567097	2522.926101
766.893104	2520.949968
767.219064	2517.980729
767.544978	2514.993845
767.870845	2514.333454
768.196665	2512.269102
768.522438	2512.339678
768.848165	2513.078207
769.173846	2508.334481
769.499479	2511.195336
769.825066	2508.571415
770.150607	2509.178874
770.476101	2506.449089
770.801548	2506.093688
771.126949	2503.741990
771.452303	2506.000427
771.777611	2502.106135
772.102872	2502.547236
772.428087	2503.084119
772.753256	2505.710560
773.078378	2501.055055
773.403453	2503.479850
773.728482	2502.249808
774.053465	2502.990858
774.378401	2503.278204
774.703291	2498.957935
775.028135	2499.905672
775.352932	2500.160250
775.677683	2498.650424
776.002388	2495.240084
776.327046	2495.217399
776.651658	2497.841319
776.976224	2495.376195
777.300743	2497.697646
777.625216	2498.468943
777.949643	2498.201762
778.274024	2498.393326
778.598359	2496.344097
778.922647	2498.758809
779.246889	2496.207985
779.571086	2497.465753
779.895236	2498.794097
780.219339	2498.975579
780.543397	2494.330156
780.867409	2496.150012
781.191374	2499.600682
781.515294	2497.468274
781.839167	2500.321567
782.162995	2496.263438
782.486776	2496.578510
782.810511	2499.177225
783.134201	2498.075733
783.457844	2497.450630
783.781441	2494.587254
784.104993	2494.776298
784.428498	2496.419714
784.751958	2497.304436
785.075372	2498.282420
785.398739	2496.681854
785.722061	2493.639518
786.045337	2495.706391
786.368568	2495.025835
786.691752	2495.555156
787.014891	2494.055413
787.337983	2499.141937
787.661030	2504.697288
787.984031	2504.578821
788.306987	2507.540499
788.629897	2506.086126
788.952760	2507.558143
789.275579	2506.885149
789.598351	2505.652587
789.921078	2504.420025
790.243759	2503.989006
790.566395	2500.029180
790.888984	2499.164622
791.211529	2498.257214
791.534027	2500.787874
791.856480	2499.136896
792.178888	2494.249497
792.501249	2492.774960
792.823566	2491.756647
793.145836	2491.600371
793.468062	2496.880979
793.790241	2494.700680
794.112375	2496.230671
794.434464	2496.865856
794.756507	2495.676144
795.078505	2496.628922
795.400457	2498.970538
795.722364	2500.354334
796.044226	2504.011692
796.366042	2504.793070
796.687812	2503.245436
797.009538	2503.464726
797.331218	2503.656290
797.652852	2501.654952
797.974442	2500.248470
798.295986	2502.630415
798.617484	2502.612771
798.938938	2498.862153
799.260346	2499.086484
799.581709	2500.445075
799.903026	2499.756958
800.224299	2497.909375
800.545526	2496.644045
800.866708	2495.623212
801.187845	2499.426762
801.508936	2494.972903
801.829983	2495.237563
802.150984	2491.917963
802.471940	2496.250835
802.792851	2493.949548
803.113717	2493.170690
803.434538	2493.057264
803.755314	2493.488283
804.076045	2493.568941
804.396731	2495.454333
804.717372	2495.414004
805.037967	2494.599857
805.358518	2492.837974
805.679024	2493.067347
805.999485	2495.880310
806.319901	2491.701194
806.640272	2495.638335
806.960598	2493.750423
807.280879	2494.148674
807.601115	2494.635145
807.921306	2492.356544
808.241453	2491.923005
808.561554	2492.792604
808.881611	2494.778818
809.201623	2487.988384
809.521590	2496.790239
809.841513	2494.753613
810.161390	2496.911226
810.481223	2496.104642
810.801011	2496.281082
811.120755	2495.295537
811.440453	2494.466267
811.760107	2493.334528
812.079716	2492.858139
812.399281	2491.973416
812.718801	2493.054744
813.038276	2492.306132
813.357707	2491.219764
813.677093	2495.255207
813.996434	2495.242604
814.315731	2493.397542
814.634983	2490.803868
814.954191	2493.689929
815.273354	2492.792604
815.592473	2493.498365
815.911547	2495.882831
816.230577	2495.771926
816.549562	2495.149343
816.868502	2495.406442
817.187399	2498.320229
817.506250	2497.417862
817.825058	2499.489777
818.143821	2501.256701
818.462539	2503.779798
818.781213	2504.936743
819.099843	2506.867505
819.418429	2512.821108
819.736970	2518.951151
820.055466	2525.363499
820.373919	2535.975128
820.692327	2548.194884
821.010691	2567.154664
821.329011	2612.109153
821.647286	2683.567509
821.965517	2778.058897
822.283704	2848.670339
822.601847	2886.763818
822.919945	2860.965713
823.237999	2824.382060
823.556010	2777.653084
823.873976	2735.085581
824.191897	2696.001515
824.509775	2659.974909
824.827609	2633.105559
825.145398	2612.424226
825.463144	2604.663369
825.780845	2599.221444
826.098502	2608.212342
826.416116	2624.205402
826.733685	2645.960502
827.051210	2658.457522
827.368692	2654.540545
827.686129	2633.791156
828.003522	2613.490430
828.320872	2587.510843
828.638177	2568.999726
828.955439	2555.348282
829.272656	2545.933927
829.589830	2533.706608
829.906960	2525.441637
830.224046	2519.059536
830.541088	2514.547703
830.858086	2512.811026
831.175041	2507.245592
831.491952	2507.109481
831.808819	2504.745179
832.125642	2506.844820
832.442421	2514.547703
832.759157	2525.585309
833.075849	2536.378420
833.392497	2555.897768
833.709101	2570.557443
834.025662	2575.127249
834.342179	2568.616599
834.658653	2556.308622
834.975083	2544.618186
835.291469	2536.675848
835.607811	2526.472552
835.924110	2519.117509
836.240366	2513.839421
836.556578	2508.568895
836.872746	2505.506394
837.188871	2501.294510
837.504952	2496.094559
837.820990	2498.428614
838.136984	2490.629949
838.452935	2488.981491
838.768842	2491.771770
839.084706	2492.772439
839.400526	2501.211331
839.716303	2507.767351
840.032037	2515.901253
840.347727	2516.223887
840.663373	2513.186592
840.978977	2501.367606
841.294537	2504.929182
841.610054	2497.551453
841.925527	2496.147492
842.240957	2490.012407
842.556344	2492.354023
842.871687	2488.573158
843.186987	2485.712303
843.502244	2483.426140
843.817458	2484.336068
844.132629	2483.552169
844.447756	2481.021509
844.762840	2481.351705
845.077881	2479.801550
845.392879	2477.797692
845.707833	2476.061014
846.022745	2479.471355
846.337613	2481.684421
846.652438	2479.708289
846.967221	2478.468165
847.281960	2480.766931
847.596656	2478.614358
847.911309	2476.895325
848.225919	2478.137969
848.540485	2479.922538
848.855009	2478.077476
849.169490	2479.385655
849.483928	2476.779378
849.798323	2476.555047
850.112675	2477.999338
850.426984	2476.250057
850.741251	2477.870788
851.055474	2476.262660
851.369654	2476.839872
851.683792	2477.696868
851.997887	2476.789461
852.311938	2475.612351
852.625947	2477.618731
852.939914	2475.708133
853.253837	2477.696868
853.567718	2476.076138
853.881555	2478.211066
854.195350	2477.212918
854.509103	2475.524131
854.822812	2477.928762
855.136479	2479.055459
855.450103	2478.884060
855.763685	2475.582104
856.077224	2472.471712
856.390720	2474.493215
856.704173	2472.317957
857.017584	2477.021354
857.330953	2479.965388
857.644278	2476.804584
857.957561	2480.870275
858.270802	2478.982363
858.584000	2477.704430
858.897155	2478.253916
859.210268	2476.938175
859.523339	2478.062352
859.836367	2477.608648
860.149352	2478.047229
860.462295	2476.779378
860.775195	2476.091261
861.088054	2477.354070
861.400869	2477.679224
861.713642	2477.863227
862.026373	2474.100005
862.339062	2478.006899
862.651708	2476.499594
862.964312	2476.124028
863.276873	2477.747280
863.589392	2477.457414
863.901869	2478.440439
864.214303	2478.722743
864.526696	2479.229379
864.839045	2479.277270
865.151353	2479.904894
865.463619	2478.843731
865.775842	2482.279277
866.088023	2480.552682
866.400162	2480.746767
866.712258	2481.608804
867.024313	2480.449338
867.336325	2480.769452
867.648296	2481.376911
867.960224	2480.542600
868.272110	2480.935810
868.583954	2481.409678
868.895755	2482.301962
869.207515	2483.952940
869.519233	2481.308855
869.830909	2482.664926
870.142542	2480.018320
870.454134	2478.427836
870.765684	2481.021509
871.077191	2483.471510
871.388657	2482.317086
871.700081	2476.975983
872.011463	2481.409678
872.322803	2477.573360
872.634101	2486.496202
872.945357	2483.456387
873.256571	2483.955461
873.567744	2482.480923
873.878874	2483.128712
874.189963	2484.570482
874.501010	2486.115595
874.812015	2484.152066
875.122979	2485.147694
875.433900	2484.530152
875.744780	2488.495020
876.055618	2488.462252
876.366415	2487.612818
876.677169	2486.120637
876.987882	2488.754639
877.298554	2487.368322
877.609183	2486.680205
877.919771	2490.496358
878.230317	2492.550628
878.540822	2495.736638
878.851285	2494.988026
879.161707	2501.218892
879.472087	2506.675941
879.782425	2517.411078
880.092722	2532.705939
880.402977	2560.172666
880.713191	2598.004005
881.023363	2640.092598
881.333494	2668.333142
881.643583	2682.387879
881.953631	2683.272602
882.263637	2672.635767
882.573602	2661.056237
882.883526	2647.964360
883.193408	2633.652524
883.503248	2616.278188
883.813048	2602.137751
884.122806	2589.431523
884.432522	2571.981569
884.742197	2563.328428
885.051831	2552.336192
885.361424	2539.811446
885.670975	2531.289375
885.980485	2522.888292
886.289954	2517.204391
886.599382	2512.425377
886.908768	2505.871877
887.218113	2501.339880
887.527417	2498.663027
887.836680	2493.309322
888.145901	2497.516165
888.455082	2493.369816
888.764221	2495.555156
889.073319	2490.004846
889.382376	2490.231697
889.691392	2487.789258
890.000366	2490.597181
890.309300	2485.140132
890.618193	2489.092397
890.927044	2487.118785
891.235855	2492.190186
891.544625	2489.188179
891.853353	2489.485607
892.162041	2490.025010
892.470687	2491.123982
892.779293	2496.321411
893.087858	2495.560197
893.396381	2503.326095
893.704864	2509.110819
894.013306	2521.615401
894.321707	2531.556556
894.630068	2539.874460
894.938387	2544.126673
895.246665	2545.157589
895.554903	2537.951260
895.863100	2534.273738
896.171256	2526.109589
896.479371	2522.888292
896.787446	2518.124402
897.095480	2511.170130
897.403473	2509.004954
897.711425	2507.938750
898.019336	2502.784171
898.327207	2501.092863
898.635038	2498.201762
898.942827	2498.393326
899.250576	2497.322080
899.558284	2489.120123
899.865952	2490.708087
900.173579	2487.655668
900.481165	2487.249855
900.788711	2488.971409
901.096216	2485.309011
901.403681	2486.113075
901.711105	2488.255565
902.018489	2485.798003
902.325832	2484.958651
902.633135	2482.473362
902.940397	2490.821513
903.247619	2494.468787
903.554800	2508.546209
903.861941	2531.347348
904.169041	2548.182282
904.476101	2560.021431
904.783121	2555.721327
905.090100	2549.692107
905.397039	2542.841179
905.703938	2531.465815
906.010796	2526.344003
906.317614	2521.219670
906.624391	2515.482837
906.931129	2510.839934
907.237826	2507.046466
907.544483	2504.936743
907.851099	2498.579848
908.157675	2495.373674
908.464211	2487.350678
908.770707	2485.808085
909.077163	2484.462097
909.383578	2482.143166
909.689954	2481.460090
909.996289	2482.095275
910.302584	2477.525469
910.608839	2478.327013
910.915054	2478.720223
911.221229	2477.051601
911.527363	2475.992958
911.833458	2478.798361
912.139513	2478.054790
912.445527	2476.827269
912.751502	2480.552682
913.057436	2482.128043
913.363331	2480.472024
913.669186	2485.301449
913.975000	2488.245483
914.280775	2490.415700
914.586510	2495.023314
914.892205	2503.101763
915.197859	2516.455780
915.503475	2529.653521
915.809050	2542.664739
916.114585	2553.374670
916.420081	2557.914229
916.725536	2555.827191
917.030952	2555.048333
917.336328	2547.554658
917.641665	2540.960829
917.946961	2533.129396
918.252218	2531.279293
918.557435	2523.800741
918.862612	2522.679084
919.167750	2518.184896
919.472848	2513.292456
919.777906	2511.059225
920.082925	2506.779285
920.387904	2502.559839
920.692843	2497.279231
920.997743	2495.640856
921.302603	2491.607933
921.607423	2487.885040
921.912204	2487.322952
922.216946	2484.787251
922.521647	2483.262302
922.826310	2484.802375
923.130932	2483.156438
923.435516	2480.716520
923.740059	2481.568475
924.044564	2478.468165
924.349028	2480.509832
924.653454	2477.374235
924.957840	2475.844244
925.262186	2479.612507
925.566493	2475.982876
925.870761	2475.582104
926.174989	2475.143524
926.479178	2474.500777
926.783328	2472.396095
927.087438	2473.795015
927.391509	2473.631178
927.695541	2469.936012
927.999533	2474.488174
928.303486	2472.895169
928.607400	2473.497587
928.911275	2472.101188
929.215110	2470.982052
929.518906	2471.405508
929.822663	2469.709160
930.126381	2469.469705
930.430060	2469.159674
930.733699	2470.891311
931.037299	2466.903758
931.340861	2470.583800
931.644383	2470.112452
931.947866	2469.953656
932.251309	2473.250571
932.554714	2469.656228
932.858080	2467.627164
933.161407	2467.271762
933.464694	2465.663634
933.767943	2464.375619
934.071153	2471.559264
934.374323	2468.416104
934.677455	2468.312761
934.980548	2470.125055
935.283602	2469.326032
935.586617	2470.036835
935.889593	2470.566156
936.192530	2472.005406
936.495428	2469.210086
936.798287	2469.696557
937.101108	2469.668831
937.403890	2470.309058
937.706632	2471.713019
938.009336	2472.945581
938.312002	2474.684779
938.614628	2474.752835
938.917216	2476.260140
939.219765	2475.778709
939.522275	2476.066055
939.824747	2476.865078
940.127179	2477.343988
940.429573	2476.718885
940.731929	2478.445480
941.034246	2476.587815
941.336524	2476.890284
941.638763	2476.565129
941.940964	2475.204018
942.243126	2478.337095
942.545250	2477.704430
942.847335	2473.661425
943.149381	2473.668987
943.451389	2471.655046
943.753359	2474.478092
944.055290	2473.679069
944.357182	2472.701085
944.659036	2472.685962
944.960851	2473.472382
945.262628	2470.346866
945.564367	2474.372228
945.866067	2471.808801
946.167729	2470.959366
946.469352	2469.600775
946.770937	2471.750828
947.072484	2473.051445
947.373992	2472.149079
947.675462	2473.023719
947.976893	2471.602113
948.278286	2466.813017
948.579641	2469.739407
948.880958	2466.359313
949.182236	2472.746455
949.483476	2468.869808
949.784678	2472.479274
950.085841	2470.896352
950.386967	2468.799232
950.688054	2472.751497
950.989103	2469.512555
951.290114	2472.784264
951.591087	2472.136476
951.892021	2473.290900
952.192917	2473.384161
952.493776	2475.337608
952.794596	2473.328709
953.095378	2471.468523
953.396122	2472.925416
953.696828	2470.266208
953.997496	2472.925416
954.298126	2472.073461
954.598718	2473.283338
954.899272	2472.990951
955.199788	2473.505149
955.500266	2471.748307
955.800706	2471.521455
956.101108	2472.774182
956.401472	2470.977010
956.701798	2471.516414
957.002087	2469.444500
957.302337	2469.414253
957.602550	2469.129428
957.902724	2469.910806
958.202861	2468.108594
958.502960	2470.021712
958.803022	2467.382668
959.103045	2467.342338
959.403031	2465.782101
959.702979	2466.374437
960.002889	2466.991978
960.302762	2467.788481
960.602596	2466.439972
960.902393	2465.169601
961.202153	2466.089612
961.501875	2464.529375
961.801559	2466.293778
962.101205	2463.695064
962.400814	2465.121710
962.700385	2463.410238
962.999918	2462.724642
963.299414	2458.732048
963.598873	2463.024590
963.898293	2459.256328
964.197677	2463.705146
964.497022	2464.229426
964.796331	2465.572893
965.095601	2464.277317
965.394835	2463.569035
965.694030	2463.803448
965.993189	2464.514251
966.292309	2465.199848
966.591393	2466.381999
966.890439	2464.857050
967.189447	2462.104580
967.488419	2462.223047
967.787353	2463.894189
968.086249	2461.842440
968.385108	2465.320836
968.683930	2460.995526
968.982714	2463.841257
969.281462	2461.968468
969.580172	2465.257821
969.878844	2468.514407
970.177480	2462.172635
970.476078	2462.457460
970.774639	2465.751854
971.073162	2465.078860
971.371649	2465.809828
971.670098	2464.531895
971.968510	2463.939560
972.266885	2463.395115
972.565223	2465.451906
972.863524	2464.920064
973.161788	2463.639611
973.460014	2465.577935
973.758204	2464.887297
974.056356	2465.361165
974.354471	2463.536267
974.652550	2465.598099
974.950591	2465.817389
975.248595	2464.761268
975.546563	2466.129941
975.844493	2464.519292
976.142386	2467.531382
976.440243	2466.681947
976.738062	2464.869653
977.035845	2463.437965
977.333590	2466.802935
977.631299	2465.242698
977.928971	2463.914354
978.226606	2459.765484
978.524204	2464.645321
978.821765	2458.878241
979.119290	2463.750516
979.416777	2464.254632
979.714228	2465.726649
980.011642	2463.420321
980.309020	2464.461319
980.606360	2463.659776
980.903664	2465.063737
981.200931	2465.653552
981.498162	2466.392081
981.795356	2467.670013
982.092513	2468.600106
982.389633	2468.816876
982.686717	2471.927268
982.983764	2474.261322
983.280775	2475.506487
983.577749	2476.008082
983.874686	2473.159830
984.171587	2473.109418
984.468451	2476.378607
984.765279	2473.164871
985.062070	2475.960191
985.358824	2473.134624
985.655543	2470.102370
985.952224	2469.184880
986.248869	2465.756896
986.545478	2465.575414
986.842050	2469.111783
987.138586	2464.917543
987.435086	2466.162708
987.731549	2464.118521
988.027975	2466.525672
988.324366	2461.620629
988.620719	2464.557101
988.917037	2462.623818
989.213318	2464.219344
989.509563	2461.257666
989.805772	2461.575258
990.101944	2462.838067
990.398080	2463.024590
990.694180	2462.036524
990.990244	2460.751030
991.286271	2463.959724
991.582262	2461.759261
991.878217	2459.122737
992.174136	2465.192286
992.470019	2461.217337
992.765865	2462.878397
993.061676	2459.357151
993.357450	2462.374281
993.653188	2458.467387
993.948890	2461.945783
994.244556	2463.211113
994.540186	2463.274127
994.835780	2463.511062
995.131337	2468.118676
995.426859	2464.126082
995.722345	2469.936012
996.017795	2466.155147
996.313208	2467.009622
996.608586	2469.615899
996.903928	2468.282514
997.199234	2470.561115
997.494504	2467.644808
997.789738	2467.400312
998.084936	2468.768985
998.380099	2468.723615
998.675225	2467.203707
998.970316	2467.254118
999.265371	2466.928964
999.560390	2465.635908
999.855373	2466.835703
1000.150320	2465.270424
1000.445232	2462.157512
1000.740108	2463.717749
1001.034948	2464.098356
1001.329752	2464.350414
1001.624521	2464.047944
1001.919254	2461.671040
1002.213951	2462.943932
1002.508613	2461.381174
1002.803239	2459.442850
1003.097829	2463.664817
1003.392384	2461.398818
1003.686903	2463.049796
1003.981386	2461.711370
1004.275834	2459.584003
1004.570246	2458.477469
1004.864623	2461.751699
1005.158964	2460.284723
1005.453270	2462.021401
1005.747540	2460.622480
1006.041775	2459.059723
1006.335974	2459.084928
1006.630138	2459.689867
1006.924266	2463.072481
1007.218359	2461.562656
1007.512416	2457.998560
1007.806438	2459.195834
1008.100425	2463.054837
1008.394376	2455.593929
1008.688292	2464.630198
1008.982172	2462.664148
1009.276017	2460.249435
1009.569827	2459.896554
1009.863602	2460.751030
1010.157341	2460.549384
1010.451045	2462.228088
1010.744714	2460.148612
1011.038347	2462.815382
1011.331945	2460.279682
1011.625508	2460.748509
1011.919036	2461.660958
1012.212528	2463.334621
1012.505986	2462.215485
1012.799408	2459.914198
1013.092795	2460.249435
1013.386147	2460.052830
1013.679464	2462.565845
1013.972745	2461.945783
1014.265992	2460.078036
1014.559204	2461.630711
1014.852380	2459.256328
1015.145521	2461.116513
1015.438628	2459.188272
1015.731699	2461.310598
1016.024736	2459.856225
1016.317737	2461.113993
1016.610703	2457.842284
1016.903635	2461.885289
1017.196531	2460.660289
1017.489393	2459.339507
1017.782219	2460.811524
1018.075011	2461.968468
1018.367768	2458.263220
1018.660490	2460.254476
1018.953177	2460.254476
1019.245829	2460.254476
