Dividing Wavelength (nm)	Counts (n)	Blue Motor Position (mm): 0.000000	Red Motor Position (mm): 40.500000	
326.493990	2054.587785
326.888308	2054.587785
327.282561	2054.587785
327.676750	2026.705163
328.070874	2028.310771
328.464933	2034.385361
328.858929	2043.078831
329.252859	2048.689635
329.646726	2065.476677
330.040528	2081.734398
330.434265	2099.690988
330.827938	2122.439195
331.221547	2142.941568
331.615091	2160.971255
332.008571	2183.696776
332.401986	2203.722760
332.795338	2222.518702
333.188625	2242.262381
333.581847	2260.944897
333.975006	2279.012393
334.368100	2296.154836
334.761129	2313.420788
335.154095	2331.304281
335.546996	2356.986440
335.939833	2409.457289
336.332606	2425.178128
336.725315	2434.708429
337.117960	2447.046653
337.510540	2455.646862
337.903056	2465.081381
338.295508	2470.732514
338.687896	2481.749956
339.080220	2483.534525
339.472480	2490.428303
339.864676	2491.194558
340.256807	2495.356030
340.648875	2498.685713
341.040879	2499.802328
341.432818	2498.536998
341.824694	2501.231495
342.216506	2501.511279
342.608253	2500.258552
342.999937	2498.877276
343.391557	2497.576659
343.783113	2499.101608
344.174605	2497.191010
344.566033	2495.419045
344.957397	2493.720176
345.348697	2493.488283
345.739934	2490.861842
346.131106	2488.484938
346.522215	2489.533498
346.913260	2483.728609
347.304241	2484.295739
347.695159	2481.460090
348.086012	2482.601911
348.476802	2479.368011
348.867528	2478.135449
349.258191	2475.846765
349.648789	2476.610500
350.039324	2471.113122
350.429796	2476.875160
350.820203	2472.559933
351.210548	2474.594038
351.600828	2470.941722
351.991045	2470.233440
352.381198	2470.717391
352.771288	2472.562453
353.161314	2472.156640
353.551276	2472.789305
353.941175	2469.724284
354.331010	2470.644294
354.720782	2474.210911
355.110490	2470.309058
355.500135	2473.648822
355.889717	2471.239150
356.279235	2473.777371
356.668689	2473.474902
357.058080	2474.498256
357.447408	2475.304841
357.836672	2474.228555
358.225873	2475.413226
358.615010	2477.263329
359.004084	2478.407671
359.393095	2476.918010
359.782043	2476.978504
360.170927	2475.826600
360.559748	2478.717702
360.948505	2481.336582
361.337199	2483.572333
361.725830	2481.757518
362.114398	2481.462610
362.502903	2483.761377
362.891344	2485.102323
363.279722	2480.797178
363.668037	2482.551500
364.056289	2484.925883
364.444478	2482.599391
364.832603	2485.924032
365.220665	2488.023672
365.608665	2485.644247
365.996601	2488.505102
366.384474	2486.309680
366.772284	2489.122644
367.160031	2488.104331
367.547715	2493.425268
367.935336	2489.324290
368.322893	2488.492499
368.710388	2486.564258
369.097820	2489.604074
369.485189	2491.285299
369.872495	2493.654641
370.259738	2492.885865
370.646918	2495.315701
371.034035	2493.982316
371.421090	2495.348469
371.808081	2497.962307
372.195010	2498.516834
372.581875	2500.215703
372.968678	2497.934581
373.355418	2501.833913
373.742096	2503.943636
374.128710	2504.495642
374.515262	2507.424553
374.901751	2510.418998
375.288177	2514.063752
375.674540	2518.744464
376.060841	2524.733354
376.447079	2528.748633
376.833254	2534.172915
377.219367	2536.219623
377.605417	2542.498381
377.991404	2546.145655
378.377329	2553.064639
378.763191	2560.931360
379.148991	2570.723801
379.534727	2580.738053
379.920402	2589.794486
380.306013	2596.708428
380.691563	2610.170830
381.077049	2621.024434
381.462474	2627.683798
381.847835	2642.920686
382.233134	2657.910557
382.618371	2668.446568
383.003545	2684.948785
383.388657	2699.565611
383.773706	2715.417519
384.158693	2732.494428
384.543618	2752.049064
384.928480	2763.787390
385.313280	2786.636420
385.698017	2807.773978
386.082692	2829.582010
386.467305	2844.985255
386.851856	2868.766899
387.236344	2899.361661
387.620770	2912.030081
388.005133	2934.604368
388.389435	2971.460244
388.773674	2980.257057
389.157851	3013.226203
389.541965	3039.982127
389.926018	3054.553583
390.310008	3088.974581
390.693936	3112.065586
391.077802	3142.206645
391.461606	3173.008095
391.845348	3191.201619
392.229027	3221.118347
392.612645	3266.120727
392.996200	3289.705765
393.379694	3329.782938
393.763125	3373.353631
394.146494	3399.895306
394.529801	3437.116666
394.913047	3482.587873
395.296230	3483.533090
395.679351	3511.052748
396.062410	3558.492527
396.445408	3535.799773
396.828343	3582.611927
397.211217	3617.416053
397.594028	3589.004110
397.976778	3636.005308
398.359466	3666.103517
398.742092	3679.225641
399.124656	3694.540666
399.507158	3757.209770
399.889598	3760.310080
400.271977	3827.244000
400.654294	3815.813184
401.036549	3873.368037
401.418742	3875.986917
401.800874	3942.603244
402.182944	3971.478973
402.564952	4057.745718
402.946898	4054.537024
403.328783	4048.003689
403.710606	4096.607973
404.092367	4166.359899
404.474067	4227.118405
404.855705	4215.049883
405.237282	4189.939896
405.618797	4285.215183
406.000250	4364.983881
406.381642	4450.539823
406.762972	4449.418167
407.144240	4416.121345
407.525447	4481.739524
407.906593	4498.274509
408.287677	4584.740380
408.668700	4606.475315
409.049661	4651.069362
409.430560	4683.458775
409.811399	4667.967309
410.192176	4720.133169
410.572891	4801.235252
410.953545	4910.396398
411.334138	4803.781035
411.714669	4912.221295
412.095139	4828.719623
412.475547	4938.828505
412.855894	4945.369402
413.236180	5047.389753
413.616405	4974.335873
413.996568	5081.218416
414.376670	5084.830403
414.756711	5074.095266
415.136691	5148.905989
415.516609	5233.362960
415.896466	5268.696407
416.276262	5346.655331
416.655997	5460.383762
417.035670	5555.147372
417.415283	5700.377973
417.794834	5769.950937
418.174324	5732.538014
418.553753	5727.527107
418.933121	5902.248458
419.312428	5913.293626
419.691674	5835.407799
420.070859	6066.045629
420.449983	5945.466270
420.829045	6139.328882
421.208047	6064.692079
421.586988	6225.698971
421.965867	6297.704292
422.344686	6384.974227
422.723444	6547.778290
423.102141	6163.879302
423.480777	6556.131482
423.859352	6367.698193
424.237866	6744.678198
424.616319	6735.047073
424.994712	6901.377424
425.373044	6813.666388
425.751314	7133.651108
426.129524	6850.262645
426.507673	7121.030579
426.885762	7162.342835
427.263789	7201.759617
427.641756	7289.563914
428.019662	7376.382666
428.397508	7413.818274
428.775292	7391.526292
429.153016	7569.302582
429.530679	7494.968248
429.908282	7553.165849
430.285824	7492.992116
430.663305	7781.083976
431.040726	7659.750965
431.418086	7662.107704
431.795385	7802.541647
432.172624	7994.352510
432.549802	7874.219293
432.926920	8010.080910
433.303977	7949.347609
433.680974	7993.631625
434.057910	8193.694857
434.434786	8253.898836
434.811601	8207.512659
435.188355	8552.027634
435.565050	8436.509593
435.941683	8445.916386
436.318257	8779.323178
436.694770	8735.510510
437.071222	8963.847053
437.447614	8745.338240
437.823946	8705.480357
438.200218	8862.661013
438.576429	8732.904234
438.952580	8904.280779
439.328670	8915.421729
439.704700	8989.193975
440.080670	8876.209114
440.456580	9158.299480
440.832429	9128.218915
441.208218	8868.191159
441.583947	8988.505857
441.959616	9109.826266
442.335224	9131.833423
442.710773	9219.625117
443.086261	9401.025997
443.461689	9109.992624
443.837057	9288.280591
444.212365	9502.905196
444.587612	9484.769645
444.962800	9381.869612
445.337927	9519.631744
445.712995	9050.809478
446.088002	9731.473632
446.462949	9784.612434
446.837837	9774.542729
447.212664	9795.110637
447.587431	10633.709100
447.962139	11662.651450
448.336786	12607.625821
448.711374	12385.293292
449.085901	11165.666777
449.460369	11079.556308
449.834776	10849.583911
450.209124	11779.883482
450.583412	11600.395720
450.957640	11920.698033
451.331808	11518.620643
451.705917	10923.310786
452.079965	10806.237549
452.453954	11011.737665
452.827883	10947.664600
453.201752	10924.094685
453.575562	10925.344891
453.949311	11270.283323
454.323001	11341.910557
454.696632	11262.030954
455.070202	11846.136847
455.443713	11904.863769
455.817164	12087.446799
456.190556	12408.215418
456.563888	12268.031012
456.937160	12532.474820
457.310373	12010.304543
457.683526	12026.232068
458.056619	12046.237887
458.429653	12101.740991
458.802628	12250.339083
459.175542	12302.996455
459.548398	12868.593752
459.921194	13441.941823
460.293930	13716.079769
460.666607	14590.218367
461.039224	15397.533950
461.411782	15752.073258
461.784280	15419.253761
462.156719	15373.522934
462.529099	15280.473316
462.901419	14625.750940
463.273680	14226.184045
463.645882	14449.996152
464.018024	14328.327904
464.390106	14691.490107
464.762130	15777.513441
465.134094	17315.309860
465.505999	19632.750969
465.877845	21926.599477
466.249631	23196.851779
466.621358	22740.665165
466.993026	21915.400554
467.364634	21176.957215
467.736184	20362.962103
468.107674	19744.621734
468.479105	19597.321739
468.850477	19329.386933
469.221790	18887.920488
469.593043	18221.384167
469.964238	17817.829720
470.335373	17878.174852
470.706449	18607.357591
471.077467	19460.134299
471.448425	21964.597174
471.819324	23869.538307
472.190164	23792.169198
472.560945	22026.719313
472.931667	20424.491907
473.302330	20088.803993
473.672934	19522.904226
474.043479	19950.706624
474.413965	19741.498739
474.784393	19542.090858
475.154761	20233.122145
475.525070	20349.897953
475.895321	20189.516164
476.265513	20728.596992
476.635645	21336.159374
477.005719	21392.794217
477.375734	21755.595977
477.745691	22402.650758
478.115588	23049.045148
478.485427	24263.312916
478.855207	26090.690856
479.224928	27920.186081
479.594591	29371.861948
479.964194	29023.619041
480.333739	29497.490023
480.703226	29722.532172
481.072653	30146.404990
481.442022	30693.118124
481.811333	31100.249271
482.180584	30677.389724
482.549777	30448.498655
482.918912	30217.200434
483.287988	30154.160805
483.657005	29987.502779
484.025964	29633.328954
484.394864	29822.856174
484.763706	29755.108108
485.132489	29202.426247
485.501213	29293.872778
485.869879	29474.441867
486.238487	29374.627021
486.607036	29674.933597
486.975527	29344.720376
487.343959	29703.683297
487.712333	30068.849358
488.080648	30017.737100
488.448905	30464.784102
488.817104	30329.686220
489.185244	31180.484275
489.553326	32141.613024
489.921350	34048.860485
490.289315	36608.723120
490.657222	37546.526449
491.025070	38143.094075
491.392861	37861.270889
491.760593	37086.858918
492.128267	36071.663795
492.495883	35089.374803
492.863440	34167.062939
493.230939	33171.598892
493.598380	32600.174022
493.965763	32434.456171
494.333088	31927.497576
494.700354	31730.726218
495.067563	31697.421835
495.434713	31560.355382
495.801805	31851.245083
496.168839	31691.458150
496.535815	31538.549871
496.902733	31659.986226
497.269593	31476.894039
497.636395	31635.221558
498.003139	31914.125915
498.369825	31654.307367
498.736453	32082.195464
499.103023	31914.914856
499.469535	31999.502897
499.835989	32114.821812
500.202385	31991.454695
500.568723	32042.887067
500.935003	32351.362832
501.301226	32208.476368
501.667390	32951.315593
502.033497	33169.595034
502.399546	32962.965699
502.765537	32551.088307
503.131470	33046.555592
503.497345	33490.532532
503.863163	32412.461617
504.228923	33194.092521
504.594625	33596.278295
504.960269	33053.719071
505.325856	33735.197372
505.691385	33385.936151
506.056856	33726.297215
506.422270	34230.095007
506.787625	33734.962958
507.152924	34201.438568
507.518164	34383.323398
507.883347	33965.636076
508.248472	34106.546408
508.613540	34782.807114
508.978550	35027.625710
509.343503	34863.959609
509.708398	35219.988579
510.073236	35819.603582
510.438016	35917.338952
510.802738	35589.905927
511.167403	36134.148897
511.532010	36400.891470
511.896561	36925.892355
512.261053	37685.642131
512.625488	37470.430232
512.989866	37383.021665
513.354186	37428.185363
513.718449	37395.682523
514.082655	38287.641599
514.446803	37981.199939
514.810894	38626.220615
515.174927	38608.858881
515.538904	38629.562900
515.902822	39266.021176
516.266684	38945.804563
516.630488	39318.234927
516.994235	39317.168723
517.357925	39896.866127
517.721558	40157.602166
518.085133	40544.046937
518.448651	40718.256612
518.812112	40607.842739
519.175516	40771.070260
519.538863	41237.666857
519.902152	41296.981073
520.265385	41840.853517
520.628560	41856.965045
520.991678	41808.408651
521.354739	42041.262068
521.717743	42413.710076
522.080690	42308.967502
522.443580	43011.472455
522.806413	43018.930842
523.169189	43156.939990
523.531908	43356.322666
523.894569	43224.594796
524.257174	43409.436263
524.619722	43771.597797
524.982213	43924.284264
525.344647	43968.628774
525.707025	44083.589767
526.069345	44531.982758
526.431608	44433.329897
526.793815	44825.617366
527.155964	44380.170930
527.518057	44620.507940
527.880093	44478.959901
528.242072	45124.577954
528.603995	44839.462895
528.965860	44754.000214
529.327669	44958.842459
529.689421	45045.613320
530.051117	45001.046999
530.412755	45275.207631
530.774337	45330.786352
531.135862	45268.689419
531.497331	45418.361277
531.858743	45416.415391
532.220098	45835.229412
532.581396	45530.395880
532.942638	45313.412015
533.303824	45569.684112
533.664953	45624.836856
534.026025	45281.904804
534.387040	45870.288116
534.747999	45911.577687
535.108902	46259.339164
535.469748	45570.105048
535.830537	45851.766917
536.191270	46099.164062
536.551947	45833.820409
536.912567	46093.487723
537.273131	46237.400062
537.633638	45864.889040
537.994089	46042.869497
538.354483	45796.833463
538.714821	46443.374047
539.075103	46730.384579
539.435328	46590.278311
539.795497	46349.729573
540.155609	46468.030330
540.515665	47061.868171
540.875665	46353.018926
541.235609	46627.444218
541.595496	46769.924870
541.955328	47342.715893
542.315102	46774.875283
542.674821	46684.270625
543.034483	46570.592605
543.394090	46570.963130
543.753640	46563.512305
544.113134	47633.915624
544.472571	46721.174391
544.831953	47861.942136
545.191278	47108.249307
545.550548	46807.042885
545.909761	47447.173642
546.268918	47574.281295
546.628019	47992.235799
546.987064	47420.382430
547.346053	46747.484173
547.704986	47657.757762
548.063863	47290.290414
548.422684	47491.586207
548.781449	47062.364725
549.140158	47598.309955
549.498811	47345.186058
549.857408	46747.332939
550.215949	47584.396370
550.574434	47418.348324
550.932864	47381.084115
551.291237	48088.446220
551.649555	47813.108479
552.007817	47995.205038
552.366022	47689.194397
552.724173	47770.145245
553.082267	48159.791150
553.440305	48538.923727
553.798288	47766.760111
554.156215	48170.717851
554.514086	48352.753916
554.871902	47936.747818
555.229661	48131.175040
555.587365	47798.786561
555.945014	47931.744473
556.302606	47961.888052
556.660143	48058.869770
557.017625	48267.999517
557.375050	47948.203840
557.732421	48350.508082
558.089735	48422.309236
558.446994	48278.006207
558.804197	48748.020707
559.161345	48616.423906
559.518437	47959.811097
559.875474	48211.773008
560.232455	48420.486859
560.589381	48447.951065
560.946251	48304.348757
561.303065	48940.315520
561.659825	48612.433833
562.016528	48406.981608
562.373177	47990.983072
562.729770	48629.888828
563.086307	48123.388978
563.442789	48683.405717
563.799216	48526.658600
564.155587	48436.923541
564.511904	48386.597702
564.868164	48439.428995
565.224370	48763.698695
565.580520	48462.071337
565.936615	48668.408285
566.292654	48306.004776
566.648638	48666.979117
567.004567	48600.695506
567.360441	48688.378816
567.716260	48392.153054
568.072023	48771.683883
568.427732	48669.325775
568.783385	48208.246720
569.138982	48617.507754
569.494525	48753.139998
569.850013	48350.442547
570.205445	48476.599943
570.560823	48235.819311
570.916145	48105.692007
571.271412	48339.785548
571.626625	47977.253489
571.981782	48037.039053
572.336884	47632.441087
572.691931	47959.054924
573.046923	47589.271166
573.401860	47417.660207
573.756743	47425.718491
574.111570	47551.220537
574.466342	47481.398035
574.821059	47614.746637
575.175722	47094.749097
575.530330	47179.112807
575.884882	46824.180288
576.239380	46699.991463
576.593823	46794.707182
576.948211	46727.924496
577.302544	46252.641991
577.656823	46229.467807
578.011047	46468.713407
578.365216	46324.415419
578.719330	46009.025711
579.073389	45961.366642
579.427394	45993.929976
579.781344	45883.198511
580.135239	45638.024514
580.489080	45690.760025
580.842866	45174.840778
581.196597	45642.821172
581.550273	45617.862419
581.903895	45529.367484
582.257463	45956.224666
582.610975	45373.288320
582.964434	45662.675757
583.317837	45137.984903
583.671186	45108.181601
584.024481	45352.972470
584.377721	44867.526999
584.730906	45069.281537
585.084037	45178.258681
585.437113	44892.730247
585.790135	44994.990053
586.143103	44521.587898
586.496016	44675.680848
586.848874	44763.001194
587.201679	44754.902581
587.554428	44207.501328
587.907124	44455.503413
588.259765	44210.813367
588.612352	44337.789950
588.964884	43767.184266
589.317362	44031.940625
589.669786	44007.934651
590.022155	43871.644536
590.374470	44325.774359
590.726731	43837.752858
591.078937	43173.384234
591.431090	43480.781193
591.783188	42971.682628
592.135232	42751.827826
592.487222	42968.660456
592.839157	43112.605563
593.191038	42729.185484
593.542866	42491.643794
593.894639	41859.346990
594.246358	42115.611526
594.598022	42087.751589
594.949633	41614.387243
595.301190	41568.631210
595.652692	41493.427277
596.004141	41951.668161
596.355535	40823.309217
596.706876	40798.340382
597.058162	40470.592285
597.409395	40930.113622
597.760573	41121.087654
598.111698	40686.199914
598.462768	40563.707437
598.813785	40552.891642
599.164748	40118.767637
599.515657	40340.835505
599.866511	39824.606228
600.217312	40449.452206
600.568060	39384.077437
600.918753	40149.954736
601.269392	40010.854177
601.619978	39697.783400
601.970510	39856.703255
602.320988	39923.987535
602.671412	40129.989246
603.021783	39965.138474
603.372100	39507.005974
603.722363	39563.789531
604.072572	39535.700222
604.422728	39475.765944
604.772830	39219.082993
605.122878	39350.165596
605.472872	39155.919856
605.822813	39360.353767
606.172701	39048.263495
606.522534	39289.732243
606.872314	39429.465466
607.222041	39235.398687
607.571714	39478.979679
607.921333	38932.503479
608.270899	39062.134229
608.620411	39366.201506
608.969870	39084.925286
609.319276	39036.729335
609.668627	39005.567442
610.017926	39314.822066
610.367171	39391.941637
610.716362	39364.162359
611.065500	39209.724091
611.414585	39339.780819
611.763616	39419.723436
612.112594	39249.092982
612.461518	39302.551897
612.810389	39586.320968
613.159207	39323.460083
613.507971	39215.526459
613.856682	39616.419177
614.205340	39367.812155
614.553945	39947.577614
614.902496	39262.550342
615.250994	39567.494779
615.599439	39565.309439
615.947830	39583.548333
616.296169	39493.551134
616.644454	39444.606572
616.992686	39495.391156
617.340864	39810.783384
617.688990	39253.488868
618.037063	39804.686109
618.385082	39521.635402
618.733048	39758.153738
619.080961	39535.954800
619.428821	39485.480247
619.776628	39443.376530
620.124382	39208.335253
620.472083	39229.243438
620.819731	39261.600084
621.167326	38798.837285
621.514868	38717.773010
621.862357	38147.500043
622.209793	38177.499950
622.557176	37718.880978
622.904506	37441.967877
623.251783	37051.747281
623.599007	36692.973403
623.946179	36544.347585
624.293297	36235.443321
624.640363	35681.470925
624.987376	35466.521166
625.334336	35234.088686
625.681243	34802.381915
626.028097	34628.641068
626.374899	34392.092485
626.721647	34275.851039
627.068343	33976.731655
627.414987	33657.407327
627.761577	33342.352855
628.108115	33539.582958
628.454600	32811.693275
628.801032	32913.441404
629.147412	32719.498133
629.493739	32550.997566
629.840014	32082.316452
630.186236	32331.170491
630.532405	31765.084202
630.878521	31877.259957
631.224585	31581.450091
631.570597	31220.508516
631.916556	31264.696750
632.262462	31093.484042
632.608316	30948.639089
632.954117	30743.259961
633.299866	30615.302874
633.645562	30477.117285
633.991206	29973.291767
634.336797	29568.154397
634.682336	29398.383459
635.027823	29134.403437
635.373257	28958.386510
635.718639	28622.552402
636.063968	28463.962743
636.409245	27870.528195
636.754470	27748.789371
637.099642	27488.522159
637.444762	26975.617523
637.789829	26984.028688
638.134845	26610.564888
638.479808	26472.643960
638.824719	26353.846649
639.169577	25871.877053
639.514383	25867.957556
639.859137	25468.562060
640.203839	25515.170048
640.548489	25220.801952
640.893086	25124.967096
641.237632	24832.560009
641.582125	24820.027700
641.926566	24586.745785
642.270955	24527.383678
642.615292	24377.638724
642.959576	24216.982192
643.303809	24120.502069
643.647990	24111.392704
643.992118	23997.901207
644.336195	23780.413228
644.680219	23735.105858
645.024192	23776.713021
645.368112	24072.303597
645.711981	23978.268434
646.055797	24351.628891
646.399562	24106.180151
646.743274	24595.293062
647.086935	24770.455514
647.430544	24647.811802
647.774101	24590.864408
648.117606	24712.404107
648.461059	24720.170004
648.804460	24362.638771
649.147810	23950.685761
649.491108	23665.628675
649.834354	23513.206868
650.177548	22888.176888
650.520690	22472.722797
650.863781	22357.103933
651.206820	22166.792814
651.549807	21816.629226
651.892742	21339.922595
652.235626	21206.531144
652.578458	21012.560147
652.921238	20487.907101
653.263967	20594.910633
653.606644	20309.833383
653.949269	20169.404481
654.291843	19832.441155
654.634365	19967.029880
654.976836	19605.556464
655.319255	19573.310724
655.661622	19399.557274
656.003938	19240.846627
656.346203	19053.088852
656.688416	19114.054047
657.030577	18910.136853
657.372687	18711.817861
657.714746	18729.172033
658.056753	18763.373741
658.398708	18298.758317
658.740612	18264.775899
659.082465	18310.622673
659.424266	18165.714706
659.766016	18069.040498
660.107715	17904.136794
660.449362	17873.279892
660.790958	17776.890509
661.132503	17651.267476
661.473996	17632.411040
661.815438	17590.708095
662.156829	17577.212926
662.498168	17382.619347
662.839456	17282.053368
663.180693	17277.501207
663.521879	17232.854228
663.863013	17135.663302
664.204097	17051.357566
664.545129	17182.828337
664.886110	17075.608036
665.227040	17042.901030
665.567918	16966.341027
665.908746	16914.394457
666.249522	16873.790483
666.590248	16823.827607
666.930922	16803.978064
667.271545	16724.998307
667.612118	16681.200762
667.952639	16515.402253
668.293109	16447.203003
668.633528	16304.084646
668.973896	16206.157712
669.314213	16121.889784
669.654480	15951.924762
669.994695	15861.564599
670.334859	15747.647125
670.674973	15587.777013
671.015035	15599.248159
671.355047	15481.282638
671.695008	15372.643253
672.034918	15253.798051
672.374777	15238.409928
672.714585	15103.188538
673.054342	15086.545169
673.394049	14959.434995
673.733705	14977.832686
674.073310	14783.985197
674.412864	14739.083640
674.752368	14547.487026
675.091820	14585.693931
675.431223	14339.178988
675.770574	14191.994939
676.109875	14040.563719
676.449125	13882.899112
676.788324	13768.280917
677.127473	13494.826048
677.466571	13378.375394
677.805619	13206.398951
678.144616	13105.336419
678.483562	13019.873738
678.822458	12817.552070
679.161303	12724.953635
679.500098	12619.273407
679.838842	12527.670600
680.177535	12479.134371
680.516179	12505.194616
680.854771	12460.918161
681.193314	12673.085203
681.531805	12991.275272
681.870247	13225.383936
682.208638	13485.285664
682.546978	13574.080548
682.885268	13583.499944
683.223508	13375.819529
683.561697	13215.778018
683.899836	13086.180035
684.237925	12850.248993
684.575963	12727.494377
684.913951	12520.396215
685.251889	12508.741067
685.589776	12440.897219
685.927614	12380.887323
686.265401	12392.434086
686.603137	12360.886546
686.940824	12479.759474
687.278460	12556.047255
687.616046	12568.405644
687.953582	12778.097479
688.291068	12696.874408
688.628504	12778.057150
688.965889	12733.095099
689.303224	12585.865680
689.640510	12427.210486
689.977745	12159.552943
690.314930	11849.542146
690.652065	11654.323464
690.989150	11366.080369
691.326185	11028.305417
691.663170	10760.967988
692.000105	10467.182144
692.336990	10212.591272
692.673825	10023.472386
693.010610	9811.504469
693.347345	9593.799720
693.684030	9354.599491
694.020665	9235.880318
694.357251	8984.646854
694.693786	8942.560781
695.030272	8830.367382
695.366707	8640.267991
695.703093	8504.832351
696.039429	8482.679001
696.375716	8378.402733
696.711952	8330.695774
697.048139	8264.767564
697.384276	8182.432919
697.720363	8188.938528
698.056400	8123.912684
698.392388	8034.908593
698.728326	8001.926844
699.064214	7925.618898
699.400053	7893.020277
699.735842	7741.548727
700.071581	7655.753330
700.407270	7553.468318
700.742910	7465.842982
701.078501	7350.226639
701.414042	7263.939729
701.749533	7150.271792
702.084974	7035.399020
702.420366	7056.392905
702.755709	6925.322905
703.091002	6816.885165
703.426246	6801.721374
703.761440	6746.649289
704.096584	6664.264232
704.431679	6609.963444
704.766725	6573.568833
705.101721	6521.130751
705.436668	6520.737541
705.771565	6428.776813
706.106413	6470.169727
706.441212	6465.693182
706.775961	6457.511390
707.110661	6444.255676
707.445311	6504.613411
707.779913	6451.623322
708.114465	6493.313664
708.448967	6539.891405
708.783421	6649.322252
709.117825	6714.201902
709.452180	6741.325831
709.786485	6825.588717
710.120742	6972.356870
710.454949	6986.646021
710.789107	7092.996723
711.123216	7243.694455
711.457275	7296.515665
711.791286	7410.216370
712.125247	7439.747449
712.459159	7368.397478
712.793023	7513.660847
713.126837	7275.912470
713.460602	7293.470808
713.794318	7191.271497
714.127985	7084.399035
714.461602	6857.897472
714.795171	6809.028527
715.128691	6575.030768
715.462162	6421.177273
715.795584	6294.626668
716.128957	6208.377567
716.462281	6096.141317
716.795556	6006.630590
717.128782	5882.978648
717.461960	5743.066464
717.795088	5708.524477
718.128167	5621.536847
718.461198	5519.032546
718.794180	5472.903467
719.127113	5392.865068
719.459997	5333.417261
719.792833	5246.575824
720.125619	5227.842897
720.458357	5154.088295
720.791046	5106.346048
721.123686	5061.487340
721.456278	5006.601778
721.788821	4988.521679
722.121315	4926.122277
722.453761	4927.793420
722.786158	4896.694542
723.118506	4893.737905
723.450805	4864.113564
723.783056	4875.650245
724.115259	4844.332077
724.447412	4823.801977
724.779518	4848.629660
725.111574	4848.458261
725.443582	4876.169484
725.775542	4854.560578
726.107453	4932.317855
726.439315	4906.101335
726.771129	4960.772648
727.102895	5017.858674
727.434612	5060.350560
727.766281	5074.853960
728.097901	5122.523110
728.429473	5123.307010
728.760996	5120.262153
729.092471	5121.522441
729.423897	5081.402418
729.755276	5039.777611
730.086606	5034.915418
730.417887	5096.777938
730.749120	5156.626516
731.080305	5176.118137
731.411442	5220.505497
731.742530	5218.277307
732.073570	5225.876847
732.404562	5255.849027
732.735506	5234.255244
733.066401	5197.351477
733.397249	5107.560966
733.728048	4999.924769
734.058798	4857.590311
734.389501	4728.080548
734.720156	4631.393738
735.050762	4529.108727
735.381320	4455.850679
735.711831	4404.241866
736.042293	4339.911702
736.372707	4328.564065
736.703073	4285.033701
737.033391	4298.211278
737.363661	4289.548055
737.693883	4296.489723
738.024056	4316.639215
738.354182	4333.748892
738.684260	4383.124473
739.014290	4421.764917
739.344272	4446.411118
739.674207	4491.103468
740.004093	4510.741283
740.333931	4517.597252
740.663722	4515.984083
740.993464	4509.339842
741.323159	4477.605778
741.652806	4430.324796
741.982405	4391.311307
742.311956	4327.180268
742.641460	4296.940907
742.970915	4243.045931
743.300323	4178.705684
743.629683	4136.859066
743.958996	4084.887291
744.288260	4032.272768
744.617477	3986.027743
744.946647	3971.156339
745.275768	3922.988114
745.604842	3887.939492
745.933869	3858.673074
746.262847	3842.319571
746.591778	3824.035306
746.920662	3801.702994
747.249498	3798.504382
747.578286	3801.766008
747.907027	3819.397444
748.235720	3843.244622
748.564365	3847.580015
748.892963	3834.346986
749.221514	3834.588961
749.550017	3818.686641
749.878473	3802.628046
750.206881	3770.813324
750.535242	3754.936210
750.863555	3741.201586
751.191821	3722.294739
751.520039	3715.398440
751.848210	3697.535112
752.176334	3693.484544
752.504411	3680.962318
752.832440	3658.211591
753.160421	3664.944052
753.488356	3648.867812
753.816243	3639.085453
754.144082	3610.872636
754.471875	3603.207561
754.799620	3594.385542
755.127318	3581.638985
755.454969	3578.936926
755.782572	3567.453178
756.110129	3566.185327
756.437638	3553.958009
756.765100	3546.892832
757.092515	3544.596586
757.419882	3544.677245
757.747203	3541.163560
758.074477	3548.125394
758.401703	3542.083571
758.728882	3557.159142
759.056014	3558.374060
759.383099	3568.612643
759.710138	3574.183118
760.037129	3580.149324
760.364073	3584.646033
760.690970	3579.166299
761.017820	3580.212338
761.344623	3585.329109
761.671379	3605.576904
761.998088	3644.592914
762.324751	3755.382352
762.651366	4009.116228
762.977935	4389.163775
763.304456	4677.527858
763.630931	4807.128361
763.957359	4727.818408
764.283740	4539.092732
764.610074	4340.025128
764.936362	4110.418214
765.262602	3936.294240
765.588796	3762.508023
765.914943	3637.308447
766.241044	3532.830533
766.567097	3459.514512
766.893104	3388.219994
767.219064	3344.248529
767.544978	3297.002836
767.870845	3255.730909
768.196665	3231.235942
768.522438	3206.357848
768.848165	3186.024354
769.173846	3162.225067
769.499479	3146.657984
769.825066	3129.003863
770.150607	3107.324381
770.476101	3096.006991
770.801548	3083.404106
771.126949	3067.214440
771.452303	3053.331103
771.777611	3036.740665
772.102872	3029.773791
772.428087	3016.875999
772.753256	2999.126096
773.078378	2994.256341
773.403453	2976.514000
773.728482	2964.889100
774.053465	2957.322328
774.378401	2947.187088
774.703291	2935.993206
775.028135	2922.440064
775.352932	2919.821184
775.677683	2911.084865
776.002388	2897.955179
776.327046	2894.381001
776.651658	2885.639641
776.976224	2877.903990
777.300743	2877.528424
777.625216	2870.485932
777.949643	2865.646424
778.274024	2867.244470
778.598359	2858.119982
778.922647	2856.733664
779.246889	2850.646471
779.571086	2850.139835
779.895236	2849.716378
780.219339	2848.995493
780.543397	2850.356605
780.867409	2850.603621
781.191374	2853.411544
781.515294	2846.923579
781.839167	2849.018178
782.162995	2845.774196
782.486776	2840.990141
782.810511	2836.460664
783.134201	2826.791731
783.457844	2827.227791
783.781441	2822.962975
784.104993	2814.680359
784.428498	2813.518373
784.751958	2809.843372
785.075372	2805.364307
785.398739	2800.068575
785.722061	2801.943884
786.045337	2799.352731
786.368568	2805.162661
786.691752	2803.057979
787.014891	2821.125474
787.337983	2839.623988
787.661030	2874.667569
787.984031	2914.190215
788.306987	2935.594955
788.629897	2943.388578
788.952760	2938.642332
789.275579	2923.218922
789.598351	2898.910478
789.921078	2877.455327
790.243759	2851.899198
790.566395	2832.452947
790.888984	2817.669763
791.211529	2803.831796
791.534027	2788.012655
791.856480	2776.992693
792.178888	2771.792743
792.501249	2762.345620
792.823566	2754.859507
793.145836	2748.379104
793.468062	2749.951944
793.790241	2746.521438
794.112375	2746.728126
794.434464	2755.368663
794.756507	2753.664753
795.078505	2759.416710
795.400457	2776.574277
795.722364	2793.394087
796.044226	2810.990234
796.366042	2824.745023
796.687812	2822.128664
797.009538	2821.944662
797.331218	2815.925524
797.652852	2813.936789
797.974442	2799.582103
798.295986	2794.125054
798.617484	2782.517797
798.938938	2774.283073
799.260346	2771.195366
799.581709	2759.630959
799.903026	2754.025196
800.224299	2745.566140
800.545526	2737.591034
800.866708	2732.900241
801.187845	2729.061402
801.508936	2722.855742
801.829983	2723.317007
802.150984	2713.431305
802.471940	2714.346274
802.792851	2709.842003
803.113717	2709.239585
803.434538	2706.179605
803.755314	2702.698688
804.076045	2703.717001
804.396731	2696.944211
804.717372	2702.441589
805.037967	2699.517720
805.358518	2703.860674
805.679024	2703.895962
805.999485	2705.060469
806.319901	2707.187836
806.640272	2707.220603
806.960598	2708.831252
807.280879	2706.172043
807.601115	2712.816284
807.921306	2705.796477
808.241453	2706.040973
808.561554	2701.932433
808.881611	2702.784388
809.201623	2701.158616
809.521590	2702.083667
809.841513	2700.949408
810.161390	2698.895137
810.481223	2693.589323
810.801011	2692.510516
811.120755	2689.367357
811.440453	2685.241172
811.760107	2683.955678
812.079716	2681.944258
812.399281	2680.230265
812.718801	2678.891839
813.038276	2675.509225
813.357707	2670.147958
813.677093	2672.489574
813.996434	2668.751558
814.315731	2670.115190
814.634983	2670.107628
814.954191	2666.200734
815.273354	2671.675427
815.592473	2673.636436
815.911547	2679.542148
816.230577	2681.387210
816.549562	2687.907943
816.868502	2690.670495
817.187399	2689.127902
817.506250	2698.020497
817.825058	2697.123172
818.143821	2705.718339
818.462539	2716.864330
818.781213	2726.019066
819.099843	2746.115626
819.418429	2781.310441
819.736970	2817.417706
820.055466	2854.979343
820.373919	2903.336611
820.692327	2974.210193
821.010691	3096.581682
821.329011	3411.401740
821.647286	4006.812421
821.965517	4792.514056
822.283704	5334.314586
822.601847	5572.506585
822.919945	5270.392756
823.237999	4914.215072
823.556010	4549.641346
823.873976	4227.100761
824.191897	3942.220116
824.509775	3725.911767
824.827609	3521.941641
825.145398	3387.378121
825.463144	3306.548260
825.780845	3287.568316
826.098502	3320.988646
826.416116	3433.187086
826.733685	3564.854463
827.051210	3628.662868
827.368692	3597.548866
827.686129	3462.660192
828.003522	3324.061229
828.320872	3190.856300
828.638177	3083.570464
828.955439	3002.604492
829.272656	2931.793925
829.589830	2873.944164
829.906960	2827.424396
830.224046	2787.445525
830.541088	2757.793458
830.858086	2736.625653
831.175041	2720.524208
831.491952	2713.063300
831.808819	2710.061293
832.125642	2719.871379
832.442421	2741.792836
832.759157	2787.551390
833.075849	2869.381919
833.392497	2974.472333
833.709101	3056.605332
834.025662	3069.682085
834.342179	3032.909388
834.658653	2966.295582
834.975083	2899.454923
835.291469	2849.635720
835.607811	2798.278965
835.924110	2770.504728
836.240366	2739.158833
836.556578	2708.788402
836.872746	2686.037675
837.188871	2669.008657
837.504952	2653.630617
837.820990	2640.064872
838.136984	2628.694550
838.452935	2625.513582
838.768842	2624.654065
839.084706	2633.435755
839.400526	2669.008657
839.716303	2716.821481
840.032037	2755.091400
840.347727	2762.098604
840.663373	2741.719739
840.978977	2704.700026
841.294537	2679.847138
841.610054	2657.734116
841.925527	2644.995121
842.240957	2634.680920
842.556344	2620.880761
842.871687	2607.090685
843.186987	2598.014087
843.502244	2590.810278
843.817458	2583.160328
844.132629	2576.783268
844.447756	2571.812690
844.762840	2568.087278
845.077881	2567.958728
845.392879	2564.981927
845.707833	2559.363561
846.022745	2560.288613
846.337613	2558.536812
846.652438	2555.058415
846.967221	2557.919270
847.281960	2555.209650
847.596656	2554.468600
847.911309	2554.095555
848.225919	2551.837118
848.540485	2553.914073
848.855009	2553.331820
849.169490	2549.606407
849.483928	2551.728733
849.798323	2551.489278
850.112675	2547.968033
850.426984	2549.694628
850.741251	2548.313352
851.055474	2548.699000
851.369654	2548.709082
851.683792	2549.044319
851.997887	2546.143135
852.311938	2548.988866
852.625947	2550.811243
852.939914	2546.934596
853.253837	2549.329144
853.567718	2547.794113
853.881555	2548.943496
854.195350	2549.694628
854.509103	2547.446273
854.822812	2547.746222
855.136479	2547.975594
855.450103	2548.504915
855.763685	2545.926365
856.077224	2542.992414
856.390720	2546.380069
856.704173	2545.487785
857.017584	2546.044832
857.330953	2552.101779
857.644278	2549.734957
857.957561	2552.431974
858.270802	2549.172868
858.584000	2551.983312
858.897155	2550.037426
859.210268	2550.826367
859.523339	2545.281097
859.836367	2545.833104
860.149352	2550.473486
860.462295	2547.741181
860.775195	2546.596839
861.088054	2547.836962
861.400869	2547.169010
861.713642	2545.104657
862.026373	2548.948537
862.339062	2549.422405
862.651708	2549.644216
862.964312	2546.430481
863.276873	2551.033054
863.589392	2550.844011
863.901869	2553.649413
864.214303	2555.920453
864.526696	2554.818961
864.839045	2556.212840
865.151353	2558.541853
865.463619	2560.270968
865.775842	2558.572100
866.088023	2557.780638
866.400162	2559.855073
866.712258	2558.491441
867.024313	2562.282389
867.336325	2558.577141
867.648296	2557.828529
867.960224	2559.736606
868.272110	2559.608057
868.583954	2559.978582
868.895755	2562.148798
869.207515	2558.783828
869.519233	2563.257852
869.830909	2561.816082
870.142542	2563.066288
870.454134	2563.925805
870.765684	2565.977555
871.077191	2566.272462
871.388657	2565.990157
871.700081	2565.622153
872.011463	2566.879921
872.322803	2564.336659
872.634101	2568.346897
872.945357	2574.613051
873.256571	2575.321333
873.567744	2573.872002
873.878874	2579.019020
874.189963	2579.918866
874.501010	2578.991293
874.812015	2578.373752
875.122979	2578.436766
875.433900	2579.192939
875.744780	2581.063207
876.055618	2580.080182
876.366415	2583.114957
876.677169	2582.739391
876.987882	2585.857345
877.298554	2589.320618
877.609183	2591.644589
877.919771	2594.233222
878.230317	2600.693461
878.540822	2608.633278
878.851285	2617.621655
879.161707	2632.843419
879.472087	2653.580206
879.782425	2687.358457
880.092722	2750.337592
880.402977	2849.381142
880.713191	2991.536639
881.023363	3148.472799
881.333494	3260.293153
881.643583	3317.406906
881.953631	3312.849703
882.263637	3273.609361
882.573602	3219.802606
882.883526	3166.268072
883.193408	3107.457972
883.503248	3049.028478
883.813048	2997.873369
884.122806	2946.110802
884.432522	2893.271948
884.742197	2851.127901
885.051831	2807.368165
885.361424	2768.934408
885.670975	2736.078688
885.980485	2709.552137
886.289954	2687.045905
886.599382	2670.886487
886.908768	2652.408137
887.218113	2635.411887
887.527417	2630.882410
887.836680	2614.312138
888.145901	2613.699637
888.455082	2605.545571
888.764221	2599.642380
889.073319	2591.720207
889.382376	2592.672985
889.691392	2589.933118
890.000366	2590.275916
890.309300	2586.641244
890.618193	2587.185689
890.927044	2586.066553
891.235855	2586.152252
891.544625	2586.391707
891.853353	2588.072932
892.162041	2594.079467
892.470687	2598.024170
892.779293	2605.497680
893.087858	2615.748867
893.396381	2632.586320
893.704864	2658.550783
894.013306	2691.333407
894.321707	2729.026114
894.630068	2756.129878
894.938387	2770.441713
895.246665	2766.741507
895.554903	2753.886564
895.863100	2732.310426
896.171256	2716.387941
896.479371	2698.766588
896.787446	2680.661284
897.095480	2667.579490
897.403473	2656.093221
897.711425	2648.229021
898.019336	2639.754841
898.327207	2627.260341
898.635038	2621.047119
898.942827	2608.280397
899.250576	2604.197062
899.558284	2592.330186
899.865952	2589.945721
900.173579	2586.449680
900.481165	2580.526325
900.788711	2578.537589
901.096216	2573.844275
901.403681	2572.861250
901.711105	2571.364027
902.018489	2573.435942
902.325832	2570.544840
902.633135	2572.944429
902.940397	2586.164855
903.247619	2606.876436
903.554800	2652.128353
903.861941	2712.362580
904.169041	2770.718977
904.476101	2801.759882
904.783121	2802.989923
905.090100	2783.152983
905.397039	2753.654671
905.703938	2728.048130
906.010796	2703.101980
906.317614	2684.225380
906.624391	2664.955569
906.931129	2651.422592
907.237826	2639.580921
907.544483	2624.197840
907.851099	2610.211159
908.157675	2594.961669
908.464211	2583.001531
908.770707	2573.670355
909.077163	2564.074519
909.383578	2557.369784
909.689954	2555.305432
909.996289	2548.923331
910.302584	2550.044988
910.608839	2544.524924
910.915054	2548.787220
911.221229	2543.105840
911.527363	2542.745397
911.833458	2546.601880
912.139513	2546.969884
912.445527	2543.393185
912.751502	2549.213198
913.057436	2552.726882
913.363331	2557.127809
913.669186	2563.051165
913.975000	2574.214800
914.280775	2584.917170
914.586510	2605.963987
914.892205	2631.487349
915.197859	2665.857936
915.503475	2704.858822
915.809050	2742.876684
916.114585	2769.874584
916.420081	2782.802623
916.725536	2788.703293
917.030952	2774.494801
917.336328	2759.091556
917.641665	2744.510018
917.946961	2727.342369
918.252218	2715.956923
918.557435	2696.717359
918.862612	2686.403158
919.167750	2672.338339
919.472848	2659.763181
919.777906	2642.719040
920.082925	2632.755199
920.387904	2616.444546
920.692843	2608.633278
920.997743	2597.588110
921.302603	2590.878334
921.607423	2581.655543
921.912204	2573.982907
922.216946	2565.380178
922.521647	2566.713563
922.826310	2559.608057
923.130932	2554.924825
923.435516	2551.738816
923.740059	2551.068342
924.044564	2547.226983
924.349028	2544.141797
924.653454	2539.645088
924.957840	2537.845396
925.262186	2536.680889
925.566493	2533.109232
925.870761	2534.276259
926.174989	2529.557739
926.479178	2531.186031
926.783328	2528.975485
927.087438	2527.750485
927.391509	2527.082532
927.695541	2522.169928
927.999533	2526.361647
928.303486	2523.100021
928.607400	2524.330062
928.911275	2521.433919
929.215110	2521.181862
929.518906	2518.920904
929.822663	2521.776718
930.126381	2522.167407
930.430060	2521.196985
930.733699	2519.321676
931.037299	2518.782272
931.340861	2520.360153
931.644383	2520.723117
931.947866	2521.393590
932.251309	2522.701769
932.554714	2520.622293
932.858080	2517.688342
933.161407	2519.354443
933.464694	2516.778414
933.767943	2517.035513
934.071153	2520.939886
934.374323	2519.190606
934.677455	2519.414937
934.980548	2518.298322
935.283602	2515.346726
935.586617	2520.171110
935.889593	2516.299504
936.192530	2518.777231
936.495428	2517.990811
936.798287	2517.640451
937.101108	2521.441481
937.403890	2521.564989
937.706632	2523.336955
938.009336	2526.515402
938.312002	2527.735362
938.614628	2534.243491
938.917216	2532.708460
939.219765	2531.954807
939.522275	2536.849768
939.824747	2537.394212
940.127179	2538.253729
940.429573	2539.841692
940.731929	2536.600231
941.034246	2534.084695
941.336524	2536.839685
941.638763	2533.023532
941.940964	2534.740045
942.243126	2531.909437
942.545250	2534.256094
942.847335	2530.228212
943.149381	2530.162677
943.451389	2526.081863
943.753359	2526.805269
944.055290	2525.295443
944.357182	2525.623118
944.659036	2523.231091
944.960851	2525.229908
945.262628	2521.355781
945.564367	2524.758560
945.866067	2524.196472
946.167729	2520.027437
946.469352	2524.723272
946.770937	2519.924094
947.072484	2521.290246
947.373992	2523.457943
947.675462	2522.265710
947.976893	2517.358146
948.278286	2516.526356
948.579641	2519.120030
948.880958	2514.850172
949.182236	2518.895698
949.483476	2518.056346
949.784678	2517.428723
950.085841	2522.479959
950.386967	2518.600791
950.688054	2519.651871
950.989103	2517.315297
951.290114	2518.308404
951.591087	2523.278982
951.892021	2523.301667
952.192917	2523.031965
952.493776	2524.776204
952.794596	2524.597243
953.095378	2525.431554
953.396122	2525.570186
953.696828	2524.042716
953.997496	2522.432068
954.298126	2523.679753
954.598718	2521.075997
954.899272	2521.196985
955.199788	2521.363343
955.500266	2519.924094
955.800706	2517.879906
956.101108	2517.184227
956.401472	2514.388907
956.701798	2515.999555
957.002087	2510.418998
957.302337	2513.897394
957.602550	2510.260202
957.902724	2508.946981
958.202861	2508.147958
958.502960	2508.959584
958.803022	2507.842968
959.103045	2506.355828
959.403031	2505.987824
959.702979	2500.482884
960.002889	2503.868019
960.302762	2502.852226
960.602596	2499.525065
960.902393	2500.064468
961.202153	2500.273676
961.501875	2501.874242
961.801559	2500.308964
962.101205	2502.053203
962.400814	2501.647390
962.700385	2497.800990
962.999918	2495.436689
963.299414	2498.915085
963.598873	2498.194200
963.898293	2493.069867
964.197677	2495.706391
964.497022	2496.626401
964.796331	2500.087153
965.095601	2494.710763
965.394835	2495.915598
965.694030	2497.838799
965.993189	2497.858963
966.292309	2498.663027
966.591393	2498.206803
966.890439	2496.616319
967.189447	2499.857781
967.488419	2496.034066
967.787353	2495.035917
968.086249	2496.102121
968.385108	2495.650938
968.683930	2496.293685
968.982714	2496.913747
969.281462	2498.040445
969.580172	2497.067502
969.878844	2496.455002
970.177480	2496.228150
970.476078	2498.645383
970.774639	2496.623881
971.073162	2497.695126
971.371649	2499.605723
971.670098	2498.176556
971.968510	2498.068171
972.266885	2499.025990
972.565223	2496.502893
972.863524	2498.421052
973.161788	2496.933912
973.460014	2498.025321
973.758204	2497.397698
974.056356	2499.444406
974.354471	2497.511124
974.652550	2496.525578
974.950591	2498.037924
975.248595	2497.743017
975.546563	2497.377533
975.844493	2496.833088
976.142386	2497.465753
976.440243	2497.649755
976.738062	2498.983141
977.035845	2496.066833
977.333590	2498.050527
977.631299	2496.177738
977.928971	2493.765546
978.226606	2491.706235
978.524204	2496.243273
978.821765	2490.924856
979.119290	2494.998108
979.416777	2497.372492
979.714228	2494.383088
980.011642	2493.208499
980.309020	2496.258397
980.606360	2495.235043
980.903664	2494.383088
981.200931	2499.953563
981.498162	2499.509941
981.795356	2501.657473
982.092513	2507.021260
982.389633	2510.187105
982.686717	2516.261695
982.983764	2518.676408
983.280775	2522.142201
983.577749	2521.764115
983.874686	2521.416275
984.171587	2520.594567
984.468451	2518.290760
984.765279	2517.826974
985.062070	2513.594925
985.358824	2513.017713
985.655543	2509.188957
985.952224	2510.408916
986.248869	2505.513955
986.545478	2503.336177
986.842050	2500.936588
987.138586	2495.219919
987.435086	2497.064982
987.731549	2494.761174
988.027975	2492.190186
988.324366	2491.892758
988.620719	2491.126502
988.917037	2491.963334
989.213318	2487.527118
989.509563	2488.419403
989.805772	2490.282109
990.101944	2489.455360
990.398080	2489.868734
990.694180	2487.320431
990.990244	2489.795638
991.286271	2489.331852
991.582262	2487.141470
991.878217	2487.688435
992.174136	2490.640031
992.470019	2484.885554
992.765865	2486.924701
993.061676	2483.126191
993.357450	2488.147180
993.653188	2483.610142
993.948890	2491.116420
994.244556	2491.192037
994.540186	2491.408807
994.835780	2493.858808
995.131337	2492.134733
995.426859	2495.245125
995.722345	2497.372492
996.017795	2499.560353
996.313208	2503.585714
996.608586	2506.701147
996.903928	2502.143944
997.199234	2502.189314
997.494504	2503.585714
997.789738	2502.890035
998.084936	2501.594458
998.380099	2501.360045
998.675225	2497.127996
998.970316	2498.226967
999.265371	2496.321411
999.560390	2496.044148
999.855373	2494.846874
1000.150320	2492.278406
1000.445232	2493.379898
1000.740108	2486.599546
1001.034948	2487.552324
1001.329752	2487.179279
1001.624521	2486.201295
1001.919254	2484.028558
1002.213951	2486.957468
1002.508613	2482.284318
1002.803239	2485.049391
1003.097829	2483.330358
1003.392384	2480.361118
1003.686903	2484.517550
1003.981386	2480.862713
1004.275834	2482.526294
1004.570246	2481.739874
1004.864623	2483.456387
1005.158964	2482.465800
1005.453270	2480.716520
1005.747540	2479.110912
1006.041775	2482.496047
1006.335974	2482.503609
1006.630138	2481.134935
1006.924266	2480.204843
1007.218359	2480.711478
1007.512416	2480.305666
1007.806438	2477.323823
1008.100425	2478.402630
1008.394376	2477.117136
1008.688292	2479.657877
1008.982172	2481.296252
1009.276017	2482.090234
1009.569827	2480.779534
1009.863602	2481.268526
1010.157341	2479.060501
1010.451045	2480.335912
1010.744714	2478.153093
1011.038347	2483.277426
1011.331945	2477.643936
1011.625508	2477.248206
1011.919036	2480.504791
1012.212528	2478.417753
1012.505986	2477.379276
1012.799408	2479.463793
1013.092795	2480.698876
1013.386147	2479.766262
1013.679464	2478.082517
1013.972745	2478.516056
1014.265992	2480.708958
1014.559204	2477.848103
1014.852380	2478.022023
1015.145521	2479.748618
1015.438628	2475.796353
1015.731699	2478.400109
1016.024736	2478.248875
1016.317737	2478.289204
1016.610703	2476.577732
1016.903635	2478.735346
1017.196531	2477.787609
1017.489393	2478.193422
1017.782219	2477.641416
1018.075011	2479.272229
1018.367768	2477.459934
1018.660490	2478.541262
1018.953177	2478.541262
1019.245829	2478.541262
