Dividing Wavelength (nm)	Counts (n)	Blue Motor Position (mm): 0.000000	Red Motor Position (mm): 7.000000	
326.493990	2055.815306
326.888308	2055.815306
327.282561	2055.815306
327.676750	2030.486028
328.070874	2031.348066
328.464933	2038.751000
328.858929	2043.567823
329.252859	2057.335214
329.646726	2068.985320
330.040528	2084.716241
330.434265	2101.281473
330.827938	2126.252828
331.221547	2143.848976
331.615091	2164.227840
332.008571	2185.577127
332.401986	2205.787112
332.795338	2223.998281
333.188625	2244.546024
333.581847	2265.580238
333.975006	2280.489451
334.368100	2297.813376
334.761129	2315.197795
335.154095	2330.724549
335.546996	2344.683504
335.939833	2361.646986
336.332606	2372.440097
336.725315	2386.744371
337.117960	2395.228633
337.510540	2405.104253
337.903056	2413.759914
338.295508	2418.768301
338.687896	2428.240629
339.080220	2432.908737
339.472480	2438.648091
339.864676	2438.688420
340.256807	2444.573967
340.648875	2445.685542
341.040879	2447.810388
341.432818	2446.056066
341.824694	2449.872220
342.216506	2449.113526
342.608253	2449.017744
342.999937	2442.895263
343.391557	2448.763166
343.783113	2445.660336
344.174605	2445.486416
344.566033	2442.227310
344.957397	2442.605397
345.348697	2441.650098
345.739934	2437.274376
346.131106	2435.318409
346.522215	2435.094077
346.913260	2433.584252
347.304241	2433.039807
347.695159	2431.784560
348.086012	2429.495876
348.476802	2426.299784
348.867528	2422.395411
349.258191	2420.373908
349.648789	2422.881882
350.039324	2416.517425
350.429796	2422.488672
350.820203	2418.889288
351.210548	2419.489186
351.600828	2420.978847
351.991045	2419.539597
352.381198	2417.818043
352.771288	2417.767632
353.161314	2421.248548
353.551276	2420.187385
353.941175	2417.893660
354.331010	2418.153280
354.720782	2417.427354
355.110490	2419.050605
355.500135	2418.861562
355.889717	2421.230904
356.279235	2419.363157
356.668689	2419.814340
357.058080	2418.080183
357.447408	2421.500606
357.836672	2424.026224
358.225873	2421.593867
358.615010	2425.011770
359.004084	2422.801224
359.393095	2422.854156
359.782043	2422.554207
360.170927	2422.503796
360.559748	2423.630493
360.948505	2424.605957
361.337199	2428.046544
361.725830	2427.860022
362.114398	2423.852304
362.502903	2427.865063
362.891344	2426.493869
363.279722	2428.548139
363.668037	2429.485794
364.056289	2428.648962
364.444478	2430.070568
364.832603	2428.112079
365.220665	2428.243149
365.608665	2429.800866
365.996601	2427.885227
366.384474	2430.660383
366.772284	2432.447472
367.160031	2428.633839
367.547715	2431.469488
367.935336	2431.721545
368.322893	2429.662234
368.710388	2425.833478
369.097820	2429.982347
369.485189	2425.732655
369.872495	2434.300096
370.259738	2435.225147
370.646918	2431.391350
371.034035	2436.435024
371.421090	2438.058276
371.808081	2436.311516
372.195010	2437.380241
372.581875	2436.407298
372.968678	2439.762186
373.355418	2441.483740
373.742096	2443.585901
374.128710	2446.403906
374.515262	2446.789554
374.901751	2449.922631
375.288177	2449.652930
375.674540	2454.409258
376.060841	2460.256997
376.447079	2462.341514
376.833254	2467.186063
377.219367	2474.586477
377.605417	2476.960860
377.991404	2484.666264
378.377329	2491.537356
378.763191	2492.543067
379.148991	2501.594458
379.534727	2511.560819
379.920402	2518.086593
380.306013	2526.066740
380.691563	2538.435211
381.077049	2545.069369
381.462474	2549.314021
381.847835	2562.292471
382.233134	2574.355952
382.618371	2578.945923
383.003545	2592.350351
383.388657	2604.244953
383.773706	2617.984618
384.158693	2626.569703
384.543618	2640.032105
384.928480	2646.343629
385.313280	2659.639672
385.698017	2670.876404
386.082692	2685.266378
386.467305	2692.376926
386.851856	2707.384441
387.236344	2724.103427
387.620770	2726.311453
388.005133	2734.755385
388.389435	2751.229876
388.773674	2752.170051
389.157851	2767.724532
389.541965	2780.450924
389.926018	2779.619134
390.310008	2794.833336
390.693936	2801.190231
391.077802	2809.152734
391.461606	2818.249496
391.845348	2820.465083
392.229027	2823.459528
392.612645	2839.954184
392.996200	2840.296982
393.379694	2849.207222
393.763125	2857.593181
394.146494	2857.832636
394.529801	2862.992257
394.913047	2865.951414
395.296230	2856.670650
395.679351	2853.867768
396.062410	2857.071422
396.445408	2834.890345
396.828343	2832.170642
397.211217	2827.832729
397.594028	2804.383802
397.976778	2803.499080
398.359466	2793.782256
398.742092	2783.858744
399.124656	2771.313833
399.507158	2768.180756
399.889598	2756.124837
400.271977	2752.744743
400.654294	2729.870507
401.036549	2727.019735
401.418742	2713.315358
401.800874	2707.984338
402.182944	2698.569983
402.564952	2694.176617
402.946898	2679.839576
403.328783	2664.275013
403.710606	2655.263951
404.092367	2649.373363
404.474067	2641.209214
404.855705	2625.637090
405.237282	2610.506067
405.618797	2606.337032
406.000250	2600.824531
406.381642	2593.731627
406.762972	2578.320820
407.144240	2565.375137
407.525447	2558.816596
407.906593	2547.317724
408.287677	2547.519370
408.668700	2540.769265
409.049661	2533.121834
409.430560	2525.615556
409.811399	2519.692201
410.192176	2514.182219
410.572891	2511.485202
410.953545	2508.163082
411.334138	2500.815600
411.714669	2497.483397
412.095139	2489.830926
412.475547	2489.420072
412.855894	2486.864207
413.236180	2484.411685
413.616405	2482.727940
413.996568	2476.610500
414.376670	2477.459934
414.756711	2476.912969
415.136691	2473.535396
415.516609	2472.625468
415.896466	2476.078658
416.276262	2470.740076
416.655997	2469.525158
417.035670	2469.263018
417.415283	2470.392237
417.794834	2466.324025
418.174324	2469.293265
418.553753	2468.169088
418.933121	2468.920220
419.312428	2467.589355
419.691674	2465.751854
420.070859	2466.306381
420.449983	2466.916361
420.829045	2465.005764
421.208047	2466.094653
421.586988	2467.917030
421.965867	2464.526854
422.344686	2466.928964
422.723444	2467.644808
423.102141	2466.381999
423.480777	2464.610033
423.859352	2465.643470
424.237866	2465.267904
424.616319	2466.679427
424.994712	2464.967955
425.373044	2468.189252
425.751314	2462.744806
426.129524	2461.640793
426.507673	2463.138016
426.885762	2458.666513
427.263789	2465.053655
427.641756	2465.532564
428.019662	2467.586834
428.397508	2467.551546
428.775292	2466.870991
429.153016	2465.678758
429.530679	2464.690692
429.908282	2467.717904
430.285824	2465.502317
430.663305	2467.334777
431.040726	2465.663634
431.418086	2467.140692
431.795385	2467.160857
432.172624	2466.818058
432.549802	2464.302523
432.926920	2469.421814
433.303977	2468.229582
433.680974	2468.837041
434.057910	2468.237143
434.434786	2469.822586
434.811601	2471.546661
435.188355	2473.124542
435.565050	2468.622792
435.941683	2467.110445
436.318257	2468.161526
436.694770	2467.581793
437.071222	2468.206896
437.447614	2468.020374
437.823946	2468.867288
438.200218	2470.044397
438.576429	2472.040694
438.952580	2471.549181
439.328670	2468.907617
439.704700	2471.818883
440.080670	2468.005250
440.456580	2471.571867
440.832429	2471.012298
441.208218	2471.181177
441.583947	2471.526496
441.959616	2468.242184
442.335224	2469.252936
442.710773	2470.689665
443.086261	2473.313585
443.461689	2471.836527
443.837057	2471.884418
444.212365	2472.665797
444.587612	2467.496094
444.962800	2468.287555
445.337927	2471.327371
445.712995	2466.308902
446.088002	2471.909624
446.462949	2473.268215
446.837837	2472.501959
447.212664	2474.823411
447.587431	2474.195787
447.962139	2475.655201
448.336786	2476.522280
448.711374	2478.642085
449.085901	2479.340285
449.460369	2475.282156
449.834776	2474.430201
450.209124	2475.556899
450.583412	2476.529841
450.957640	2477.081848
451.331808	2477.676704
451.705917	2474.377269
452.079965	2476.043370
452.453954	2475.859368
452.827883	2475.730818
453.201752	2474.397433
453.575562	2476.907928
453.949311	2475.657722
454.323001	2476.933134
454.696632	2478.599235
455.070202	2478.465644
455.443713	2476.955819
455.817164	2477.137300
456.190556	2480.451859
456.563888	2479.345326
456.937160	2479.158803
457.310373	2476.829790
457.683526	2478.367342
458.056619	2479.544451
458.429653	2477.008751
458.802628	2477.769965
459.175542	2476.668473
459.548398	2481.056797
459.921194	2479.365490
460.293930	2481.044195
460.666607	2480.955974
461.039224	2485.810606
461.411782	2483.501757
461.784280	2479.108392
462.156719	2481.001345
462.529099	2485.646768
462.901419	2481.208032
463.273680	2477.908597
463.645882	2475.103195
464.018024	2480.182157
464.390106	2478.059832
464.762130	2483.811788
465.134094	2484.320945
465.505999	2488.356388
465.877845	2491.005515
466.249631	2490.408138
466.621358	2491.431492
466.993026	2487.948055
467.364634	2491.859990
467.736184	2488.343785
468.107674	2487.010400
468.479105	2484.643578
468.850477	2486.740698
469.221790	2488.679022
469.593043	2486.400421
469.964238	2483.194247
470.335373	2486.034937
470.706449	2486.249186
471.077467	2486.597026
471.448425	2486.697849
471.819324	2488.900833
472.190164	2491.426451
472.560945	2486.962509
472.931667	2489.142808
473.302330	2486.831439
473.672934	2487.897643
474.043479	2489.886378
474.413965	2489.641883
474.784393	2485.631645
475.154761	2486.163486
475.525070	2484.164669
475.895321	2487.237252
476.265513	2486.080307
476.635645	2486.526449
477.005719	2489.800679
477.375734	2486.216418
477.745691	2486.375215
478.115588	2491.673468
478.485427	2487.181799
478.855207	2491.096255
479.224928	2494.493993
479.594591	2493.261431
479.964194	2493.440392
480.333739	2492.265803
480.703226	2493.034579
481.072653	2497.064982
481.442022	2492.762357
481.811333	2493.190855
482.180584	2489.460401
482.549777	2492.555669
482.918912	2487.927890
483.287988	2491.174393
483.657005	2496.825527
484.025964	2493.084991
484.394864	2494.325114
484.763706	2494.173880
485.132489	2494.340238
485.501213	2490.274547
485.869879	2490.894609
486.238487	2493.286637
486.607036	2491.118941
486.975527	2494.194044
487.343959	2492.167501
487.712333	2494.095742
488.080648	2492.134733
488.448905	2491.988540
488.817104	2490.062819
489.185244	2494.751092
489.553326	2494.672954
489.921350	2495.592965
490.289315	2498.640342
490.657222	2496.989364
491.025070	2499.283089
491.392861	2501.561691
491.760593	2498.930208
492.128267	2497.332163
492.495883	2495.562718
492.863440	2494.781339
493.230939	2496.117245
493.598380	2495.333345
493.965763	2493.790752
494.333088	2493.077429
494.700354	2490.927377
495.067563	2496.260918
495.434713	2492.245638
495.801805	2495.030876
496.168839	2493.024497
496.535815	2495.116576
496.902733	2493.994919
497.269593	2492.401914
497.636395	2492.464929
498.003139	2492.739672
498.369825	2493.236225
498.736453	2493.377378
499.103023	2492.643890
499.469535	2494.733448
499.835989	2493.319404
500.202385	2492.170021
500.568723	2490.677840
500.935003	2491.696153
501.301226	2488.570637
501.667390	2490.110710
502.033497	2492.691781
502.399546	2492.613643
502.765537	2492.855618
503.131470	2492.719507
503.497345	2490.289671
503.863163	2493.833602
504.228923	2491.585247
504.594625	2496.059271
504.960269	2491.930566
505.325856	2492.923674
505.691385	2491.943169
506.056856	2494.655310
506.422270	2495.015753
506.787625	2489.841008
507.152924	2491.973416
507.518164	2495.250166
507.883347	2494.199086
508.248472	2490.017448
508.613540	2493.281596
508.978550	2495.325783
509.343503	2492.593478
509.708398	2493.115238
510.073236	2492.278406
510.438016	2497.165805
510.802738	2494.178921
511.167403	2494.002481
511.532010	2493.314363
511.896561	2492.845536
512.261053	2497.080105
512.625488	2494.204127
512.989866	2494.017604
513.354186	2493.735299
513.718449	2493.659682
514.082655	2495.988695
514.446803	2494.458705
514.810894	2494.957779
515.174927	2493.047182
515.538904	2494.325114
515.902822	2493.321925
516.266684	2493.077429
516.630488	2492.490134
516.994235	2493.115238
517.357925	2494.725886
517.721558	2496.606237
518.085133	2494.617501
518.448651	2491.232367
518.812112	2491.998622
519.175516	2491.408807
519.538863	2488.802530
519.902152	2495.913078
520.265385	2492.767398
520.628560	2497.163284
520.991678	2494.733448
521.354739	2496.931391
521.717743	2493.001812
522.080690	2495.013232
522.443580	2494.688077
522.806413	2493.826040
523.169189	2492.313694
523.531908	2491.204640
523.894569	2493.332007
524.257174	2491.968375
524.619722	2494.478870
524.982213	2492.054075
525.344647	2495.441730
525.707025	2493.125320
526.069345	2494.917450
526.431608	2495.930722
526.793815	2492.885865
527.155964	2496.144971
527.518057	2495.290495
527.880093	2496.356699
528.242072	2495.177069
528.603995	2496.044148
528.965860	2493.395022
529.327669	2495.285454
529.689421	2493.674806
530.051117	2495.837461
530.412755	2495.350989
530.774337	2494.970382
531.135862	2492.873262
531.497331	2495.658500
531.858743	2490.158601
532.220098	2496.765033
532.581396	2492.802686
532.942638	2495.635814
533.303824	2493.208499
533.664953	2493.069867
534.026025	2491.928046
534.387040	2493.672285
534.747999	2494.783859
535.108902	2495.172028
535.469748	2496.011380
535.830537	2495.650938
536.191270	2495.527430
536.551947	2494.884682
536.912567	2490.211533
537.273131	2491.915443
537.633638	2488.953765
537.994089	2493.518530
538.354483	2494.715804
538.714821	2492.175062
539.075103	2494.897285
539.435328	2496.868377
539.795497	2493.407624
540.155609	2494.851915
540.515665	2495.106493
540.875665	2495.802173
541.235609	2491.940649
541.595496	2494.720845
541.955328	2493.281596
542.315102	2494.499034
542.674821	2490.501399
543.034483	2494.098262
543.394090	2496.207985
543.753640	2494.181442
544.113134	2490.866883
544.472571	2494.980464
544.831953	2494.499034
545.191278	2495.928201
545.550548	2495.056082
545.909761	2497.705208
546.268918	2493.982316
546.628019	2495.421565
546.987064	2491.169352
547.346053	2493.309322
547.704986	2492.384270
548.063863	2496.001298
548.422684	2495.534991
548.781449	2494.998108
549.140158	2495.751761
549.498811	2492.661534
549.857408	2492.653972
550.215949	2493.805876
550.574434	2493.440392
550.932864	2495.537512
551.291237	2493.193375
551.649555	2493.319404
552.007817	2495.315701
552.366022	2495.958448
552.724173	2491.741523
553.082267	2495.224960
553.440305	2495.784528
553.798288	2494.418376
554.156215	2494.322594
554.514086	2492.943838
554.871902	2491.048364
555.229661	2493.795793
555.587365	2487.408651
555.945014	2492.888386
556.302606	2492.520381
556.660143	2493.856287
557.017625	2494.567090
557.375050	2493.984837
557.732421	2496.999447
558.089735	2492.946359
558.446994	2493.422748
558.804197	2496.172697
559.161345	2496.296206
559.518437	2495.179590
559.875474	2494.599857
560.232455	2496.124806
560.589381	2494.781339
560.946251	2494.267141
561.303065	2494.935094
561.659825	2495.230002
562.016528	2494.332676
562.373177	2498.065651
562.729770	2494.612460
563.086307	2498.287461
563.442789	2494.776298
563.799216	2495.426607
564.155587	2495.809734
564.511904	2497.286792
564.868164	2496.076915
565.224370	2493.770587
565.580520	2495.847543
565.936615	2496.654127
566.292654	2494.254538
566.648638	2494.040289
567.004567	2496.049189
567.360441	2494.355361
567.716260	2495.078767
568.072023	2496.560866
568.427732	2494.937615
568.783385	2492.689260
569.138982	2493.667244
569.494525	2493.949548
569.850013	2494.584734
570.205445	2497.604385
570.560823	2493.392501
570.916145	2496.341576
571.271412	2495.514827
571.626625	2496.089518
571.981782	2493.281596
572.336884	2494.015083
572.691931	2491.978457
573.046923	2491.587768
573.401860	2486.289515
573.756743	2494.662872
574.111570	2492.220433
574.466342	2495.247646
574.821059	2493.798314
575.175722	2496.218068
575.530330	2495.905516
575.884882	2493.437871
576.239380	2496.981803
576.593823	2498.113542
576.948211	2492.497696
577.302544	2496.858294
577.656823	2494.120948
578.011047	2494.186483
578.365216	2494.748571
578.719330	2494.068016
579.073389	2497.218737
579.427394	2495.103973
579.781344	2494.070536
580.135239	2495.701349
580.489080	2494.083139
580.842866	2494.645228
581.196597	2494.219250
581.550273	2491.653303
581.903895	2493.407624
582.257463	2494.735968
582.610975	2493.725217
582.964434	2492.900988
583.317837	2492.923674
583.671186	2497.823675
584.024481	2493.750423
584.377721	2494.564569
584.730906	2492.399394
585.084037	2496.084477
585.437113	2494.146153
585.790135	2490.839157
586.143103	2493.417707
586.496016	2494.814106
586.848874	2495.272851
587.201679	2495.600526
587.554428	2494.511637
587.907124	2493.591627
588.259765	2491.638179
588.612352	2494.327635
588.964884	2495.219919
589.317362	2495.280413
589.669786	2492.439723
590.022155	2492.792604
590.374470	2486.559217
590.726731	2493.861328
591.078937	2490.125833
591.431090	2495.109014
591.783188	2493.624394
592.135232	2493.200937
592.487222	2495.003150
592.839157	2493.828561
593.191038	2495.174549
593.542866	2492.091883
593.894639	2493.465598
594.246358	2494.975423
594.598022	2489.949393
594.949633	2494.171359
595.301190	2490.526605
595.652692	2489.329331
596.004141	2492.638848
596.355535	2492.263282
596.706876	2492.689260
597.058162	2490.952583
597.409395	2491.063488
597.760573	2494.299909
598.111698	2489.987202
598.462768	2492.119610
598.813785	2492.754795
599.164748	2492.109527
599.515657	2493.188334
599.866511	2492.139774
600.217312	2493.505927
600.568060	2493.407624
600.918753	2494.557008
601.269392	2496.447440
601.619978	2492.679178
601.970510	2492.107007
602.320988	2495.638335
602.671412	2492.865700
603.021783	2493.105155
603.372100	2491.242449
603.722363	2493.243787
604.072572	2492.343941
604.422728	2492.369147
604.772830	2491.809579
605.122878	2492.049033
605.472872	2490.710607
605.822813	2494.869559
606.172701	2492.747233
606.522534	2492.046513
606.872314	2494.115907
607.222041	2492.628766
607.571714	2488.777325
607.921333	2487.234732
608.270899	2490.151039
608.620411	2489.294043
608.969870	2490.579537
609.319276	2489.581389
609.668627	2491.494507
610.017926	2494.098262
610.367171	2492.170021
610.716362	2493.016935
611.065500	2492.553149
611.414585	2493.878972
611.763616	2495.058602
612.112594	2493.357213
612.461518	2493.190855
612.810389	2493.211019
613.159207	2494.226812
613.507971	2489.054588
613.856682	2497.521206
614.205340	2491.358395
614.553945	2494.118427
614.902496	2491.562562
615.250994	2493.755464
615.599439	2493.016935
615.947830	2492.091883
616.296169	2492.737151
616.644454	2493.785711
616.992686	2494.110865
617.340864	2494.385608
617.688990	2492.709425
618.037063	2493.029538
618.385082	2492.442243
618.733048	2491.093735
619.080961	2493.309322
619.428821	2492.553149
619.776628	2490.816471
620.124382	2491.658344
620.472083	2492.984168
620.819731	2492.480052
621.167326	2493.836122
621.514868	2493.944507
621.862357	2493.868890
622.209793	2491.310504
622.557176	2491.837305
622.904506	2491.184476
623.251783	2491.638179
623.599007	2493.586585
623.946179	2493.868890
624.293297	2491.507109
624.640363	2491.996101
624.987376	2487.396048
625.334336	2491.466780
625.681243	2489.848570
626.028097	2486.889413
626.374899	2491.401245
626.721647	2491.572644
627.068343	2489.987202
627.414987	2492.548108
627.761577	2488.870586
628.108115	2492.439723
628.454600	2489.543580
628.801032	2490.027531
629.147412	2492.343941
629.493739	2491.431492
629.840014	2490.582058
630.186236	2489.326810
630.532405	2492.021307
630.878521	2492.653972
631.224585	2489.220946
631.570597	2489.772953
631.916556	2492.109527
632.262462	2491.184476
632.608316	2490.274547
632.954117	2488.469814
633.299866	2491.136585
633.645562	2488.870586
633.991206	2489.805720
634.336797	2488.379073
634.682336	2489.173055
635.027823	2487.489310
635.373257	2490.415700
635.718639	2487.312869
636.063968	2489.558703
636.409245	2488.270689
636.754470	2490.622387
637.099642	2487.625421
637.444762	2488.409320
637.789829	2488.522746
638.134845	2488.268168
638.479808	2487.264978
638.824719	2488.857983
639.169577	2485.258599
639.514383	2489.336893
639.859137	2487.176758
640.203839	2489.294043
640.548489	2490.108189
640.893086	2489.566265
641.237632	2488.295894
641.582125	2487.874958
641.926566	2484.124340
642.270955	2485.001500
642.615292	2482.740543
642.959576	2485.918990
643.303809	2484.880513
643.647990	2488.275730
643.992118	2486.677684
644.336195	2490.080463
644.680219	2486.904536
645.024192	2487.343116
645.368112	2488.406800
645.711981	2487.484269
646.055797	2485.959320
646.399562	2487.338075
646.743274	2488.096769
647.086935	2488.686584
647.430544	2487.993425
647.774101	2487.559886
648.117606	2490.042654
648.461059	2486.871768
648.804460	2492.210350
649.147810	2486.402941
649.491108	2487.055771
649.834354	2486.511326
650.177548	2487.494351
650.520690	2487.632983
650.863781	2488.348827
651.206820	2487.638024
651.549807	2485.820688
651.892742	2485.518219
652.235626	2488.847901
652.578458	2485.979484
652.921238	2487.779176
653.263967	2487.627942
653.606644	2484.726757
653.949269	2486.786069
654.291843	2484.676346
654.634365	2485.671974
654.976836	2486.987715
655.319255	2486.818836
655.661622	2487.335555
656.003938	2485.427478
656.346203	2486.768425
656.688416	2483.630307
657.030577	2488.633652
657.372687	2484.867910
657.714746	2485.397231
658.056753	2486.783548
658.398708	2484.353712
658.740612	2488.134577
659.082465	2484.414206
659.424266	2483.209370
659.766016	2480.882878
660.107715	2480.789616
660.449362	2478.299286
660.790958	2484.739360
661.132503	2486.022334
661.473996	2486.317242
661.815438	2487.534680
662.156829	2485.266161
662.498168	2485.334217
662.839456	2488.454691
663.180693	2485.823208
663.521879	2484.625934
663.863013	2484.910760
664.204097	2485.132570
664.545129	2483.957982
664.886110	2485.818167
665.227040	2484.550317
665.567918	2486.806233
665.908746	2485.591315
666.249522	2485.863538
666.590248	2485.001500
666.930922	2485.787920
667.271545	2484.141984
667.612118	2486.095431
667.952639	2483.998311
668.293109	2486.498723
668.633528	2483.746253
668.973896	2484.867910
669.314213	2484.504947
669.654480	2483.504278
669.994695	2482.032261
670.334859	2487.610298
670.674973	2484.298259
671.015035	2485.230873
671.355047	2484.280615
671.695008	2485.172900
672.034918	2482.609473
672.374777	2487.143991
672.714585	2484.167189
673.054342	2487.189361
673.394049	2483.474031
673.733705	2486.597026
674.073310	2485.061994
674.412864	2484.734319
674.752368	2485.639206
675.091820	2481.825573
675.431223	2486.448312
675.770574	2487.075935
676.109875	2485.787920
676.449125	2483.345481
676.788324	2479.055459
677.127473	2480.822384
677.466571	2477.331385
677.805619	2482.954792
678.144616	2482.594349
678.483562	2485.190544
678.822458	2485.346819
679.161303	2486.183651
679.500098	2485.092241
679.838842	2484.371356
680.177535	2482.942189
680.516179	2486.415544
680.854771	2482.672487
681.193314	2485.646768
681.531805	2483.952940
681.870247	2486.881851
682.208638	2485.001500
682.546978	2484.991418
682.885268	2485.288846
683.223508	2486.397900
683.561697	2484.396562
683.899836	2483.022848
684.237925	2484.416727
684.575963	2484.441932
684.913951	2485.233393
685.251889	2483.431181
685.589776	2483.900008
685.927614	2484.835142
686.265401	2485.659371
686.603137	2482.990080
686.940824	2485.180461
687.278460	2486.375215
687.616046	2482.788434
687.953582	2485.261120
688.291068	2483.040492
688.628504	2488.305977
688.965889	2482.856489
689.303224	2482.838845
689.640510	2485.440081
689.977745	2486.962509
690.314930	2485.782879
690.652065	2486.377735
690.989150	2483.615183
691.326185	2485.815647
691.663170	2485.440081
692.000105	2484.376397
692.336990	2484.509988
692.673825	2484.444453
693.010610	2483.612662
693.347345	2481.074442
693.684030	2477.036477
694.020665	2482.095275
694.357251	2476.907928
694.693786	2481.013948
695.030272	2484.391521
695.366707	2484.971253
695.703093	2478.183340
696.039429	2482.821201
696.375716	2481.986890
696.711952	2479.572178
697.048139	2481.823053
697.384276	2480.673670
697.720363	2482.324648
698.056400	2481.543269
698.392388	2482.138125
698.728326	2482.725419
699.064214	2481.497898
699.400053	2482.042343
699.735842	2479.325161
700.071581	2480.230048
700.407270	2481.918835
700.742910	2481.429843
701.078501	2480.910604
701.414042	2483.716006
701.749533	2479.171406
702.084974	2479.804071
702.420366	2483.103506
702.755709	2480.996304
703.091002	2481.218114
703.426246	2481.182826
703.761440	2480.172075
704.096584	2479.488999
704.431679	2479.693165
704.766725	2480.351036
705.101721	2478.715182
705.436668	2478.808443
705.771565	2479.604945
706.106413	2479.362970
706.441212	2480.898001
706.775961	2480.661067
707.110661	2480.754328
707.445311	2483.627786
707.779913	2480.361118
708.114465	2479.000007
708.448967	2480.711478
708.783421	2483.365646
709.117825	2480.807260
709.452180	2480.502271
709.786485	2481.510501
710.120742	2478.992445
710.454949	2477.023874
710.789107	2478.911787
711.123216	2475.420787
711.457275	2486.256748
711.791286	2481.490337
712.125247	2483.632827
712.459159	2478.798361
712.793023	2483.093424
713.126837	2483.589977
713.460602	2481.223156
713.794318	2481.409678
714.127985	2478.828608
714.461602	2479.894812
714.795171	2479.211735
715.128691	2482.191057
715.462162	2480.489668
715.795584	2480.068731
716.128957	2478.468165
716.462281	2481.001345
716.795556	2479.045377
717.128782	2478.765593
717.461960	2482.168372
717.795088	2478.291725
718.128167	2479.171406
718.461198	2477.074286
718.794180	2479.075624
719.127113	2478.294245
719.459997	2479.007568
719.792833	2480.078814
720.125619	2480.262816
720.458357	2480.713999
720.791046	2481.734833
721.123686	2477.868268
721.456278	2480.401448
721.788821	2474.735191
722.121315	2478.589153
722.453761	2480.676190
722.786158	2480.540079
723.118506	2479.027733
723.450805	2479.816674
723.783056	2480.376242
724.115259	2479.103350
724.447412	2478.836169
724.779518	2479.428505
725.111574	2475.627475
725.443582	2477.815336
725.775542	2479.136118
726.107453	2479.095789
726.439315	2480.192240
726.771129	2482.019658
727.102895	2477.177630
727.434612	2479.161324
727.766281	2475.713174
728.097901	2479.065542
728.429473	2480.313227
728.760996	2481.255923
729.092471	2479.080665
729.423897	2477.384317
729.755276	2479.166365
730.086606	2478.773155
730.417887	2478.488330
730.749120	2480.250213
731.080305	2479.932620
731.411442	2478.306848
731.742530	2479.438587
732.073570	2483.988228
732.404562	2479.816674
732.735506	2480.955974
733.066401	2480.030923
733.397249	2478.896663
733.728048	2478.994966
734.058798	2478.886581
734.389501	2480.109061
734.720156	2478.511015
735.050762	2478.377424
735.381320	2477.265850
735.711831	2476.318113
736.042293	2480.668629
736.372707	2477.565798
736.703073	2478.422795
737.033391	2479.710809
737.363661	2479.425984
737.693883	2477.379276
738.024056	2477.903556
738.354182	2479.980511
738.684260	2475.509008
739.014290	2478.473206
739.344272	2481.636530
739.674207	2476.847434
740.004093	2481.724750
740.333931	2478.604276
740.663722	2477.648978
740.993464	2475.907259
741.323159	2479.002527
741.652806	2477.805253
741.982405	2477.711992
742.311956	2478.291725
742.641460	2480.898001
742.970915	2476.935654
743.300323	2476.484471
743.629683	2473.520272
743.958996	2476.282825
744.288260	2471.072792
744.617477	2476.739049
744.946647	2478.321972
745.275768	2475.864409
745.604842	2474.974645
745.933869	2475.579584
746.262847	2478.609317
746.591778	2477.895994
746.920662	2478.712661
747.249498	2480.338433
747.578286	2476.867599
747.907027	2477.318782
748.235720	2475.871971
748.564365	2478.901704
748.892963	2479.320120
749.221514	2479.521766
749.550017	2476.381127
749.878473	2476.897846
750.206881	2478.876498
750.535242	2477.754842
750.863555	2477.467496
751.191821	2477.502784
751.520039	2477.452373
751.848210	2476.257619
752.176334	2476.308031
752.504411	2476.625623
752.832440	2476.996148
753.160421	2475.100674
753.488356	2476.343319
753.816243	2476.035808
754.144082	2478.092599
754.471875	2477.686786
754.799620	2476.784420
755.127318	2476.847434
755.454969	2476.940695
755.782572	2478.884060
756.110129	2476.098823
756.437638	2479.400778
756.765100	2475.080510
757.092515	2478.203504
757.419882	2476.093782
757.747203	2477.205356
758.074477	2475.110757
758.401703	2476.176961
758.728882	2475.267032
759.056014	2478.669811
759.383099	2474.682258
759.710138	2475.700572
760.037129	2471.549181
760.364073	2475.370376
760.690970	2473.744604
761.017820	2479.231900
761.344623	2476.025726
761.671379	2478.899184
761.998088	2476.978504
762.324751	2478.145531
762.651366	2476.239975
762.977935	2478.097640
763.304456	2480.088896
763.630931	2482.546458
763.957359	2482.523773
764.283740	2479.504122
764.610074	2477.591004
764.936362	2477.830459
765.262602	2475.985397
765.588796	2475.551858
765.914943	2475.718216
766.241044	2476.360963
766.567097	2475.723257
766.893104	2477.142342
767.219064	2476.620582
767.544978	2476.287866
767.870845	2471.879377
768.196665	2477.379276
768.522438	2475.982876
768.848165	2477.028916
769.173846	2476.315592
769.499479	2475.309882
769.825066	2475.234265
770.150607	2478.427836
770.476101	2474.417598
770.801548	2474.536065
771.126949	2475.998000
771.452303	2475.045222
771.777611	2472.625468
772.102872	2473.462299
772.428087	2476.849955
772.753256	2477.522949
773.078378	2476.441621
773.403453	2474.034470
773.728482	2473.593369
774.053465	2475.904738
774.378401	2475.299800
774.703291	2472.640591
775.028135	2474.969604
775.352932	2475.839203
775.677683	2474.669656
776.002388	2471.372741
776.327046	2469.671352
776.651658	2471.050107
776.976224	2470.624130
777.300743	2475.715695
777.625216	2474.732670
777.949643	2473.948771
778.274024	2475.831642
778.598359	2473.641260
778.922647	2474.157978
779.246889	2473.306023
779.571086	2474.742752
779.895236	2474.110088
780.219339	2473.482464
780.543397	2474.498256
780.867409	2477.568319
781.191374	2475.098154
781.515294	2474.258802
781.839167	2476.668473
782.162995	2473.616054
782.486776	2473.260653
782.810511	2472.552371
783.134201	2473.938688
783.457844	2471.206383
783.781441	2474.299131
784.104993	2474.210911
784.428498	2474.722588
784.751958	2471.201342
785.075372	2473.510190
785.398739	2474.334419
785.722061	2473.767289
786.045337	2474.740232
786.368568	2474.238637
786.691752	2474.573874
787.014891	2473.248050
787.337983	2472.081023
787.661030	2475.889615
787.984031	2473.462299
788.306987	2476.993628
788.629897	2475.345170
788.952760	2474.972125
789.275579	2472.196970
789.598351	2475.030098
789.921078	2475.894656
790.243759	2475.186374
790.566395	2473.197639
790.888984	2473.973976
791.211529	2471.995323
791.534027	2472.935499
791.856480	2475.143524
792.178888	2471.486167
792.501249	2471.516414
792.823566	2473.306023
793.145836	2470.180508
793.468062	2474.349542
793.790241	2475.161168
794.112375	2473.432052
794.434464	2474.067238
794.756507	2472.872484
795.078505	2472.265025
795.400457	2475.214100
795.722364	2471.077833
796.044226	2473.671507
796.366042	2474.775520
796.687812	2475.763586
797.009538	2473.527834
797.331218	2474.808287
797.652852	2475.481281
797.974442	2473.825262
798.295986	2472.564974
798.617484	2473.789974
798.938938	2475.448514
799.260346	2473.795015
799.581709	2473.273256
799.903026	2473.162351
800.224299	2474.011785
800.545526	2473.255612
800.866708	2473.159830
801.187845	2474.248719
801.508936	2471.889459
801.829983	2471.904583
802.150984	2470.697226
802.471940	2475.108236
802.792851	2474.778040
803.113717	2470.845940
803.434538	2473.084213
803.755314	2474.034470
804.076045	2474.231075
804.396731	2471.372741
804.717372	2471.128245
805.037967	2473.941209
805.358518	2471.486167
805.679024	2475.083030
805.999485	2472.948102
806.319901	2474.646970
806.640272	2475.083030
806.960598	2471.014819
807.280879	2472.050776
807.601115	2473.404326
807.921306	2472.275107
808.241453	2471.002216
808.561554	2469.257977
808.881611	2472.358287
809.201623	2470.288893
809.521590	2473.500108
809.841513	2473.900880
810.161390	2472.179326
810.481223	2472.098667
810.801011	2470.853502
811.120755	2474.044552
811.440453	2473.116980
811.760107	2473.278297
812.079716	2473.021198
812.399281	2472.043214
812.718801	2473.232927
813.038276	2468.557257
813.357707	2474.909110
813.677093	2472.585138
813.996434	2473.948771
814.315731	2474.571353
814.634983	2474.122690
814.954191	2472.897690
815.273354	2475.372897
815.592473	2472.769141
815.911547	2472.562453
816.230577	2472.305354
816.549562	2472.335601
816.868502	2472.575056
817.187399	2472.817032
817.506250	2472.685962
817.825058	2471.604634
818.143821	2471.087916
818.462539	2476.013123
818.781213	2471.944912
819.099843	2472.242340
819.418429	2474.072279
819.736970	2474.157978
820.055466	2474.735191
820.373919	2474.977166
820.692327	2475.435911
821.010691	2477.951447
821.329011	2481.230717
821.647286	2487.486789
821.965517	2493.508447
822.283704	2498.557163
822.601847	2500.717297
822.919945	2495.293016
823.237999	2496.195383
823.556010	2494.327635
823.873976	2487.544763
824.191897	2488.099289
824.509775	2480.623258
824.827609	2480.708958
825.145398	2476.018164
825.463144	2478.135449
825.780845	2480.250213
826.098502	2480.187198
826.416116	2481.608804
826.733685	2481.941520
827.051210	2485.472848
827.368692	2485.301449
827.686129	2480.976139
828.003522	2482.445635
828.320872	2479.020171
828.638177	2479.171406
828.955439	2476.068576
829.272656	2474.531024
829.589830	2477.598566
829.906960	2474.752835
830.224046	2477.124698
830.541088	2475.224183
830.858086	2475.519090
831.175041	2473.759727
831.491952	2470.848461
831.808819	2473.003554
832.125642	2475.375417
832.442421	2472.476754
832.759157	2475.443473
833.075849	2476.330716
833.392497	2476.824749
833.709101	2478.894142
834.025662	2479.418423
834.342179	2478.863896
834.658653	2476.025726
834.975083	2477.084368
835.291469	2477.606128
835.607811	2473.638740
835.924110	2471.919706
836.240366	2472.350725
836.556578	2473.114460
836.872746	2473.643781
837.188871	2471.387864
837.504952	2472.307875
837.820990	2471.339973
838.136984	2474.336939
838.452935	2470.099850
838.768842	2471.244192
839.084706	2471.211424
839.400526	2472.529686
839.716303	2471.899542
840.032037	2471.282000
840.347727	2470.949284
840.663373	2470.611527
840.978977	2468.549695
841.294537	2471.135807
841.610054	2473.245530
841.925527	2472.438945
842.240957	2470.425004
842.556344	2472.567494
842.871687	2471.594552
843.186987	2472.325519
843.502244	2472.091105
843.817458	2473.003554
844.132629	2471.506332
844.447756	2472.040694
844.762840	2469.928450
845.077881	2473.467340
845.392879	2470.014150
845.707833	2473.674028
846.022745	2473.003554
846.337613	2470.230920
846.652438	2471.229068
846.967221	2472.005406
847.281960	2472.244861
847.596656	2475.214100
847.911309	2472.191928
848.225919	2470.588842
848.540485	2468.902576
848.855009	2472.002885
849.169490	2469.822586
849.483928	2469.119345
849.798323	2469.421814
850.112675	2468.758903
850.426984	2470.913996
850.741251	2468.978193
851.055474	2471.287041
851.369654	2468.335446
851.683792	2472.166723
851.997887	2471.269397
852.311938	2470.104891
852.625947	2470.150261
852.939914	2470.805611
853.253837	2474.304172
853.567718	2469.227730
853.881555	2472.302834
854.195350	2468.675724
854.509103	2471.629840
854.822812	2471.350056
855.136479	2469.164716
855.450103	2472.580097
855.763685	2469.628502
856.077224	2464.448716
856.390720	2468.708491
856.704173	2465.991309
857.017584	2470.114973
857.330953	2468.516927
857.644278	2471.400467
857.957561	2471.155971
858.270802	2469.966259
858.584000	2468.897534
858.897155	2469.280662
859.210268	2469.036166
859.523339	2470.740076
859.836367	2468.148923
860.149352	2471.269397
860.462295	2469.126907
860.775195	2468.653038
861.088054	2471.347535
861.400869	2471.034984
861.713642	2469.903245
862.026373	2469.681434
862.339062	2470.248564
862.651708	2469.522637
862.964312	2470.934161
863.276873	2468.789150
863.589392	2470.278811
863.901869	2471.702937
864.214303	2470.120014
864.526696	2472.544809
864.839045	2468.363172
865.151353	2470.591362
865.463619	2468.262349
865.775842	2473.905921
866.088023	2468.726135
866.400162	2469.568008
866.712258	2468.448872
867.024313	2470.049438
867.336325	2467.307050
867.648296	2469.479788
867.960224	2472.320478
868.272110	2470.883749
868.583954	2470.785447
868.895755	2472.577577
869.207515	2468.844602
869.519233	2472.118832
869.830909	2468.998358
870.142542	2470.722432
870.454134	2469.762092
870.765684	2472.612865
871.077191	2466.616412
871.388657	2468.675724
871.700081	2466.497945
872.011463	2469.094139
872.322803	2465.645990
872.634101	2469.976341
872.945357	2469.746969
873.256571	2469.605817
873.567744	2469.285703
873.878874	2470.969449
874.189963	2470.752679
874.501010	2469.820066
874.812015	2471.014819
875.122979	2470.057000
875.433900	2471.259315
875.744780	2471.536578
876.055618	2470.354428
876.366415	2472.839717
876.677169	2469.872998
876.987882	2472.234778
877.298554	2471.443317
877.609183	2471.612196
877.919771	2468.267390
878.230317	2470.364510
878.540822	2470.941722
878.851285	2471.765951
879.161707	2469.499952
879.472087	2471.471043
879.782425	2472.189408
880.092722	2473.716878
880.402977	2475.040180
880.713191	2477.417084
881.023363	2483.315234
881.333494	2483.655512
881.643583	2481.664257
881.953631	2485.309011
882.263637	2482.170892
882.573602	2482.453197
882.883526	2482.158290
883.193408	2480.209884
883.503248	2477.681745
883.813048	2477.943885
884.122806	2480.691314
884.432522	2476.970942
884.742197	2477.006230
885.051831	2476.164358
885.361424	2473.850468
885.670975	2473.779892
885.980485	2472.622947
886.289954	2470.351907
886.599382	2471.269397
886.908768	2469.885601
887.218113	2467.044910
887.527417	2470.624130
887.836680	2464.902420
888.145901	2471.899542
888.455082	2468.378296
888.764221	2471.952474
889.073319	2469.230251
889.382376	2469.996506
889.691392	2470.649335
890.000366	2470.452730
890.309300	2470.409881
890.618193	2469.651187
890.927044	2471.231589
891.235855	2469.494911
891.544625	2472.948102
891.853353	2469.212607
892.162041	2470.578759
892.470687	2468.234623
892.779293	2469.164716
893.087858	2470.609006
893.396381	2470.261167
893.704864	2472.514562
894.013306	2471.733183
894.321707	2471.889459
894.630068	2472.164202
894.938387	2471.854171
895.246665	2473.479943
895.554903	2474.836014
895.863100	2472.557412
896.171256	2472.146558
896.479371	2473.520272
896.787446	2471.302165
897.095480	2473.190077
897.403473	2469.777216
897.711425	2472.799388
898.019336	2470.162864
898.327207	2468.809314
898.635038	2471.876856
898.942827	2470.669500
899.250576	2468.325363
899.558284	2469.441979
899.865952	2472.096147
900.173579	2466.077009
900.481165	2470.198152
900.788711	2470.518265
901.096216	2469.625981
901.403681	2469.462144
901.711105	2471.345015
902.018489	2470.142699
902.325832	2467.664972
902.633135	2460.327573
902.940397	2469.956177
903.247619	2462.422172
903.554800	2471.062710
903.861941	2471.586990
904.169041	2472.915334
904.476101	2474.626806
904.783121	2473.903400
905.090100	2474.616723
905.397039	2475.075468
905.703938	2472.179326
906.010796	2474.374748
906.317614	2469.600775
906.624391	2471.516414
906.931129	2473.507670
907.237826	2468.809314
907.544483	2472.101188
907.851099	2471.188739
908.157675	2468.325363
908.464211	2471.526496
908.770707	2469.245374
909.077163	2469.910806
909.383578	2467.682616
909.689954	2469.651187
909.996289	2469.288224
910.302584	2468.358131
910.608839	2467.647328
910.915054	2469.749489
911.221229	2467.266721
911.527363	2468.247226
911.833458	2467.470888
912.139513	2468.446351
912.445527	2468.103553
912.751502	2469.525158
913.057436	2467.236474
913.363331	2468.353090
913.669186	2470.120014
913.975000	2467.569190
914.280775	2472.282669
914.586510	2469.368882
914.892205	2470.427525
915.197859	2472.625468
915.503475	2471.992803
915.809050	2472.229737
916.114585	2473.560602
916.420081	2474.120170
916.725536	2475.133442
917.030952	2475.715695
917.336328	2471.150930
917.641665	2472.033132
917.946961	2466.739921
918.252218	2471.692854
918.557435	2467.024746
918.862612	2469.545323
919.167750	2471.564305
919.472848	2472.854840
919.777906	2470.210755
920.082925	2473.237968
920.387904	2470.563636
920.692843	2470.089767
920.997743	2473.217803
921.302603	2468.990796
921.607423	2468.441310
921.912204	2471.284521
922.216946	2467.601958
922.521647	2470.041876
922.826310	2468.831999
923.130932	2470.130097
923.435516	2467.796042
923.740059	2468.620271
924.044564	2468.007771
924.349028	2469.187401
924.653454	2465.777060
924.957840	2468.227061
925.262186	2467.995168
925.566493	2471.181177
925.870761	2468.428707
926.174989	2467.067596
926.479178	2469.242853
926.783328	2467.559108
927.087438	2469.562967
927.391509	2469.918368
927.695541	2469.474747
927.999533	2469.338635
928.303486	2466.187914
928.607400	2469.951136
928.911275	2468.363172
929.215110	2467.642287
929.518906	2465.736731
929.822663	2468.368213
930.126381	2468.201855
930.430060	2465.668675
930.733699	2468.153964
931.037299	2466.470219
931.340861	2466.223202
931.644383	2469.457103
931.947866	2467.012143
932.251309	2468.663121
932.554714	2464.468881
932.858080	2467.559108
933.161407	2463.039714
933.464694	2465.681278
933.767943	2462.402008
934.071153	2468.350569
934.374323	2466.389560
934.677455	2468.504324
934.980548	2465.623305
935.283602	2467.491052
935.586617	2466.830661
935.889593	2469.346197
936.192530	2464.660445
936.495428	2466.540795
936.798287	2466.147585
937.101108	2469.079016
937.403890	2465.545167
937.706632	2468.287555
938.009336	2465.633387
938.312002	2466.175311
938.614628	2465.046093
938.917216	2469.353759
939.219765	2467.833851
939.522275	2467.692699
939.824747	2467.163378
940.127179	2470.828296
940.429573	2466.702112
940.731929	2467.975003
941.034246	2468.625312
941.336524	2468.776547
941.638763	2468.199335
941.940964	2466.361834
942.243126	2467.231433
942.545250	2470.344346
942.847335	2469.028604
943.149381	2467.002061
943.451389	2467.601958
943.753359	2468.469036
944.055290	2469.038687
944.357182	2469.986424
944.659036	2467.591876
944.960851	2467.135651
945.262628	2465.850157
945.564367	2467.957359
945.866067	2466.293778
946.167729	2466.747482
946.469352	2468.206896
946.770937	2470.286372
947.072484	2467.012143
947.373992	2466.686988
947.675462	2465.633387
947.976893	2466.699591
948.278286	2461.834878
948.579641	2465.729169
948.880958	2461.270269
949.182236	2465.822431
949.483476	2469.404170
949.784678	2466.780250
950.085841	2469.958697
950.386967	2466.248408
950.688054	2469.847792
950.989103	2469.111783
951.290114	2466.087091
951.591087	2467.798563
951.892021	2467.400312
952.192917	2466.160188
952.493776	2468.164047
952.794596	2466.984417
953.095378	2465.751854
953.396122	2467.478450
953.696828	2467.783439
953.997496	2467.864098
954.298126	2467.155816
954.598718	2466.303861
954.899272	2469.109263
955.199788	2467.826289
955.500266	2467.851495
955.800706	2467.705302
956.101108	2467.876701
956.401472	2466.384519
956.701798	2466.921402
957.002087	2466.147585
957.302337	2467.395271
957.602550	2467.886783
957.902724	2467.332256
958.202861	2467.808645
958.502960	2466.331587
958.803022	2465.414097
959.103045	2464.703294
959.403031	2465.625826
959.702979	2465.588017
960.002889	2469.101701
960.302762	2468.463995
960.602596	2466.727318
960.902393	2466.631536
961.202153	2465.162039
961.501875	2466.061885
961.801559	2467.775878
962.101205	2468.128758
962.400814	2468.615230
962.700385	2466.480301
962.999918	2462.870835
963.299414	2460.619960
963.598873	2464.176494
963.898293	2462.495269
964.197677	2465.928295
964.497022	2466.969293
964.796331	2466.152626
965.095601	2466.442492
965.394835	2468.469036
965.694030	2466.364355
965.993189	2466.102215
966.292309	2464.204220
966.591393	2466.013994
966.890439	2468.441310
967.189447	2465.139354
967.488419	2468.486680
967.787353	2466.177832
968.086249	2466.087091
968.385108	2465.824951
968.683930	2467.813686
968.982714	2467.284365
969.281462	2465.865280
969.580172	2468.123717
969.878844	2466.964252
970.177480	2466.228243
970.476078	2467.032307
970.774639	2467.846454
971.073162	2467.256639
971.371649	2463.911833
971.670098	2464.100877
971.968510	2462.384364
972.266885	2466.792853
972.565223	2467.848974
972.863524	2466.636577
973.161788	2465.600620
973.460014	2466.041721
973.758204	2466.316464
974.056356	2466.165229
974.354471	2468.400981
974.652550	2467.155816
974.950591	2468.199335
975.248595	2466.341669
975.546563	2464.400825
975.844493	2470.785447
976.142386	2466.472739
976.440243	2466.422328
976.738062	2466.031638
977.035845	2464.708336
977.333590	2467.760754
977.631299	2466.324025
977.928971	2461.797069
978.226606	2463.052317
978.524204	2462.954014
978.821765	2463.866463
979.119290	2464.642801
979.416777	2466.623974
979.714228	2464.536936
980.011642	2467.667493
980.309020	2466.518110
980.606360	2466.187914
980.903664	2465.426700
981.200931	2468.242184
981.498162	2465.792184
981.795356	2467.647328
982.092513	2463.453088
982.389633	2468.204376
982.686717	2466.384519
982.983764	2466.258490
983.280775	2467.841413
983.577749	2468.395940
983.874686	2468.398460
984.171587	2465.754375
984.468451	2467.985086
984.765279	2465.542647
985.062070	2468.171608
985.358824	2465.857719
985.655543	2466.119859
985.952224	2467.513738
986.248869	2467.780919
986.545478	2462.875876
986.842050	2466.409725
987.138586	2466.361834
987.435086	2467.632205
987.731549	2465.547688
988.027975	2465.212451
988.324366	2465.041052
988.620719	2464.539457
988.917037	2465.706484
989.213318	2468.776547
989.509563	2464.824282
989.805772	2464.105918
990.101944	2464.862091
990.398080	2466.518110
990.694180	2465.653552
990.990244	2466.422328
991.286271	2467.203707
991.582262	2464.844447
991.878217	2464.156329
992.174136	2465.817389
992.470019	2463.125413
992.765865	2463.775722
993.061676	2463.770681
993.357450	2465.582976
993.653188	2462.752368
993.948890	2465.429221
994.244556	2464.786473
994.540186	2465.683799
994.835780	2462.462502
995.131337	2466.213120
995.426859	2464.887297
995.722345	2464.660445
996.017795	2465.807307
996.313208	2467.526341
996.608586	2464.582307
996.903928	2467.796042
997.199234	2467.302009
997.494504	2467.188583
997.789738	2464.912502
998.084936	2465.323356
998.380099	2466.805456
998.675225	2465.986268
998.970316	2464.695733
999.265371	2466.901238
999.560390	2464.257152
999.855373	2466.276134
1000.150320	2464.569704
1000.445232	2466.122379
1000.740108	2466.137503
1001.034948	2467.712863
1001.329752	2464.073150
1001.624521	2464.569704
1001.919254	2466.571042
1002.213951	2466.147585
1002.508613	2464.108438
1002.803239	2465.207410
1003.097829	2463.518623
1003.392384	2466.487863
1003.686903	2460.493931
1003.981386	2465.648511
1004.275834	2466.807976
1004.570246	2466.966772
1004.864623	2460.839250
1005.158964	2465.769498
1005.453270	2464.738583
1005.747540	2462.260855
1006.041775	2467.715384
1006.335974	2466.447534
1006.630138	2464.118521
1006.924266	2466.934005
1007.218359	2462.505351
1007.512416	2464.199179
1007.806438	2461.476956
1008.100425	2460.889662
1008.394376	2460.166256
1008.688292	2466.008953
1008.982172	2464.748665
1009.276017	2465.257821
1009.569827	2464.965434
1009.863602	2465.930815
1010.157341	2466.601289
1010.451045	2465.782101
1010.744714	2465.237657
1011.038347	2466.334108
1011.331945	2465.230095
1011.625508	2465.966103
1011.919036	2466.903758
1012.212528	2465.618264
1012.505986	2464.917543
1012.799408	2468.400981
1013.092795	2465.555249
1013.386147	2462.906123
1013.679464	2465.250260
1013.972745	2464.126082
1014.265992	2465.096504
1014.559204	2464.572224
1014.852380	2465.194807
1015.145521	2464.015177
1015.438628	2465.998871
1015.731699	2466.515589
1016.024736	2463.440485
1016.317737	2464.662965
1016.610703	2462.641462
1016.903635	2465.804787
1017.196531	2465.429221
1017.489393	2462.220526
1017.782219	2464.743624
1018.075011	2465.177163
1018.367768	2466.112297
1018.660490	2462.880917
1018.953177	2462.880917
1019.245829	2462.880917
