Dividing Wavelength (nm)	Counts (n)	Blue Motor Position (mm): 0.000000	Red Motor Position (mm): 32.500000	
326.493990	2052.410007
326.888308	2052.410007
327.282561	2052.410007
327.676750	2027.138702
328.070874	2027.975534
328.464933	2034.254291
328.858929	2043.086392
329.252859	2051.696683
329.646726	2066.532799
330.040528	2083.171127
330.434265	2101.467995
330.827938	2120.732765
331.221547	2139.702627
331.615091	2162.735658
332.008571	2180.866168
332.401986	2200.952646
332.795338	2223.254710
333.188625	2242.045611
333.581847	2260.697881
333.975006	2276.360746
334.368100	2294.576955
334.761129	2310.683442
335.154095	2326.036276
335.546996	2346.437825
335.939833	2377.493853
336.332606	2391.533467
336.725315	2404.408574
337.117960	2411.193967
337.510540	2422.216450
337.903056	2432.848243
338.295508	2436.908893
338.687896	2444.543720
339.080220	2452.017231
339.472480	2455.972016
339.864676	2458.933694
340.256807	2463.150619
340.648875	2466.190435
341.040879	2467.609520
341.432818	2469.318471
341.824694	2469.983903
342.216506	2467.158336
342.608253	2468.978193
342.999937	2463.947121
343.391557	2468.479119
343.783113	2466.450054
344.174605	2463.190948
344.566033	2462.326390
344.957397	2459.314301
345.348697	2461.315639
345.739934	2460.108283
346.131106	2456.410596
346.522215	2455.276337
346.913260	2451.538321
347.304241	2452.889350
347.695159	2449.529421
348.086012	2450.522529
348.476802	2447.291149
348.867528	2442.154213
349.258191	2442.771755
349.648789	2439.071548
350.039324	2437.546599
350.429796	2443.197732
350.820203	2440.117587
351.210548	2440.248657
351.600828	2437.223965
351.991045	2438.028029
352.381198	2437.133224
352.771288	2437.750765
353.161314	2436.699685
353.551276	2438.741352
353.941175	2441.501384
354.331010	2440.679676
354.720782	2437.725560
355.110490	2438.632967
355.500135	2436.666917
355.889717	2441.428287
356.279235	2442.736467
356.668689	2440.137752
357.058080	2439.749583
357.447408	2440.316713
357.836672	2441.065324
358.225873	2444.130346
358.615010	2442.323092
359.004084	2443.515325
359.393095	2443.369131
359.782043	2445.171344
360.170927	2445.317537
360.559748	2444.725202
360.948505	2445.342743
361.337199	2448.012034
361.725830	2449.499174
362.114398	2446.461879
362.502903	2451.220728
362.891344	2451.440019
363.279722	2450.048660
363.668037	2447.364246
364.056289	2451.175358
364.444478	2451.802982
364.832603	2453.070832
365.220665	2451.404731
365.608665	2453.156532
365.996601	2453.373301
366.384474	2454.225256
366.772284	2456.186265
367.160031	2457.416307
367.547715	2454.825153
367.935336	2454.119392
368.322893	2456.211471
368.710388	2451.616459
369.097820	2456.130812
369.485189	2449.264761
369.872495	2458.598457
370.259738	2458.979064
370.646918	2460.370423
371.034035	2463.831175
371.421090	2460.103242
371.808081	2460.413273
372.195010	2464.665486
372.581875	2464.320167
372.968678	2466.797894
373.355418	2468.335446
373.742096	2467.329736
374.128710	2471.317288
374.515262	2473.442135
374.901751	2474.977166
375.288177	2481.024030
375.674540	2483.156438
376.060841	2488.389156
376.447079	2493.284116
376.833254	2499.182266
377.219367	2500.994561
377.605417	2506.270128
377.991404	2512.218690
378.377329	2523.168076
378.763191	2525.219826
379.148991	2535.261804
379.534727	2544.522404
379.920402	2553.288970
380.306013	2562.194169
380.691563	2575.956519
381.077049	2584.652509
381.462474	2595.178438
381.847835	2609.961622
382.233134	2620.895885
382.618371	2632.850981
383.003545	2649.408651
383.388657	2664.068326
383.773706	2685.430216
384.158693	2697.949921
384.543618	2713.459031
384.928480	2730.878738
385.313280	2750.705596
385.698017	2768.987341
386.082692	2792.179169
386.467305	2806.727939
386.851856	2832.470591
387.236344	2859.866742
387.620770	2876.643702
388.005133	2892.326731
388.389435	2926.420055
388.773674	2943.814556
389.157851	2978.038949
389.541965	3002.700274
389.926018	3017.609487
390.310008	3049.356153
390.693936	3071.310378
391.077802	3102.331118
391.461606	3131.378247
391.845348	3151.442039
392.229027	3179.254085
392.612645	3219.537945
392.996200	3248.643047
393.379694	3287.031433
393.763125	3329.324193
394.146494	3353.511650
394.529801	3393.372053
394.913047	3436.529371
395.296230	3441.333591
395.679351	3467.582879
396.062410	3519.647916
396.445408	3497.141684
396.828343	3541.309754
397.211217	3573.585741
397.594028	3543.016184
397.976778	3592.217846
398.359466	3627.274030
398.742092	3635.528919
399.124656	3647.617606
399.507158	3707.314950
399.889598	3715.705951
400.271977	3781.150210
400.654294	3766.936677
401.036549	3828.806758
401.418742	3828.214422
401.800874	3895.468456
402.182944	3922.088268
402.564952	4006.681351
402.946898	4001.105834
403.328783	3996.117613
403.710606	4045.233575
404.092367	4116.273515
404.474067	4184.414791
404.855705	4167.700846
405.237282	4136.972492
405.618797	4236.290785
406.000250	4315.822548
406.381642	4397.249786
406.762972	4393.879775
407.144240	4360.283005
407.525447	4427.088376
407.906593	4440.502886
408.287677	4526.741905
408.668700	4555.476482
409.049661	4594.270681
409.430560	4629.415085
409.811399	4614.858753
410.192176	4663.422709
410.572891	4745.772478
410.953545	4848.334753
411.334138	4749.820524
411.714669	4857.489488
412.095139	4770.007825
412.475547	4877.656624
412.855894	4886.667687
413.236180	4988.299869
413.616405	4915.185494
413.996568	5019.408829
414.376670	5021.354714
414.756711	5017.145351
415.136691	5086.360393
415.516609	5176.183673
415.896466	5208.469742
416.276262	5284.502945
416.655997	5400.033588
417.035670	5492.841231
417.415283	5630.769721
417.794834	5707.246545
418.174324	5668.820350
418.553753	5669.001831
418.933121	5831.720195
419.312428	5848.373647
419.691674	5768.700731
420.070859	5995.968549
420.449983	5874.872472
420.829045	6071.285908
421.208047	5998.907542
421.586988	6155.400081
421.965867	6228.312809
422.344686	6305.881044
422.723444	6472.841538
423.102141	6089.872643
423.480777	6489.729404
423.859352	6298.019364
424.237866	6665.784140
424.616319	6661.950343
424.994712	6823.481515
425.373044	6740.073104
425.751314	7055.609005
426.129524	6774.408403
426.507673	7043.694238
426.885762	7085.140085
427.263789	7126.328832
427.641756	7210.057356
428.019662	7292.870911
428.397508	7329.799884
428.775292	7309.665515
429.153016	7486.552042
429.530679	7417.392452
429.908282	7464.721325
430.285824	7410.753253
430.663305	7689.778598
431.040726	7576.607214
431.418086	7585.671209
431.795385	7711.143008
432.172624	7903.919251
432.549802	7784.917773
432.926920	7916.779235
433.303977	7862.478446
433.680974	7904.667862
434.057910	8109.941127
434.434786	8159.649424
434.811601	8109.333667
435.188355	8457.493396
435.565050	8337.889501
435.941683	8350.026078
436.318257	8683.468158
436.694770	8640.144482
437.071222	8869.985810
437.447614	8642.276890
437.823946	8611.881253
438.200218	8764.610571
438.576429	8642.186150
438.952580	8810.865678
439.328670	8808.582035
439.704700	8886.994663
440.080670	8781.281667
440.456580	9052.672184
440.832429	9028.303246
441.208218	8766.785829
441.583947	8881.310762
441.959616	9000.917178
442.335224	9032.699132
442.710773	9111.124363
443.086261	9291.653123
443.461689	9014.500567
443.837057	9189.257206
444.212365	9401.895596
444.587612	9373.350062
444.962800	9273.371379
445.337927	9410.972193
445.712995	8954.772976
446.088002	9618.801322
446.462949	9684.646353
446.837837	9666.881327
447.212664	9683.678452
447.587431	10511.267035
447.962139	11520.256498
448.336786	12466.312196
448.711374	12251.841347
449.085901	11041.563652
449.460369	10963.040119
449.834776	10741.446119
450.209124	11653.879842
450.583412	11470.215484
450.957640	11794.578446
451.331808	11381.163501
451.705917	10811.495473
452.079965	10689.655825
452.453954	10896.517053
452.827883	10839.569658
453.201752	10804.319390
453.575562	10811.886162
453.949311	11158.417598
454.323001	11225.868237
454.696632	11141.171811
455.070202	11723.677138
455.443713	11781.521858
455.817164	11953.223558
456.190556	12265.581012
456.563888	12139.171558
456.937160	12403.249882
457.310373	11890.176367
457.683526	11897.753221
458.056619	11917.650655
458.429653	11977.355561
458.802628	12125.552881
459.175542	12177.002897
459.548398	12720.519940
459.921194	13300.154330
460.293930	13572.094333
460.666607	14428.230970
461.039224	15227.642024
461.411782	15588.777683
461.784280	15266.494197
462.156719	15212.599221
462.529099	15135.724145
462.901419	14479.330626
463.273680	14087.801851
463.645882	14300.646928
464.018024	14178.741746
464.390106	14549.450556
464.762130	15590.065697
465.134094	17108.156246
465.505999	19396.751872
465.877845	21664.058705
466.249631	22939.573972
466.621358	22494.079645
466.993026	21695.699507
467.364634	20952.441867
467.736184	20150.200205
468.107674	19532.522748
468.479105	19383.304594
468.850477	19114.049005
469.221790	18688.411783
469.593043	18014.452364
469.964238	17620.314792
470.335373	17683.409873
470.706449	18383.086739
471.077467	19230.396316
471.448425	21691.691790
471.819324	23571.880858
472.190164	23499.898222
472.560945	21763.321545
472.931667	20170.808442
473.302330	19839.027422
473.672934	19284.591240
474.043479	19706.049346
474.413965	19483.759667
474.784393	19298.678744
475.154761	19970.387289
475.525070	20100.980900
475.895321	19929.400187
476.265513	20456.329314
476.635645	21042.187008
477.005719	21108.059765
477.375734	21462.697377
477.745691	22097.955858
478.115588	22733.945307
478.485427	23922.979579
478.855207	25711.941406
479.224928	27518.814453
479.594591	28969.645927
479.964194	28610.685526
480.333739	29092.229144
480.703226	29307.408276
481.072653	29736.786034
481.442022	30255.185528
481.811333	30673.500474
482.180584	30233.725336
482.549777	30025.583656
482.918912	29774.312383
483.287988	29707.423833
483.657005	29555.123014
484.025964	29200.326606
484.394864	29380.363854
484.763706	29309.981785
485.132489	28768.818961
485.501213	28854.054790
485.869879	29017.310037
486.238487	28931.708724
486.607036	29196.228148
486.975527	28879.195024
487.343959	29211.588544
487.712333	29565.739684
488.080648	29511.635500
488.448905	29936.216601
488.817104	29804.425716
489.185244	30605.467583
489.553326	31532.621474
489.921350	33385.474885
490.289315	35894.192494
490.657222	36773.677235
491.025070	37359.434106
491.392861	37080.559996
491.760593	36309.056770
492.128267	35287.078775
492.495883	34305.919002
492.863440	33394.201123
493.230939	32383.878275
493.598380	31800.992341
493.965763	31601.352566
494.333088	31089.345255
494.700354	30873.195702
495.067563	30797.500256
495.434713	30645.300260
495.801805	30884.044265
496.168839	30687.461950
496.535815	30493.261580
496.902733	30582.661402
497.269593	30357.140344
497.636395	30457.071137
498.003139	30684.308708
498.369825	30391.876415
498.736453	30740.593191
499.103023	30530.727436
499.469535	30567.371583
499.835989	30610.347419
500.202385	30428.507959
500.568723	30401.479813
500.935003	30638.131739
501.301226	30420.610992
501.667390	31065.664435
502.033497	31192.484742
502.399546	30940.873192
502.765537	30485.967031
503.131470	30852.214419
503.497345	31185.333865
503.863163	30095.713667
504.228923	30747.207185
504.594625	31034.051359
504.960269	30444.790886
505.325856	30969.305300
505.691385	30560.578628
506.056856	30770.449424
506.422270	31119.831633
506.787625	30573.022716
507.152924	30881.264068
507.518164	30938.758428
507.883347	30439.961461
508.248472	30456.393102
508.613540	30975.311834
508.978550	31046.986960
509.343503	30787.357454
509.708398	30988.111324
510.073236	31382.737888
510.438016	31329.591524
510.802738	30906.129560
511.167403	31252.393814
511.532010	31341.584429
511.896561	31663.026042
512.261053	32175.340863
512.625488	31833.517865
512.989866	31615.372015
513.354186	31501.686434
513.718449	31332.906082
514.082655	31917.475762
514.446803	31506.024347
514.810894	31864.117669
515.174927	31697.973841
515.538904	31545.413402
515.902822	31904.414132
516.266684	31486.560452
516.630488	31592.734713
516.994235	31426.890834
517.357925	31704.076158
517.721558	31738.545047
518.085133	31854.768849
518.448651	31829.963852
518.812112	31550.411706
519.175516	31493.832316
519.538863	31644.169606
519.902152	31502.011588
520.265385	31730.653121
520.628560	31554.106872
520.991678	31305.585549
521.354739	31283.706942
521.717743	31357.690915
522.080690	31076.694479
522.443580	31386.226367
522.806413	31175.760714
523.169189	31073.153069
523.531908	31019.401766
523.894569	30700.659691
524.257174	30627.169750
524.619722	30664.219710
524.982213	30567.837890
525.344647	30358.388030
525.707025	30221.671937
526.069345	30309.766101
526.431608	30036.651509
526.793815	30076.030482
527.155964	29534.214828
527.518057	29474.096548
527.880093	29153.234668
528.242072	29349.358237
528.603995	28939.351113
528.965860	28657.651436
529.327669	28569.985771
529.689421	28375.361944
530.051117	28122.921124
530.412755	28070.246108
530.774337	27869.756898
531.135862	27597.799251
531.497331	27460.853787
531.858743	27219.919400
532.220098	27232.567655
532.581396	26828.977919
532.942638	26460.454450
533.303824	26377.557716
533.664953	26178.177561
534.026025	25763.961073
534.387040	25869.522834
534.747999	25664.078171
535.108902	25617.253413
535.469748	25006.348746
535.830537	24922.645428
536.191270	24830.679658
536.551947	24455.680827
536.912567	24366.086920
537.273131	24197.311610
537.633638	23788.257263
537.994089	23651.868846
538.354483	23297.632006
538.714821	23403.125712
539.075103	23310.703718
539.435328	23010.208099
539.795497	22660.125170
540.155609	22490.593687
540.515665	22555.012071
540.875665	21990.657419
541.235609	21888.160679
541.595496	21733.273748
541.955328	21764.770877
542.315102	21280.295827
542.674821	21013.155003
543.034483	20754.541290
543.394090	20528.690036
543.753640	20303.826848
544.113134	20545.285514
544.472571	19943.240675
544.831953	20197.196362
545.191278	19661.757768
545.550548	19317.978802
545.909761	19368.987717
546.268918	19207.844714
546.628019	19140.159662
546.987064	18707.258137
547.346053	18231.683245
547.704986	18365.341877
548.063863	18017.351027
548.422684	17866.716309
548.781449	17508.383532
549.140158	17486.855285
549.498811	17186.427721
549.857408	16781.187007
550.215949	16871.776542
550.574434	16611.741224
550.932864	16397.282978
551.291237	16430.410920
551.649555	16147.750903
552.007817	16003.281516
552.366022	15721.538990
552.724173	15544.367638
553.082267	15471.694364
553.440305	15394.511778
553.798288	14977.517614
554.156215	14907.808539
554.514086	14774.923723
554.871902	14483.978570
555.229661	14344.469679
555.587365	14079.446139
555.945014	13936.773923
556.302606	13761.480401
556.660143	13601.348149
557.017625	13493.011232
557.375050	13237.969177
557.732421	13162.639215
558.089735	13006.320596
558.446994	12791.575004
558.804197	12729.972104
559.161345	12521.381761
559.518437	12205.155221
559.875474	12090.728590
560.232455	11977.443781
560.589381	11820.000985
560.946251	11630.413271
561.303065	11602.439908
561.659825	11371.756708
562.016528	11185.208810
562.373177	10942.570514
562.729770	10911.864846
563.086307	10667.535242
563.442789	10631.364963
563.799216	10449.119690
564.155587	10286.923086
564.511904	10136.999170
564.868164	10003.403552
565.224370	9919.672507
565.580520	9735.166277
565.936615	9625.133012
566.292654	9444.687430
566.648638	9358.277012
567.004567	9222.745591
567.360441	9108.107232
567.716260	8929.521837
568.072023	8861.665385
568.427732	8724.881237
568.783385	8543.659318
569.138982	8473.063000
569.494525	8376.749235
569.850013	8209.524080
570.205445	8108.224614
570.560823	7962.908313
570.916145	7835.664549
571.271412	7747.527535
571.626625	7603.680731
571.981782	7495.449678
572.336884	7348.782348
572.691931	7280.512522
573.046923	7143.826677
573.401860	7020.056268
573.756743	6926.023625
574.111570	6843.928435
574.466342	6743.281798
574.821059	6662.179715
575.175722	6521.072778
575.530330	6440.159738
575.884882	6318.877138
576.239380	6215.805707
576.593823	6144.478421
576.948211	6052.757147
577.302544	5933.493530
577.656823	5850.916909
578.011047	5794.186284
578.365216	5705.928283
578.719330	5607.368684
579.073389	5531.549731
579.427394	5464.756963
579.781344	5387.997834
580.135239	5301.267302
580.489080	5235.223146
580.842866	5141.954238
581.196597	5114.152274
581.550273	5049.809507
581.903895	4979.021625
582.257463	4945.099701
582.610975	4859.052246
582.964434	4819.509435
583.317837	4738.319132
583.671186	4680.267725
584.024481	4642.080984
584.377721	4565.992329
584.730906	4523.918859
585.084037	4477.953618
585.437113	4417.658897
585.790135	4374.415880
586.143103	4309.145540
586.496016	4265.607615
586.848874	4227.851893
587.201679	4184.981921
587.554428	4124.334320
587.907124	4092.335596
588.259765	4050.002506
588.612352	4015.813401
588.964884	3959.042447
589.317362	3936.994960
589.669786	3901.835433
590.022155	3860.629041
590.374470	3839.357893
590.726731	3795.605718
591.078937	3742.187132
591.431090	3725.190882
591.783188	3681.010209
592.135232	3648.908142
592.487222	3628.564565
592.839157	3605.087912
593.191038	3570.268662
593.542866	3541.670196
593.894639	3505.043693
594.246358	3488.715396
594.598022	3465.967189
594.949633	3436.852005
595.301190	3413.067841
595.652692	3395.262486
596.004141	3382.515928
596.355535	3343.298272
596.706876	3322.690035
597.058162	3302.580872
597.409395	3294.971251
597.760573	3285.718213
598.111698	3262.685181
598.462768	3247.564240
598.813785	3230.129409
599.164748	3208.281048
599.515657	3201.989688
599.866511	3178.802901
600.217312	3179.054959
600.568060	3155.164931
600.918753	3158.300529
601.269392	3145.231337
601.619978	3133.079636
601.970510	3126.379942
602.320988	3118.220835
602.671412	3110.497787
603.021783	3100.677620
603.372100	3085.637337
603.722363	3076.412026
604.072572	3070.687795
604.422728	3062.364850
604.772830	3052.199364
605.122878	3044.294834
605.472872	3036.836447
605.822813	3035.732435
606.172701	3023.109385
606.522534	3020.331710
606.872314	3019.202491
607.222041	3009.163033
607.571714	3004.656242
607.921333	2990.248624
608.270899	2992.270127
608.620411	2989.550424
608.969870	2985.056236
609.319276	2980.405771
609.668627	2974.437045
610.017926	2972.350007
610.367171	2970.467136
610.716362	2965.123513
611.065500	2957.642441
611.414585	2954.330403
611.763616	2951.963581
612.112594	2946.602314
612.461518	2944.028805
612.810389	2945.367231
613.159207	2940.631067
613.507971	2933.873401
613.856682	2935.158895
614.205340	2926.631783
614.553945	2931.607402
614.902496	2920.968047
615.250994	2920.378232
615.599439	2914.858168
615.947830	2913.454207
616.296169	2911.036974
616.644454	2905.151427
616.992686	2906.746952
617.340864	2907.959349
617.688990	2897.758574
618.037063	2901.851991
618.385082	2894.985940
618.733048	2893.367729
619.080961	2892.921587
619.428821	2888.755074
619.776628	2884.538148
620.124382	2883.154352
620.472083	2878.208980
620.819731	2878.909700
621.167326	2869.160109
621.514868	2868.164481
621.862357	2861.328676
622.209793	2858.669467
622.557176	2849.275277
622.904506	2846.651357
623.251783	2840.607013
623.599007	2836.841271
623.946179	2835.386898
624.293297	2829.607216
624.640363	2823.114209
624.987376	2816.202787
625.334336	2809.135090
625.681243	2805.457568
626.028097	2800.736527
626.374899	2803.209213
626.721647	2798.135292
627.068343	2797.653862
627.414987	2789.484672
627.761577	2786.696914
628.108115	2786.759928
628.454600	2780.299690
628.801032	2779.909000
629.147412	2777.643002
629.493739	2776.977569
629.840014	2770.744183
630.186236	2773.602517
630.532405	2768.876435
630.878521	2769.292330
631.224585	2765.488780
631.570597	2759.192379
631.916556	2761.367637
632.262462	2759.078953
632.608316	2755.356061
632.954117	2754.496544
633.299866	2751.368508
633.645562	2750.196440
633.991206	2745.954309
634.336797	2741.140007
634.682336	2738.937022
635.027823	2736.497104
635.373257	2735.264542
635.718639	2735.022567
636.063968	2731.811352
636.409245	2723.979919
636.754470	2720.506564
637.099642	2721.396328
637.444762	2716.587067
637.789829	2715.505739
638.134845	2711.808053
638.479808	2711.843341
638.824719	2712.057590
639.169577	2704.069882
639.514383	2702.970910
639.859137	2700.165508
640.203839	2702.633153
640.548489	2699.457226
640.893086	2696.944211
641.237632	2694.348017
641.582125	2697.045034
641.926566	2693.095290
642.270955	2690.693180
642.615292	2688.437264
642.959576	2688.454908
643.303809	2687.794517
643.647990	2690.204188
643.992118	2691.227542
644.336195	2686.564475
644.680219	2687.040864
645.024192	2686.680422
645.368112	2691.250228
645.711981	2689.022038
646.055797	2692.434899
646.399562	2694.844570
646.743274	2694.214426
647.086935	2698.837164
647.430544	2697.269365
647.774101	2699.805066
648.117606	2697.203830
648.461059	2699.356403
648.804460	2700.563759
649.147810	2692.865917
649.491108	2690.420958
649.834354	2689.909281
650.177548	2685.077335
650.520690	2682.092972
650.863781	2681.959381
651.206820	2679.895029
651.549807	2678.859072
651.892742	2674.216169
652.235626	2674.228772
652.578458	2672.532423
652.921238	2665.920950
653.263967	2669.527896
653.606644	2665.316012
653.949269	2665.999088
654.291843	2663.528923
654.634365	2664.380878
654.976836	2662.308963
655.319255	2663.922133
655.661622	2660.983140
656.003938	2657.625732
656.346203	2658.908705
656.688416	2657.960968
657.030577	2657.295536
657.372687	2657.295536
657.714746	2660.131185
658.056753	2659.853922
658.398708	2656.249497
658.740612	2656.970382
659.082465	2655.344609
659.424266	2652.387973
659.766016	2650.749598
660.107715	2651.576347
660.449362	2648.135759
660.790958	2655.395021
661.132503	2655.284116
661.473996	2654.532984
661.815438	2656.264620
662.156829	2652.501399
662.498168	2652.040133
662.839456	2651.788075
663.180693	2653.093734
663.521879	2654.943838
663.863013	2654.250679
664.204097	2651.730102
664.545129	2656.030206
664.886110	2654.389311
665.227040	2652.062818
665.567918	2656.352840
665.908746	2656.125988
666.249522	2656.567089
666.590248	2654.986687
666.930922	2655.478200
667.271545	2654.429640
667.612118	2656.272182
667.952639	2656.050371
668.293109	2655.727737
668.633528	2655.798313
668.973896	2651.667088
669.314213	2651.967036
669.654480	2651.142808
669.994695	2652.622386
670.334859	2654.827891
670.674973	2649.910246
671.015035	2650.704227
671.355047	2649.214566
671.695008	2651.861172
672.034918	2648.176089
672.374777	2648.458393
672.714585	2650.205153
673.054342	2646.893115
673.394049	2648.755821
673.733705	2651.120123
674.073310	2648.143321
674.412864	2649.995945
674.752368	2648.173568
675.091820	2647.397230
675.431223	2646.598207
675.770574	2645.216931
676.109875	2644.453197
676.449125	2640.730304
676.788324	2637.435910
677.127473	2636.223513
677.466571	2634.877525
677.805619	2637.690489
678.144616	2639.197794
678.483562	2638.204686
678.822458	2634.932978
679.161303	2636.432721
679.500098	2633.839047
679.838842	2633.276958
680.177535	2633.632360
680.516179	2637.871970
680.854771	2637.022536
681.193314	2639.515386
681.531805	2645.814308
681.870247	2646.086530
682.208638	2650.303456
682.546978	2651.843528
682.885268	2652.529125
683.223508	2653.202119
683.561697	2651.949392
683.899836	2648.017292
684.237925	2647.218269
684.575963	2646.532672
684.913951	2643.359266
685.251889	2645.710964
685.589776	2643.455048
685.927614	2645.758855
686.265401	2646.247847
686.603137	2642.177116
686.940824	2647.024185
687.278460	2647.969401
687.616046	2650.827736
687.953582	2652.604742
688.291068	2652.730771
688.628504	2654.197747
688.965889	2654.548107
689.303224	2653.930566
689.640510	2650.648775
689.977745	2651.263795
690.314930	2643.641571
690.652065	2645.305152
690.989150	2641.110912
691.326185	2636.503297
691.663170	2634.507000
692.000105	2626.403345
692.336990	2626.143726
692.673825	2626.032820
693.010610	2621.563837
693.347345	2617.089813
693.684030	2612.640995
694.020665	2612.767024
694.357251	2605.187649
694.693786	2609.994389
695.030272	2608.272835
695.366707	2605.439707
695.703093	2602.921651
696.039429	2605.170005
696.375716	2603.304778
696.711952	2601.784870
697.048139	2601.552977
697.384276	2601.520210
697.720363	2603.745879
698.056400	2601.845364
698.392388	2598.694643
698.728326	2600.045672
699.064214	2597.630960
699.400053	2598.329159
699.735842	2598.251022
700.071581	2597.278079
700.407270	2595.664910
700.742910	2594.782708
701.078501	2590.091914
701.414042	2592.428489
701.749533	2591.833633
702.084974	2590.971595
702.420366	2590.545618
702.755709	2589.600402
703.091002	2586.116964
703.426246	2584.707962
703.761440	2586.437077
704.096584	2585.756522
704.431679	2585.025554
704.766725	2581.766448
705.101721	2583.712334
705.436668	2581.806778
705.771565	2579.606314
706.106413	2584.347519
706.441212	2582.310893
706.775961	2584.647468
707.110661	2583.823239
707.445311	2587.382294
707.779913	2586.386666
708.114465	2585.769125
708.448967	2587.515884
708.783421	2591.480752
709.117825	2592.423448
709.452180	2592.985536
709.786485	2595.304467
710.120742	2597.968717
710.454949	2596.874787
710.789107	2603.115735
711.123216	2600.824531
711.457275	2608.804677
711.791286	2612.038577
712.125247	2612.141921
712.459159	2610.594287
712.793023	2617.959412
713.126837	2610.599328
713.460602	2613.979422
713.794318	2611.847013
714.127985	2610.430449
714.461602	2604.829727
714.795171	2603.589603
715.128691	2601.689088
715.462162	2594.208016
715.795584	2593.701380
716.128957	2593.232553
716.462281	2589.655854
716.795556	2589.882706
717.128782	2588.362798
717.461960	2585.466655
717.795088	2585.847262
718.128167	2582.565471
718.461198	2577.494071
718.794180	2582.036150
719.127113	2578.272929
719.459997	2574.073648
719.792833	2574.764286
720.125619	2574.812177
720.458357	2572.374779
720.791046	2572.568863
721.123686	2569.317319
721.456278	2570.471743
721.788821	2568.518296
722.121315	2566.779098
722.453761	2567.505024
722.786158	2570.640622
723.118506	2567.552915
723.450805	2569.634912
723.783056	2567.867987
724.115259	2567.129458
724.447412	2566.688357
724.779518	2567.933522
725.111574	2570.779254
725.443582	2570.529717
725.775542	2568.480488
726.107453	2573.483833
726.439315	2574.882753
726.771129	2578.310738
727.102895	2573.708164
727.434612	2576.238823
727.766281	2579.185378
728.097901	2582.378949
728.429473	2583.475400
728.760996	2582.489854
729.092471	2585.373394
729.423897	2583.225862
729.755276	2579.520614
730.086606	2582.013465
730.417887	2585.272571
730.749120	2588.352716
731.080305	2590.734661
731.411442	2593.139292
731.742530	2592.773808
732.073570	2592.151225
732.404562	2595.402770
732.735506	2595.977461
733.066401	2596.448809
733.397249	2591.684919
733.728048	2588.085535
734.058798	2583.364494
734.389501	2580.826273
734.720156	2578.151941
735.050762	2575.059193
735.381320	2570.191959
735.711831	2571.953842
736.042293	2568.384706
736.372707	2570.529717
736.703073	2566.166598
737.033391	2567.338666
737.363661	2567.920919
737.693883	2570.872515
738.024056	2568.785477
738.354182	2569.340004
738.684260	2573.128431
739.014290	2573.398133
739.344272	2576.387537
739.674207	2575.843093
740.004093	2578.824935
740.333931	2578.431725
740.663722	2579.429874
740.993464	2580.755697
741.323159	2577.247054
741.652806	2577.572208
741.982405	2575.220510
742.311956	2573.869481
742.641460	2574.252609
742.970915	2571.212793
743.300323	2569.012329
743.629683	2564.838254
743.958996	2566.809345
744.288260	2559.860114
744.617477	2561.624518
744.946647	2562.552091
745.275768	2561.566545
745.604842	2560.621329
745.933869	2560.354148
746.262847	2560.155022
746.591778	2559.514795
746.920662	2560.530588
747.249498	2559.103941
747.578286	2559.492110
747.907027	2557.954558
748.235720	2561.006977
748.564365	2561.153170
748.892963	2561.382543
749.221514	2563.633418
749.550017	2559.761812
749.878473	2561.679971
750.206881	2559.827347
750.535242	2559.204764
750.863555	2558.806513
751.191821	2555.776780
751.520039	2558.095711
751.848210	2557.475649
752.176334	2556.321224
752.504411	2556.734599
752.832440	2555.678477
753.160421	2556.258210
753.488356	2556.515309
753.816243	2558.529250
754.144082	2555.552448
754.471875	2552.384083
754.799620	2552.394166
755.127318	2555.053374
755.454969	2550.740667
755.782572	2553.830894
756.110129	2554.488765
756.437638	2552.623538
756.765100	2554.266954
757.092515	2553.485575
757.419882	2553.122612
757.747203	2553.508261
758.074477	2555.567572
758.401703	2552.036244
758.728882	2556.742161
759.056014	2557.815927
759.383099	2555.456667
759.710138	2555.698642
760.037129	2551.527087
760.364073	2558.493962
760.690970	2555.242417
761.017820	2562.174004
761.344623	2559.424055
761.671379	2563.540157
761.998088	2569.193811
762.324751	2574.431570
762.651366	2594.772625
762.977935	2621.349588
763.304456	2641.846920
763.630931	2651.432674
763.957359	2645.348001
764.283740	2637.587145
764.610074	2625.226236
764.936362	2608.350973
765.262602	2595.513675
765.588796	2585.262489
765.914943	2573.536765
766.241044	2568.881259
766.567097	2560.081925
766.893104	2556.595967
767.219064	2551.143959
767.544978	2549.051881
767.870845	2547.705893
768.196665	2545.737322
768.522438	2544.494677
768.848165	2540.328164
769.173846	2540.532331
769.499479	2539.435880
769.825066	2537.089223
770.150607	2536.254912
770.476101	2535.539068
770.801548	2534.356917
771.126949	2531.720394
771.452303	2535.150899
771.777611	2530.404652
772.102872	2531.985054
772.428087	2528.824251
772.753256	2531.422966
773.078378	2527.896678
773.403453	2525.033303
773.728482	2527.004394
774.053465	2526.230577
774.378401	2524.577079
774.703291	2523.092459
775.028135	2526.064219
775.352932	2525.035824
775.677683	2522.018693
776.002388	2518.522653
776.327046	2517.096006
776.651658	2517.953003
776.976224	2516.440656
777.300743	2520.846625
777.625216	2518.797396
777.949643	2522.447191
778.274024	2519.702283
778.598359	2520.707993
778.922647	2519.498116
779.246889	2521.053312
779.571086	2519.014165
779.895236	2521.741430
780.219339	2517.290091
780.543397	2516.675070
780.867409	2520.765966
781.191374	2518.346213
781.515294	2519.883764
781.839167	2519.639268
782.162995	2520.254289
782.486776	2519.876203
782.810511	2518.434433
783.134201	2519.992149
783.457844	2518.111799
783.781441	2517.302694
784.104993	2518.681449
784.428498	2519.906450
784.751958	2517.186747
785.075372	2518.588188
785.398739	2515.888650
785.722061	2517.436284
786.045337	2514.386386
786.368568	2519.437622
786.691752	2520.909639
787.014891	2520.445853
787.337983	2523.226049
787.661030	2524.967768
787.984031	2529.335928
788.306987	2535.733152
788.629897	2536.267514
788.952760	2539.579553
789.275579	2535.420601
789.598351	2531.352389
789.921078	2531.007070
790.243759	2528.783922
790.566395	2527.901720
790.888984	2525.393746
791.211529	2522.321162
791.534027	2520.687828
791.856480	2521.075997
792.178888	2517.600122
792.501249	2514.356139
792.823566	2516.672549
793.145836	2513.869668
793.468062	2515.601304
793.790241	2514.381345
794.112375	2520.239166
794.434464	2516.218846
794.756507	2519.165400
795.078505	2521.270082
795.400457	2517.683301
795.722364	2524.012469
796.044226	2527.881555
796.366042	2528.894827
796.687812	2528.224353
797.009538	2528.771319
797.331218	2527.052285
797.652852	2527.571524
797.974442	2527.334590
798.295986	2528.909950
798.617484	2526.142357
798.938938	2523.962058
799.260346	2522.227901
799.581709	2521.696059
799.903026	2521.320493
800.224299	2518.762108
800.545526	2519.442663
800.866708	2517.096006
801.187845	2519.067098
801.508936	2515.376973
801.829983	2515.026613
802.150984	2517.968126
802.471940	2518.991480
802.792851	2514.741788
803.113717	2513.799092
803.434538	2516.725482
803.755314	2510.860099
804.076045	2513.804133
804.396731	2515.049298
804.717372	2515.134998
805.037967	2514.688855
805.358518	2514.444359
805.679024	2513.395799
805.999485	2513.368073
806.319901	2514.716582
806.640272	2513.680625
806.960598	2515.651716
807.280879	2514.842611
807.601115	2517.753877
807.921306	2513.937723
808.241453	2515.427384
808.561554	2514.696417
808.881611	2513.496623
809.201623	2508.891528
809.521590	2514.124246
809.841513	2516.627179
810.161390	2516.680111
810.481223	2514.560306
810.801011	2514.512415
811.120755	2514.396468
811.440453	2512.468227
811.760107	2512.420336
812.079716	2514.696417
812.399281	2513.625172
812.718801	2513.136180
813.038276	2514.693897
813.357707	2516.468383
813.677093	2514.141890
813.996434	2510.686179
814.315731	2514.562827
814.634983	2513.872188
814.954191	2513.998217
815.273354	2513.534431
815.592473	2515.649195
815.911547	2517.963085
816.230577	2519.057015
816.549562	2518.472241
816.868502	2519.780421
817.187399	2519.195647
817.506250	2520.493744
817.825058	2520.322345
818.143821	2526.268386
818.462539	2527.609333
818.781213	2530.533202
819.099843	2531.614529
819.418429	2540.940664
819.736970	2551.363250
820.055466	2561.412790
820.373919	2574.865109
820.692327	2593.766915
821.010691	2624.419651
821.329011	2688.522963
821.647286	2799.229222
821.965517	2942.445883
822.283704	3048.345402
822.601847	3109.678600
822.919945	3071.597724
823.237999	3009.813342
823.556010	2945.183229
823.873976	2879.454145
824.191897	2815.986018
824.509775	2768.752927
824.827609	2724.010166
825.145398	2692.782738
825.463144	2679.990811
825.780845	2676.492250
826.098502	2684.986594
826.416116	2709.254709
826.733685	2739.574728
827.051210	2759.693973
827.368692	2754.524270
827.686129	2726.021586
828.003522	2690.294929
828.320872	2660.574807
828.638177	2630.080867
828.955439	2609.175202
829.272656	2592.186513
829.589830	2577.224369
829.906960	2564.533264
830.224046	2554.455998
830.541088	2544.892929
830.858086	2540.892773
831.175041	2534.813142
831.491952	2530.518078
831.808819	2536.517052
832.125642	2537.895807
832.442421	2541.369162
832.759157	2558.471277
833.075849	2580.584298
833.392497	2610.183433
833.709101	2633.455919
834.025662	2637.226702
834.342179	2628.553397
834.658653	2612.716612
834.975083	2593.842532
835.291469	2580.508681
835.607811	2562.799107
835.924110	2553.402396
836.240366	2544.920655
836.556578	2537.394212
836.872746	2529.093952
837.188871	2522.616070
837.504952	2518.714217
837.820990	2515.891171
838.136984	2513.678104
838.452935	2509.866992
838.768842	2508.931858
839.084706	2515.064421
839.400526	2525.232429
839.716303	2535.846578
840.032037	2548.782179
840.347727	2550.050029
840.663373	2548.739329
840.978977	2528.758716
841.294537	2530.603778
841.610054	2521.207067
841.925527	2516.236490
842.240957	2515.008969
842.556344	2506.769203
842.871687	2507.580828
843.186987	2503.192504
843.502244	2500.505569
843.817458	2497.997595
844.132629	2497.798469
844.447756	2498.398367
844.762840	2495.729076
845.077881	2494.423417
845.392879	2489.437716
845.707833	2493.090032
846.022745	2491.055926
846.337613	2489.478045
846.652438	2490.037613
846.967221	2492.606081
847.281960	2488.893271
847.596656	2489.329331
847.911309	2488.399238
848.225919	2492.782521
848.540485	2491.471821
848.855009	2490.330000
849.169490	2488.956286
849.483928	2488.636172
849.798323	2489.432675
850.112675	2489.120123
850.426984	2488.517705
850.741251	2490.365288
851.055474	2488.293374
851.369654	2486.493682
851.683792	2487.849752
851.997887	2488.386635
852.311938	2488.381594
852.625947	2487.650627
852.939914	2487.612818
853.253837	2489.170535
853.567718	2488.119454
853.881555	2486.954947
854.195350	2489.145329
854.509103	2486.017293
854.822812	2490.357726
855.136479	2487.317911
855.450103	2490.511482
855.763685	2487.118785
856.077224	2482.990080
856.390720	2484.187354
856.704173	2484.189875
857.017584	2488.462252
857.330953	2491.547439
857.644278	2490.203971
857.957561	2490.037613
858.270802	2491.421410
858.584000	2489.563745
858.897155	2490.791266
859.210268	2489.712459
859.523339	2488.275730
859.836367	2485.150214
860.149352	2491.154229
860.462295	2490.415700
860.775195	2489.611636
861.088054	2488.086687
861.400869	2490.975268
861.713642	2488.333703
862.026373	2486.163486
862.339062	2489.183137
862.651708	2488.094248
862.964312	2488.971409
863.276873	2488.280771
863.589392	2491.262613
863.901869	2492.243118
864.214303	2492.936277
864.526696	2491.786893
864.839045	2491.002994
865.151353	2491.146667
865.463619	2491.378560
865.775842	2496.306288
866.088023	2493.142964
866.400162	2493.256390
866.712258	2492.744713
867.024313	2492.971565
867.336325	2493.760505
867.648296	2495.643376
867.960224	2492.822851
868.272110	2495.950887
868.583954	2493.205978
868.895755	2496.099601
869.207515	2492.167501
869.519233	2496.961638
869.830909	2493.616832
870.142542	2494.741010
870.454134	2496.039107
870.765684	2494.665392
871.077191	2497.465753
871.388657	2492.694301
871.700081	2492.250680
872.011463	2496.828047
872.322803	2494.413335
872.634101	2496.691936
872.945357	2500.659324
873.256571	2501.443224
873.567744	2498.887359
873.878874	2498.910044
874.189963	2502.015395
874.501010	2501.092863
874.812015	2503.152175
875.122979	2504.301558
875.433900	2500.500528
875.744780	2504.909017
876.055618	2501.291989
876.366415	2503.144613
876.677169	2503.585714
876.987882	2501.579335
877.298554	2505.156033
877.609183	2506.829697
877.919771	2506.993534
878.230317	2510.401354
878.540822	2516.251613
878.851285	2521.300329
879.161707	2522.154804
879.472087	2534.344314
879.782425	2545.903680
880.092722	2574.227403
880.402977	2616.815071
880.713191	2670.949501
881.023363	2733.240519
881.333494	2773.458844
881.643583	2797.202679
881.953631	2795.161011
882.263637	2785.900412
882.573602	2766.532299
882.883526	2743.274935
883.193408	2723.208622
883.503248	2700.558718
883.813048	2680.250430
884.122806	2660.675630
884.432522	2639.711991
884.742197	2619.665843
885.051831	2602.185642
885.361424	2584.604618
885.670975	2571.169943
885.980485	2558.362892
886.289954	2552.169834
886.599382	2541.858154
886.908768	2536.479243
887.218113	2526.124713
887.527417	2522.951307
887.836680	2517.592560
888.145901	2518.121881
888.455082	2516.092817
888.764221	2511.598628
889.073319	2511.044101
889.382376	2512.001920
889.691392	2507.200221
890.000366	2509.168792
890.309300	2506.774244
890.618193	2507.913545
890.927044	2507.164933
891.235855	2507.666528
891.544625	2508.029491
891.853353	2511.903618
892.162041	2510.098885
892.470687	2513.655419
892.779293	2517.395955
893.087858	2518.091634
893.396381	2529.971113
893.704864	2539.975283
894.013306	2555.494475
894.321707	2573.375448
894.630068	2586.053950
894.938387	2592.642738
895.246665	2590.132243
895.554903	2584.337437
895.863100	2575.530541
896.171256	2571.187587
896.479371	2557.858776
896.787446	2551.791748
897.095480	2546.206149
897.403473	2541.112063
897.711425	2534.694674
898.019336	2532.660569
898.327207	2528.047913
898.635038	2523.450381
898.942827	2518.951151
899.250576	2517.375790
899.558284	2512.982425
899.865952	2510.350942
900.173579	2509.977897
900.481165	2508.039573
900.788711	2505.602176
901.096216	2502.302740
901.403681	2502.002792
901.711105	2502.217041
902.018489	2502.665703
902.325832	2502.774088
902.633135	2501.821310
902.940397	2508.775582
903.247619	2515.961747
903.554800	2541.588452
903.861941	2569.559294
904.169041	2600.005343
904.476101	2613.487909
904.783121	2613.792899
905.090100	2601.661362
905.397039	2588.635021
905.703938	2578.714030
906.010796	2567.862946
906.317614	2558.141081
906.624391	2548.504915
906.931129	2540.340767
907.237826	2535.108049
907.544483	2527.498427
907.851099	2521.764115
908.157675	2514.782117
908.464211	2508.934378
908.770707	2505.125787
909.077163	2498.975579
909.383578	2498.085815
909.689954	2496.550784
909.996289	2492.815289
910.302584	2493.044661
910.608839	2491.859990
910.915054	2490.266986
911.221229	2489.646924
911.527363	2490.166163
911.833458	2490.579537
912.139513	2492.185145
912.445527	2491.970896
912.751502	2491.844867
913.057436	2495.819817
913.363331	2498.015239
913.669186	2499.260404
913.975000	2502.927843
914.280775	2506.607886
914.586510	2518.499968
914.892205	2532.252235
915.197859	2552.379042
915.503475	2571.636250
915.809050	2590.349013
916.114585	2604.043307
916.420081	2611.857096
916.725536	2614.649895
917.030952	2607.919955
917.336328	2601.651280
917.641665	2590.434712
917.946961	2582.648650
918.252218	2577.768813
918.557435	2566.577452
918.862612	2563.222564
919.167750	2556.520350
919.472848	2549.881150
919.777906	2540.640715
920.082925	2531.662420
920.387904	2527.664785
920.692843	2522.427027
920.997743	2517.398476
921.302603	2512.130470
921.607423	2508.422701
921.912204	2504.987155
922.216946	2505.082937
922.521647	2503.036228
922.826310	2499.900631
923.130932	2498.630260
923.435516	2495.076246
923.740059	2495.471977
924.044564	2490.962665
924.349028	2493.019456
924.653454	2492.427120
924.957840	2488.633652
925.262186	2487.701038
925.566493	2486.531491
925.870761	2484.507467
926.174989	2485.087200
926.479178	2483.249699
926.783328	2484.769607
927.087438	2483.040492
927.391509	2482.581747
927.695541	2483.647951
927.999533	2481.107209
928.303486	2480.741725
928.607400	2481.870944
928.911275	2481.286170
929.215110	2480.719040
929.518906	2481.074442
929.822663	2481.215594
930.126381	2480.348515
930.430060	2478.959678
930.733699	2480.328351
931.037299	2479.743577
931.340861	2480.766931
931.644383	2478.548823
931.947866	2481.573516
932.251309	2478.339616
932.554714	2481.192909
932.858080	2476.807105
933.161407	2476.446662
933.464694	2478.942033
933.767943	2472.570015
934.071153	2479.327682
934.374323	2474.836014
934.677455	2478.621920
934.980548	2476.915490
935.283602	2480.729123
935.586617	2475.657722
935.889593	2479.851962
936.192530	2478.327013
936.495428	2478.377424
936.798287	2476.741570
937.101108	2480.703917
937.403890	2479.375573
937.706632	2482.249030
938.009336	2483.199288
938.312002	2490.390494
938.614628	2486.503764
938.917216	2487.564927
939.219765	2485.891264
939.522275	2487.398569
939.824747	2488.598364
940.127179	2488.724393
940.429573	2488.800010
940.731929	2491.053406
941.034246	2489.006697
941.336524	2490.302274
941.638763	2487.706079
941.940964	2485.419916
942.243126	2484.779690
942.545250	2488.915956
942.847335	2487.322952
943.149381	2485.825729
943.451389	2484.709113
943.753359	2484.162148
944.055290	2484.820019
944.357182	2482.720378
944.659036	2483.312714
944.960851	2483.957982
945.262628	2482.027220
945.564367	2483.116109
945.866067	2481.001345
946.167729	2482.125522
946.469352	2481.881026
946.770937	2483.852117
947.072484	2481.447487
947.373992	2482.828763
947.675462	2478.251395
947.976893	2483.388331
948.278286	2477.273412
948.579641	2480.270378
948.880958	2475.345170
949.182236	2481.427322
949.483476	2478.364821
949.784678	2480.093937
950.085841	2478.808443
950.386967	2481.719709
950.688054	2479.761221
950.989103	2481.530666
951.290114	2478.632003
951.591087	2485.530822
951.892021	2479.408340
952.192917	2481.316417
952.493776	2483.900008
952.794596	2484.051243
953.095378	2484.008393
953.396122	2485.729947
953.696828	2486.718013
953.997496	2481.452528
954.298126	2483.353043
954.598718	2483.922693
954.899272	2482.894298
955.199788	2483.647951
955.500266	2481.732312
955.800706	2480.156952
956.101108	2477.868268
956.401472	2479.420943
956.701798	2477.578401
957.002087	2475.491364
957.302337	2478.004379
957.602550	2479.163844
957.902724	2476.388689
958.202861	2474.306693
958.502960	2474.193267
958.803022	2473.611013
959.103045	2472.038173
959.403031	2471.415591
959.702979	2472.423822
960.002889	2472.902731
960.302762	2473.704275
960.602596	2470.205714
960.902393	2472.512042
961.202153	2470.808132
961.501875	2472.862402
961.801559	2473.454738
962.101205	2469.815024
962.400814	2471.143368
962.700385	2469.532720
962.999918	2470.934161
963.299414	2464.824282
963.598873	2468.292596
963.898293	2464.373099
964.197677	2469.941053
964.497022	2467.196145
964.796331	2471.110601
965.095601	2466.339149
965.394835	2470.982052
965.694030	2467.458285
965.993189	2469.252936
966.292309	2468.337966
966.591393	2468.216979
966.890439	2470.225878
967.189447	2470.609006
967.488419	2468.060703
967.787353	2469.825107
968.086249	2466.596248
968.385108	2468.416104
968.683930	2469.071454
968.982714	2467.796042
969.281462	2470.361990
969.580172	2470.815693
969.878844	2471.639922
970.177480	2468.340487
970.476078	2467.022225
970.774639	2470.966928
971.073162	2471.125724
971.371649	2471.831486
971.670098	2471.231589
971.968510	2471.455920
972.266885	2468.952987
972.565223	2471.748307
972.863524	2470.480457
973.161788	2472.612865
973.460014	2471.607155
973.758204	2472.154120
974.056356	2470.205714
974.354471	2471.680251
974.652550	2469.540282
974.950591	2471.781074
975.248595	2471.851651
975.546563	2473.190077
975.844493	2470.503142
976.142386	2468.743779
976.440243	2470.470374
976.738062	2470.780405
977.035845	2473.132104
977.333590	2470.208234
977.631299	2468.408543
977.928971	2468.330405
978.226606	2465.262862
978.524204	2467.606999
978.821765	2465.310753
979.119290	2470.389716
979.416777	2469.668831
979.714228	2469.384006
980.011642	2469.318471
980.309020	2469.384006
980.606360	2470.359469
980.903664	2469.845271
981.200931	2471.176136
981.498162	2473.424491
981.795356	2476.073617
982.092513	2475.776189
982.389633	2480.426653
982.686717	2480.260295
982.983764	2485.795482
983.280775	2486.075266
983.577749	2486.375215
983.874686	2489.417551
984.171587	2485.482931
984.468451	2484.862869
984.765279	2486.473517
985.062070	2480.197281
985.358824	2482.899339
985.655543	2480.398927
985.952224	2478.780717
986.248869	2476.587815
986.545478	2475.173771
986.842050	2472.562453
987.138586	2471.115642
987.435086	2471.055148
987.731549	2470.863584
988.027975	2469.888121
988.324366	2468.862246
988.620719	2467.178501
988.917037	2466.818058
989.213318	2467.990127
989.509563	2465.898048
989.805772	2467.385188
990.101944	2466.671865
990.398080	2466.896196
990.694180	2468.030456
990.990244	2466.203038
991.286271	2465.593058
991.582262	2463.483335
991.878217	2466.432410
992.174136	2467.523820
992.470019	2467.755713
992.765865	2466.172791
993.061676	2463.367389
993.357450	2464.930146
993.653188	2461.819754
993.948890	2467.700260
994.244556	2468.915178
994.540186	2468.973152
994.835780	2469.116825
995.131337	2474.082361
995.426859	2472.983390
995.722345	2472.761579
996.017795	2476.325675
996.313208	2478.248875
996.608586	2475.108236
996.903928	2477.999338
997.199234	2477.086889
997.494504	2477.772486
997.789738	2476.716364
998.084936	2476.991107
998.380099	2474.730149
998.675225	2473.603452
998.970316	2472.940540
999.265371	2471.977679
999.560390	2469.502473
999.855373	2469.936012
1000.150320	2470.490539
1000.445232	2470.697226
1000.740108	2468.015332
1001.034948	2467.680096
1001.329752	2466.374437
1001.624521	2467.821248
1001.919254	2465.948459
1002.213951	2467.034828
1002.508613	2464.993161
1002.803239	2466.734879
1003.097829	2464.093315
1003.392384	2464.942749
1003.686903	2462.580969
1003.981386	2464.420990
1004.275834	2464.476442
1004.570246	2466.016515
1004.864623	2465.580455
1005.158964	2464.693212
1005.453270	2466.941567
1005.747540	2464.877214
1006.041775	2468.569859
1006.335974	2464.841926
1006.630138	2467.856536
1006.924266	2467.493573
1007.218359	2464.983078
1007.512416	2465.116669
1007.806438	2460.887141
1008.100425	2462.117182
1008.394376	2459.863787
1008.688292	2465.819910
1008.982172	2463.969807
1009.276017	2467.226392
1009.569827	2467.188583
1009.863602	2464.670527
1010.157341	2464.504169
1010.451045	2462.054168
1010.744714	2468.499283
1011.038347	2465.807307
1011.331945	2464.413428
1011.625508	2464.267235
1011.919036	2465.020887
1012.212528	2464.476442
1012.505986	2460.622480
1012.799408	2464.058027
1013.092795	2464.050465
1013.386147	2463.947121
1013.679464	2464.418469
1013.972745	2464.360496
1014.265992	2464.718418
1014.559204	2465.056175
1014.852380	2464.509210
1015.145521	2464.058027
1015.438628	2466.417287
1015.731699	2462.923767
1016.024736	2463.906792
1016.317737	2462.896041
1016.610703	2463.924436
1016.903635	2464.370578
1017.196531	2463.659776
1017.489393	2465.978706
1017.782219	2465.653552
1018.075011	2467.385188
1018.367768	2463.400156
1018.660490	2463.841257
1018.953177	2463.841257
1019.245829	2463.841257
