Dividing Wavelength (nm)	Counts (n)	Blue Motor Position (mm): 0.000000	Red Motor Position (mm): 6.500000	
326.493990	2054.355892
326.888308	2054.355892
327.282561	2054.355892
327.676750	2031.675741
328.070874	2030.584331
328.464933	2038.234282
328.858929	2044.606300
329.252859	2055.749771
329.646726	2069.912893
330.040528	2083.803792
330.434265	2103.141658
330.827938	2125.174021
331.221547	2142.409726
331.615091	2163.506955
332.008571	2184.296673
332.401986	2202.943902
332.795338	2223.708414
333.188625	2243.794892
333.581847	2262.537902
333.975006	2281.404420
334.368100	2298.635084
334.761129	2314.734009
335.154095	2328.768581
335.546996	2345.971518
335.939833	2360.016173
336.332606	2374.353215
336.725315	2383.190357
337.117960	2395.284085
337.510540	2402.200548
337.903056	2412.771848
338.295508	2418.175965
338.687896	2428.916143
339.080220	2433.284303
339.472480	2436.243460
339.864676	2440.677155
340.256807	2442.406271
340.648875	2443.371652
341.040879	2447.323917
341.432818	2449.133691
341.824694	2448.279215
342.216506	2449.206788
342.608253	2448.327106
342.999937	2448.112857
343.391557	2447.742332
343.783113	2444.770572
344.174605	2441.506425
344.566033	2444.972218
344.957397	2441.251847
345.348697	2441.849223
345.739934	2437.216403
346.131106	2435.144489
346.522215	2434.902513
346.913260	2432.507965
347.304241	2433.054931
347.695159	2430.340269
348.086012	2429.821030
348.476802	2425.732655
348.867528	2424.122006
349.258191	2418.014648
349.648789	2422.100503
350.039324	2416.787127
350.429796	2421.863569
350.820203	2419.847107
351.210548	2418.559093
351.600828	2420.086562
351.991045	2419.927766
352.381198	2415.123546
352.771288	2419.882396
353.161314	2415.693197
353.551276	2419.945410
353.941175	2416.507343
354.331010	2417.991963
354.720782	2417.790317
355.110490	2417.883578
355.500135	2418.271747
355.889717	2419.771490
356.279235	2419.113620
356.668689	2418.009607
357.058080	2420.910791
357.447408	2419.363157
357.836672	2420.963723
358.225873	2421.414906
358.615010	2423.776687
359.004084	2419.917684
359.393095	2420.751995
359.782043	2422.327355
360.170927	2423.587644
360.559748	2424.210226
360.948505	2422.100503
361.337199	2427.766760
361.725830	2422.501275
362.114398	2427.005546
362.502903	2424.369023
362.891344	2426.272058
363.279722	2426.209044
363.668037	2429.185845
364.056289	2428.648962
364.444478	2427.381112
364.832603	2430.814138
365.220665	2431.106525
365.608665	2429.458067
365.996601	2431.235074
366.384474	2429.160639
366.772284	2426.917326
367.160031	2430.902358
367.547715	2435.409149
367.935336	2431.769436
368.322893	2429.188366
368.710388	2430.335228
369.097820	2429.568973
369.485189	2427.769281
369.872495	2433.848912
370.259738	2432.462595
370.646918	2436.752617
371.034035	2433.969900
371.421090	2436.833275
371.808081	2437.866712
372.195010	2435.696495
372.581875	2440.450303
372.968678	2437.783533
373.355418	2439.323605
373.742096	2441.453493
374.128710	2446.330809
374.515262	2444.982301
374.901751	2448.947168
375.288177	2453.675770
375.674540	2455.485545
376.060841	2458.845474
376.447079	2464.597430
376.833254	2466.908799
377.219367	2469.946094
377.605417	2476.509677
377.991404	2480.688793
378.377329	2485.182982
378.763191	2493.400063
379.148991	2500.024139
379.534727	2504.646877
379.920402	2514.119205
380.306013	2519.356964
380.691563	2531.790970
381.077049	2536.237268
381.462474	2546.556509
381.847835	2554.103117
382.233134	2565.024777
382.618371	2568.137689
383.003545	2580.564133
383.388657	2590.656523
383.773706	2603.322422
384.158693	2611.058073
384.543618	2623.151801
384.928480	2629.049951
385.313280	2640.667290
385.698017	2653.623055
386.082692	2662.525733
386.467305	2667.125786
386.851856	2676.235151
387.236344	2690.042871
387.620770	2696.772812
388.005133	2702.794470
388.389435	2719.616800
388.773674	2721.436657
389.157851	2734.934346
389.541965	2741.074472
389.926018	2744.820049
390.310008	2755.731627
390.693936	2760.689601
391.077802	2767.502721
391.461606	2772.145623
391.845348	2772.087650
392.229027	2775.379524
392.612645	2787.480813
392.996200	2791.266720
393.379694	2796.552370
393.763125	2801.664100
394.146494	2800.015642
394.529801	2805.858340
394.913047	2807.189204
395.296230	2792.988274
395.679351	2789.343520
396.062410	2789.285547
396.445408	2769.400715
396.828343	2770.272835
397.211217	2764.722524
397.594028	2741.029101
397.976778	2740.963566
398.359466	2733.154819
398.742092	2719.402551
399.124656	2705.491487
399.507158	2704.490818
399.889598	2692.984385
400.271977	2688.785103
400.654294	2670.684841
401.036549	2666.402380
401.418742	2650.903353
401.800874	2648.496202
402.182944	2638.915489
402.564952	2636.440282
402.946898	2622.740947
403.328783	2607.602362
403.710606	2601.744541
404.092367	2595.044848
404.474067	2589.053436
404.855705	2574.794533
405.237282	2562.882286
405.618797	2558.690567
406.000250	2556.631255
406.381642	2550.415513
406.762972	2535.307175
407.144240	2524.493900
407.525447	2525.837367
407.906593	2511.593587
408.287677	2513.698269
408.668700	2510.731550
409.049661	2502.191835
409.430560	2498.536998
409.811399	2495.020794
410.192176	2490.876965
410.572891	2488.235401
410.953545	2482.606952
411.334138	2481.588639
411.714669	2478.591673
412.095139	2477.114615
412.475547	2476.174440
412.855894	2473.777371
413.236180	2472.055817
413.616405	2469.963738
413.996568	2471.466002
414.376670	2471.869295
414.756711	2469.026084
415.136691	2469.613378
415.516609	2466.833182
415.896466	2467.450723
416.276262	2466.288737
416.655997	2463.296812
417.035670	2465.625826
417.415283	2464.448716
417.794834	2463.644652
418.174324	2464.587348
418.553753	2463.185907
418.933121	2465.494756
419.312428	2464.814200
419.691674	2465.343521
420.070859	2466.127420
420.449983	2462.046606
420.829045	2464.796556
421.208047	2465.456947
421.586988	2464.340331
421.965867	2463.047275
422.344686	2464.874694
422.723444	2464.262193
423.102141	2464.388222
423.480777	2463.725311
423.859352	2462.023921
424.237866	2465.530044
424.616319	2461.960907
424.994712	2466.523151
425.373044	2463.778243
425.751314	2460.138530
426.129524	2461.580300
426.507673	2463.500979
426.885762	2458.719445
427.263789	2461.610547
427.641756	2466.813017
428.019662	2465.577935
428.397508	2465.298151
428.775292	2465.144395
429.153016	2463.846298
429.530679	2467.110445
429.908282	2465.305712
430.285824	2463.369909
430.663305	2466.286217
431.040726	2466.881073
431.418086	2463.112810
431.795385	2464.846967
432.172624	2463.465691
432.549802	2465.560291
432.926920	2466.213120
433.303977	2465.570373
433.680974	2468.267390
434.057910	2468.564818
434.434786	2467.143213
434.811601	2467.085240
435.188355	2466.911320
435.565050	2467.029787
435.941683	2465.840075
436.318257	2468.388378
436.694770	2467.859057
437.071222	2469.343677
437.447614	2468.211937
437.823946	2471.040025
438.200218	2468.209417
438.576429	2469.618419
438.952580	2468.952987
439.328670	2468.181691
439.704700	2469.439458
440.080670	2468.408543
440.456580	2468.655559
440.832429	2469.981383
441.208218	2467.765795
441.583947	2470.949284
441.959616	2468.839561
442.335224	2470.132617
442.710773	2472.227217
443.086261	2470.072123
443.461689	2468.159005
443.837057	2468.862246
444.212365	2469.590693
444.587612	2470.624130
444.962800	2468.277473
445.337927	2469.741928
445.712995	2465.477112
446.088002	2472.302834
446.462949	2470.099850
446.837837	2472.564974
447.212664	2470.498101
447.587431	2473.273256
447.962139	2471.897021
448.336786	2476.113946
448.711374	2475.004892
449.085901	2472.945581
449.460369	2473.605972
449.834776	2477.238123
450.209124	2472.330560
450.583412	2475.929944
450.957640	2474.588997
451.331808	2475.904738
451.705917	2474.145376
452.079965	2472.995993
452.453954	2473.540437
452.827883	2478.009420
453.201752	2475.256950
453.575562	2473.472382
453.949311	2472.701085
454.323001	2475.269553
454.696632	2474.047073
455.070202	2477.868268
455.443713	2476.703761
455.817164	2477.643936
456.190556	2477.139821
456.563888	2476.804584
456.937160	2475.143524
457.310373	2477.263329
457.683526	2477.361632
458.056619	2475.514049
458.429653	2477.248206
458.802628	2479.980511
459.175542	2476.948257
459.548398	2478.458083
459.921194	2480.464462
460.293930	2480.938330
460.666607	2478.412712
461.039224	2482.780872
461.411782	2479.841879
461.784280	2480.048567
462.156719	2478.483288
462.529099	2481.450008
462.901419	2479.244503
463.273680	2480.706437
463.645882	2474.901549
464.018024	2476.847434
464.390106	2476.489512
464.762130	2478.856334
465.134094	2483.630307
465.505999	2485.956799
465.877845	2487.252376
466.249631	2487.333034
466.621358	2488.570637
466.993026	2486.425626
467.364634	2488.300936
467.736184	2485.898826
468.107674	2483.514360
468.479105	2484.857827
468.850477	2483.968064
469.221790	2483.804226
469.593043	2481.974288
469.964238	2484.913280
470.335373	2481.802888
470.706449	2482.617035
471.077467	2481.848259
471.448425	2487.184320
471.819324	2487.138950
472.190164	2486.430668
472.560945	2483.335399
472.931667	2482.785913
473.302330	2481.893629
473.672934	2483.680718
474.043479	2482.276757
474.413965	2484.026037
474.784393	2483.839514
475.154761	2481.709627
475.525070	2483.509319
475.895321	2481.694503
476.265513	2483.562251
476.635645	2483.524442
477.005719	2486.024855
477.375734	2486.420585
477.745691	2485.934114
478.115588	2489.263796
478.485427	2487.411172
478.855207	2488.406800
479.224928	2490.561893
479.594591	2487.907726
479.964194	2491.398725
480.333739	2490.193889
480.703226	2491.859990
481.072653	2490.090545
481.442022	2489.452839
481.811333	2492.132212
482.180584	2486.196254
482.549777	2489.997284
482.918912	2486.884371
483.287988	2489.878817
483.657005	2489.147849
484.025964	2492.444764
484.394864	2490.766060
484.763706	2489.765391
485.132489	2488.066522
485.501213	2491.524753
485.869879	2488.061481
486.238487	2487.600215
486.607036	2488.820174
486.975527	2489.294043
487.343959	2489.147849
487.712333	2490.145998
488.080648	2490.176245
488.448905	2490.335041
488.817104	2490.093066
489.185244	2491.774291
489.553326	2489.185658
489.921350	2492.109527
490.289315	2494.430979
490.657222	2494.015083
491.025070	2493.863849
491.392861	2494.189003
491.760593	2490.256903
492.128267	2494.599857
492.495883	2493.974754
492.863440	2489.762870
493.230939	2491.002994
493.598380	2489.314207
493.965763	2490.168683
494.333088	2488.225318
494.700354	2490.312356
495.067563	2493.886534
495.434713	2488.802530
495.801805	2490.133395
496.168839	2490.914774
496.535815	2491.149188
496.902733	2489.541059
497.269593	2488.036275
497.636395	2488.474855
498.003139	2489.694815
498.369825	2488.989053
498.736453	2488.661378
499.103023	2493.319404
499.469535	2489.911584
499.835989	2490.826554
500.202385	2487.038127
500.568723	2485.916470
500.935003	2488.182468
501.301226	2485.704741
501.667390	2492.348982
502.033497	2491.159270
502.399546	2492.023828
502.765537	2490.798827
503.131470	2490.922336
503.497345	2491.784373
503.863163	2487.706079
504.228923	2488.432006
504.594625	2488.875627
504.960269	2491.093735
505.325856	2490.007366
505.691385	2492.464929
506.056856	2490.866883
506.422270	2486.902015
506.787625	2490.551811
507.152924	2490.002325
507.518164	2491.842346
507.883347	2489.082314
508.248472	2488.167345
508.613540	2490.261944
508.978550	2489.737664
509.343503	2491.310504
509.708398	2487.537201
510.073236	2490.156080
510.438016	2490.705566
510.802738	2488.139619
511.167403	2492.255721
511.532010	2490.201451
511.896561	2493.659682
512.261053	2488.807572
512.625488	2491.207161
512.989866	2489.553662
513.354186	2489.052068
513.718449	2488.560555
514.082655	2491.691112
514.446803	2492.467449
514.810894	2491.098776
515.174927	2492.006184
515.538904	2489.467963
515.902822	2492.545587
516.266684	2491.741523
516.630488	2493.629435
516.994235	2492.008704
517.357925	2490.135916
517.721558	2493.669764
518.085133	2493.258910
518.448651	2488.444608
518.812112	2487.983343
519.175516	2489.616677
519.538863	2485.994608
519.902152	2491.484424
520.265385	2493.122799
520.628560	2493.447954
520.991678	2493.609271
521.354739	2490.519043
521.717743	2491.807058
522.080690	2493.440392
522.443580	2490.871924
522.806413	2491.708756
523.169189	2491.159270
523.531908	2490.829074
523.894569	2492.381750
524.257174	2492.616163
524.619722	2493.705052
524.982213	2491.991060
525.344647	2489.546101
525.707025	2491.867552
526.069345	2491.822182
526.431608	2493.992398
526.793815	2493.395022
527.155964	2491.678509
527.518057	2493.027017
527.880093	2491.209681
528.242072	2491.779332
528.603995	2494.683036
528.965860	2489.480566
529.327669	2492.490134
529.689421	2492.722028
530.051117	2490.473673
530.412755	2493.510968
530.774337	2489.707418
531.135862	2493.513489
531.497331	2492.409476
531.858743	2490.781183
532.220098	2492.638848
532.581396	2493.473159
532.942638	2490.055257
533.303824	2491.832264
533.664953	2493.463077
534.026025	2491.693632
534.387040	2492.538025
534.747999	2491.081132
535.108902	2489.969558
535.469748	2489.309166
535.830537	2491.255052
536.191270	2492.457367
536.551947	2490.115751
536.912567	2488.338744
537.273131	2491.242449
537.633638	2485.016624
537.994089	2492.114568
538.354483	2492.364106
538.714821	2490.113230
539.075103	2491.938128
539.435328	2491.769249
539.795497	2491.912922
540.155609	2489.914105
540.515665	2495.114055
540.875665	2487.733806
541.235609	2490.183807
541.595496	2490.239259
541.955328	2493.132882
542.315102	2495.058602
542.674821	2492.979126
543.034483	2491.968375
543.394090	2493.800834
543.753640	2494.919971
544.113134	2492.268324
544.472571	2493.238746
544.831953	2490.640031
545.191278	2492.870742
545.550548	2489.485607
545.909761	2492.306132
546.268918	2489.404948
546.628019	2491.963334
546.987064	2489.755308
547.346053	2489.422592
547.704986	2490.945021
548.063863	2492.560711
548.422684	2492.207830
548.781449	2491.675988
549.140158	2491.325628
549.498811	2493.364775
549.857408	2489.906543
550.215949	2488.454691
550.574434	2491.497027
550.932864	2493.153046
551.291237	2491.466780
551.649555	2495.330825
552.007817	2491.159270
552.366022	2490.519043
552.724173	2490.884527
553.082267	2490.937459
553.440305	2492.273365
553.798288	2492.580875
554.156215	2492.515340
554.514086	2490.105669
554.871902	2489.624238
555.229661	2488.084166
555.587365	2488.454691
555.945014	2492.757316
556.302606	2495.030876
556.660143	2491.600371
557.017625	2491.479383
557.375050	2490.614825
557.732421	2491.555000
558.089735	2494.073057
558.446994	2491.618015
558.804197	2492.568272
559.161345	2491.411327
559.518437	2490.589619
559.875474	2491.517192
560.232455	2488.157263
560.589381	2491.640700
560.946251	2492.774960
561.303065	2489.946872
561.659825	2493.024497
562.016528	2493.213540
562.373177	2491.580206
562.729770	2493.281596
563.086307	2493.551297
563.442789	2493.216061
563.799216	2492.227994
564.155587	2490.778663
564.511904	2491.403766
564.868164	2490.151039
565.224370	2489.341934
565.580520	2493.732779
565.936615	2493.760505
566.292654	2490.592140
566.648638	2489.931749
567.004567	2492.845536
567.360441	2492.613643
567.716260	2494.189003
568.072023	2492.253200
568.427732	2495.030876
568.783385	2491.920484
569.138982	2490.975268
569.494525	2492.656493
569.850013	2492.200268
570.205445	2493.702532
570.560823	2492.860659
570.916145	2492.820330
571.271412	2490.650113
571.626625	2493.536174
571.981782	2493.213540
572.336884	2494.471308
572.691931	2489.528457
573.046923	2488.842860
573.401860	2485.752632
573.756743	2492.512820
574.111570	2490.466111
574.466342	2493.581544
574.821059	2490.493837
575.175722	2494.504075
575.530330	2491.537356
575.884882	2491.739002
576.239380	2491.018117
576.593823	2494.746051
576.948211	2492.091883
577.302544	2490.803868
577.656823	2490.075422
578.011047	2491.711276
578.365216	2490.997953
578.719330	2491.156749
579.073389	2491.925525
579.427394	2492.255721
579.781344	2490.919815
580.135239	2489.518374
580.489080	2492.462408
580.842866	2492.442243
581.196597	2491.154229
581.550273	2492.114568
581.903895	2492.306132
582.257463	2490.647593
582.610975	2490.614825
582.964434	2492.931235
583.317837	2489.586430
583.671186	2493.238746
584.024481	2488.920997
584.377721	2493.765546
584.730906	2490.526605
585.084037	2493.891575
585.437113	2492.641369
585.790135	2491.250011
586.143103	2493.140443
586.496016	2492.248159
586.848874	2493.352172
587.201679	2490.846718
587.554428	2490.975268
587.907124	2489.299084
588.259765	2489.876296
588.612352	2493.289157
588.964884	2490.882006
589.317362	2493.848725
589.669786	2489.901502
590.022155	2491.552480
590.374470	2487.781697
590.726731	2489.977119
591.078937	2485.855976
591.431090	2491.633138
591.783188	2491.557521
592.135232	2492.653972
592.487222	2491.040803
592.839157	2490.622387
593.191038	2492.245638
593.542866	2492.938797
593.894639	2492.275885
594.246358	2490.526605
594.598022	2492.870742
594.949633	2492.175062
595.301190	2490.498879
595.652692	2492.240597
596.004141	2491.365957
596.355535	2490.360247
596.706876	2489.881337
597.058162	2489.110041
597.409395	2489.825885
597.760573	2491.116420
598.111698	2488.684063
598.462768	2489.110041
598.813785	2489.110041
599.164748	2488.641213
599.515657	2490.156080
599.866511	2489.994763
600.217312	2489.692294
600.568060	2486.793631
600.918753	2494.216730
601.269392	2489.551142
601.619978	2490.803868
601.970510	2487.522077
602.320988	2487.701038
602.671412	2492.250680
603.021783	2490.735813
603.372100	2490.476193
603.722363	2490.912253
604.072572	2490.841677
604.422728	2490.939980
604.772830	2489.147849
605.122878	2490.067860
605.472872	2491.166832
605.822813	2491.038282
606.172701	2489.699856
606.522534	2492.275885
606.872314	2489.137767
607.222041	2490.997953
607.571714	2489.349496
607.921333	2486.627273
608.270899	2489.155411
608.620411	2486.612149
608.969870	2488.096769
609.319276	2489.737664
609.668627	2491.121461
610.017926	2488.293374
610.367171	2488.878148
610.716362	2490.549290
611.065500	2489.737664
611.414585	2488.926039
611.763616	2489.286481
612.112594	2486.846563
612.461518	2489.851090
612.810389	2489.924187
613.159207	2491.398725
613.507971	2489.533498
613.856682	2490.450988
614.205340	2489.583909
614.553945	2491.454177
614.902496	2492.611122
615.250994	2490.125833
615.599439	2491.494507
615.947830	2492.696822
616.296169	2488.878148
616.644454	2489.289002
616.992686	2490.836636
617.340864	2491.980978
617.688990	2489.336893
618.037063	2490.040134
618.385082	2489.747747
618.733048	2491.370998
619.080961	2486.108034
619.428821	2491.144146
619.776628	2490.503920
620.124382	2490.387973
620.472083	2488.951244
620.819731	2488.016110
621.167326	2489.200782
621.514868	2489.954434
621.862357	2489.069712
622.209793	2490.118272
622.557176	2491.300422
622.904506	2488.825216
623.251783	2487.910246
623.599007	2490.758498
623.946179	2489.677171
624.293297	2491.174393
624.640363	2489.921667
624.987376	2485.059474
625.334336	2480.668629
625.681243	2487.350678
626.028097	2483.146356
626.374899	2488.154742
626.721647	2487.315390
627.068343	2487.154073
627.414987	2486.191213
627.761577	2487.562407
628.108115	2489.029382
628.454600	2487.968219
628.801032	2488.477376
629.147412	2489.039465
629.493739	2486.614670
629.840014	2488.232880
630.186236	2486.251707
630.532405	2488.114413
630.878521	2487.849752
631.224585	2485.543424
631.570597	2485.576192
631.916556	2487.474186
632.262462	2486.992756
632.608316	2489.462922
632.954117	2484.774648
633.299866	2486.473517
633.645562	2485.750112
633.991206	2486.166007
634.336797	2485.127529
634.682336	2488.484938
635.027823	2487.146511
635.373257	2486.649958
635.718639	2488.953765
636.063968	2488.285812
636.409245	2485.982005
636.754470	2486.907057
637.099642	2487.610298
637.444762	2490.055257
637.789829	2486.806233
638.134845	2488.159783
638.479808	2484.764566
638.824719	2486.667602
639.169577	2484.414206
639.514383	2488.381594
639.859137	2484.862869
640.203839	2489.422592
640.548489	2483.960502
640.893086	2487.688435
641.237632	2483.385811
641.582125	2484.880513
641.926566	2487.980822
642.270955	2484.620893
642.615292	2480.552682
642.959576	2483.171562
643.303809	2476.991107
643.647990	2487.834629
643.992118	2482.236428
644.336195	2485.157776
644.680219	2483.484113
645.024192	2487.128867
645.368112	2486.715493
645.711981	2485.530822
646.055797	2486.839001
646.399562	2486.415544
646.743274	2487.154073
647.086935	2485.845894
647.430544	2484.184833
647.774101	2485.734988
648.117606	2488.086687
648.461059	2486.319762
648.804460	2487.837149
649.147810	2485.155256
649.491108	2486.775987
649.834354	2487.572489
650.177548	2485.795482
650.520690	2484.199957
650.863781	2486.995277
651.206820	2484.978815
651.549807	2484.933445
651.892742	2486.478558
652.235626	2484.255410
652.578458	2482.483444
652.921238	2485.132570
653.263967	2485.656850
653.606644	2483.622745
653.949269	2485.593836
654.291843	2484.386480
654.634365	2485.142653
654.976836	2485.936634
655.319255	2485.271202
655.661622	2484.983856
656.003938	2485.548466
656.346203	2485.490492
656.688416	2486.758343
657.030577	2484.434371
657.372687	2482.564103
657.714746	2483.206850
658.056753	2482.929586
658.398708	2481.651654
658.740612	2482.511170
659.082465	2484.005873
659.424266	2480.734164
659.766016	2478.969760
660.107715	2482.143166
660.449362	2477.606128
660.790958	2481.775162
661.132503	2480.141828
661.473996	2484.449494
661.815438	2485.298928
662.156829	2483.794144
662.498168	2485.485451
662.839456	2482.911942
663.180693	2484.736840
663.521879	2483.559730
663.863013	2483.622745
664.204097	2484.215080
664.545129	2484.961171
664.886110	2481.994452
665.227040	2483.642909
665.567918	2481.908752
665.908746	2483.836994
666.249522	2486.342447
666.590248	2480.330871
666.930922	2483.474031
667.271545	2482.659884
667.612118	2486.904536
667.952639	2481.102168
668.293109	2485.679536
668.633528	2481.205512
668.973896	2484.318424
669.314213	2483.690800
669.654480	2484.383959
669.994695	2484.036119
670.334859	2485.770276
670.674973	2483.186685
671.015035	2482.889257
671.355047	2484.643578
671.695008	2482.296921
672.034918	2484.260451
672.374777	2482.853969
672.714585	2483.204329
673.054342	2484.943527
673.394049	2483.345481
673.733705	2483.799185
674.073310	2486.811275
674.412864	2485.792962
674.752368	2480.814822
675.091820	2484.134422
675.431223	2483.426140
675.770574	2486.382777
676.109875	2482.967395
676.449125	2482.117960
676.788324	2479.146200
677.127473	2477.759883
677.466571	2479.037815
677.805619	2481.737353
678.144616	2484.051243
678.483562	2484.837663
678.822458	2483.804226
679.161303	2483.597539
679.500098	2480.908083
679.838842	2482.601911
680.177535	2482.637199
680.516179	2482.538897
680.854771	2483.446304
681.193314	2481.386993
681.531805	2482.533856
681.870247	2482.322127
682.208638	2485.172900
682.546978	2481.104688
682.885268	2482.422950
683.223508	2483.915132
683.561697	2483.310193
683.899836	2484.701552
684.237925	2481.132415
684.575963	2483.751294
684.913951	2484.754484
685.251889	2483.998311
685.589776	2483.141315
685.927614	2483.920173
686.265401	2483.968064
686.603137	2478.558906
686.940824	2481.087044
687.278460	2484.389000
687.616046	2484.394041
687.953582	2483.048053
688.291068	2481.646612
688.628504	2483.010245
688.965889	2483.247179
689.303224	2481.084524
689.640510	2482.002014
689.977745	2483.466469
690.314930	2481.810450
690.652065	2481.117291
690.989150	2484.444453
691.326185	2482.692652
691.663170	2479.778865
692.000105	2481.974288
692.336990	2482.836325
692.673825	2484.439412
693.010610	2481.548310
693.347345	2479.539410
693.684030	2477.182671
694.020665	2479.849441
694.357251	2472.847278
694.693786	2481.147538
695.030272	2480.537559
695.366707	2479.612507
695.703093	2480.590491
696.039429	2476.736529
696.375716	2481.868423
696.711952	2479.650316
697.048139	2478.372383
697.384276	2483.768938
697.720363	2479.410861
698.056400	2480.275419
698.392388	2479.249544
698.728326	2481.593680
699.064214	2479.509163
699.400053	2480.560244
699.735842	2478.899184
700.071581	2479.468834
700.407270	2478.097640
700.742910	2479.718371
701.078501	2479.988073
701.414042	2481.845738
701.749533	2477.850624
702.084974	2481.359267
702.420366	2477.371714
702.755709	2480.575367
703.091002	2479.060501
703.426246	2477.782568
703.761440	2475.254429
704.096584	2479.287353
704.431679	2479.292394
704.766725	2478.584112
705.101721	2480.860193
705.436668	2479.534369
705.771565	2480.285501
706.106413	2480.010758
706.441212	2477.722074
706.775961	2478.800881
707.110661	2478.505974
707.445311	2480.797178
707.779913	2480.593011
708.114465	2478.717702
708.448967	2481.175265
708.783421	2480.078814
709.117825	2480.940851
709.452180	2480.192240
709.786485	2479.050418
710.120742	2478.400109
710.454949	2474.294090
710.789107	2477.689307
711.123216	2473.822742
711.457275	2480.797178
711.791286	2480.845069
712.125247	2478.384986
712.459159	2480.620738
712.793023	2480.953454
713.126837	2482.523773
713.460602	2480.567806
713.794318	2482.740543
714.127985	2480.169554
714.461602	2481.762559
714.795171	2480.061170
715.128691	2477.104533
715.462162	2478.105202
715.795584	2475.902218
716.128957	2478.392548
716.462281	2482.349853
716.795556	2479.158803
717.128782	2479.617548
717.461960	2481.966726
717.795088	2479.279791
718.128167	2476.829790
718.461198	2476.678555
718.794180	2478.321972
719.127113	2478.810963
719.459997	2478.170737
719.792833	2479.335243
720.125619	2479.257106
720.458357	2476.532362
720.791046	2478.526138
721.123686	2476.348360
721.456278	2479.269708
721.788821	2478.755511
722.121315	2475.072948
722.453761	2477.515387
722.786158	2476.635706
723.118506	2478.947075
723.450805	2476.701241
723.783056	2476.169399
724.115259	2476.698720
724.447412	2475.564460
724.779518	2478.019502
725.111574	2476.592856
725.443582	2477.969091
725.775542	2476.396251
726.107453	2479.123515
726.439315	2476.572691
726.771129	2479.093268
727.102895	2475.277115
727.434612	2479.594863
727.766281	2474.626806
728.097901	2478.505974
728.429473	2477.323823
728.760996	2478.962198
729.092471	2477.916159
729.423897	2479.078145
729.755276	2478.483288
730.086606	2477.754842
730.417887	2477.850624
730.749120	2479.448669
731.080305	2478.500933
731.411442	2477.364152
731.742530	2477.477578
732.073570	2479.572178
732.404562	2477.495222
732.735506	2477.696868
733.066401	2481.709627
733.397249	2478.352218
733.728048	2477.248206
734.058798	2477.343988
734.389501	2477.989255
734.720156	2479.534369
735.050762	2479.909935
735.381320	2475.572022
735.711831	2477.835500
736.042293	2473.971456
736.372707	2474.994810
736.703073	2477.540593
737.033391	2476.466827
737.363661	2478.750470
737.693883	2477.563278
738.024056	2475.062866
738.354182	2477.207877
738.684260	2478.112764
739.014290	2477.192753
739.344272	2479.378093
739.674207	2477.580922
740.004093	2479.423464
740.333931	2477.182671
740.663722	2475.871971
740.993464	2478.200984
741.323159	2477.666622
741.652806	2478.054790
741.982405	2479.604945
742.311956	2479.572178
742.641460	2477.306179
742.970915	2476.003041
743.300323	2474.536065
743.629683	2474.629326
743.958996	2473.893318
744.288260	2471.047587
744.617477	2474.531024
744.946647	2474.341981
745.275768	2479.423464
745.604842	2476.401292
745.933869	2476.451703
746.262847	2475.642598
746.591778	2476.091261
746.920662	2476.454224
747.249498	2475.602269
747.578286	2475.808956
747.907027	2475.574543
748.235720	2476.595376
748.564365	2476.854996
748.892963	2476.658391
749.221514	2479.120994
749.550017	2477.202835
749.878473	2478.924389
750.206881	2474.094964
750.535242	2476.633185
750.863555	2476.819708
751.191821	2474.281487
751.520039	2476.492033
751.848210	2475.521611
752.176334	2476.285345
752.504411	2475.617393
752.832440	2476.955819
753.160421	2473.777371
753.488356	2476.179481
753.816243	2475.672845
754.144082	2477.568319
754.471875	2477.641416
754.799620	2474.798205
755.127318	2474.659573
755.454969	2476.129070
755.782572	2475.093113
756.110129	2476.295428
756.437638	2475.897177
756.765100	2477.298617
757.092515	2474.246199
757.419882	2475.287197
757.747203	2474.863740
758.074477	2477.492702
758.401703	2475.282156
758.728882	2474.707464
759.056014	2478.894142
759.383099	2474.972125
759.710138	2473.490026
760.037129	2471.831486
760.364073	2474.684779
760.690970	2470.732514
761.017820	2475.269553
761.344623	2475.609831
761.671379	2477.318782
761.998088	2474.926754
762.324751	2478.488330
762.651366	2477.233082
762.977935	2476.207207
763.304456	2477.860706
763.630931	2480.635861
763.957359	2479.075624
764.283740	2481.621407
764.610074	2479.441108
764.936362	2478.130408
765.262602	2476.628144
765.588796	2476.930613
765.914943	2475.519090
766.241044	2475.892135
766.567097	2474.891466
766.893104	2476.746611
767.219064	2475.201497
767.544978	2473.744604
767.870845	2473.759727
768.196665	2475.761065
768.522438	2474.226034
768.848165	2475.325006
769.173846	2474.767958
769.499479	2470.735035
769.825066	2472.973307
770.150607	2474.117649
770.476101	2474.730149
770.801548	2474.561271
771.126949	2476.194605
771.452303	2474.304172
771.777611	2471.980200
772.102872	2474.357104
772.428087	2473.787454
772.753256	2474.818370
773.078378	2474.344501
773.403453	2478.856334
773.728482	2472.864922
774.053465	2472.723770
774.378401	2472.398616
774.703291	2473.565643
775.028135	2474.014306
775.352932	2474.909110
775.677683	2471.786116
776.002388	2474.094964
776.327046	2469.434417
776.651658	2471.760910
776.976224	2468.272431
777.300743	2472.943060
777.625216	2472.501959
777.949643	2475.887094
778.274024	2471.491208
778.598359	2473.273256
778.922647	2470.321660
779.246889	2472.713688
779.571086	2472.461630
779.895236	2473.926085
780.219339	2472.648153
780.543397	2473.520273
780.867409	2475.254429
781.191374	2475.955150
781.515294	2474.838534
781.839167	2473.941209
782.162995	2473.371558
782.486776	2473.668987
782.810511	2472.373410
783.134201	2471.269397
783.457844	2474.062197
783.781441	2473.905921
784.104993	2474.142855
784.428498	2473.941209
784.751958	2476.013123
785.075372	2475.214100
785.398739	2473.578246
785.722061	2472.524645
786.045337	2474.036991
786.368568	2474.810808
786.691752	2474.294090
787.014891	2474.959522
787.337983	2475.080510
787.661030	2472.449027
787.984031	2475.829121
788.306987	2475.347691
788.629897	2474.851137
788.952760	2477.306179
789.275579	2473.237968
789.598351	2474.722588
789.921078	2473.996662
790.243759	2473.754686
790.566395	2475.009933
790.888984	2471.834007
791.211529	2474.858699
791.534027	2472.272587
791.856480	2470.800570
792.178888	2472.416260
792.501249	2469.449541
792.823566	2472.701085
793.145836	2470.273769
793.468062	2471.342494
793.790241	2471.702937
794.112375	2474.072279
794.434464	2473.142186
794.756507	2473.845427
795.078505	2470.339304
795.400457	2472.691003
795.722364	2471.786116
796.044226	2473.003554
796.366042	2471.161012
796.687812	2472.486836
797.009538	2472.380972
797.331218	2474.226034
797.652852	2474.636888
797.974442	2474.747793
798.295986	2471.612196
798.617484	2475.307362
798.938938	2469.988944
799.260346	2474.765437
799.581709	2472.781743
799.903026	2473.946250
800.224299	2472.459110
800.545526	2471.634881
800.866708	2473.225365
801.187845	2472.612865
801.508936	2472.443986
801.829983	2470.034315
802.150984	2473.530355
802.471940	2474.795684
802.792851	2475.531693
803.113717	2471.317288
803.434538	2472.083544
803.755314	2473.008595
804.076045	2473.041363
804.396731	2469.641105
804.717372	2475.445993
805.037967	2475.632516
805.358518	2474.679738
805.679024	2473.356435
805.999485	2467.952318
806.319901	2472.532206
806.640272	2473.210242
806.960598	2473.835345
807.280879	2471.166054
807.601115	2471.534058
807.921306	2470.412401
808.241453	2469.139510
808.561554	2470.863584
808.881611	2469.021043
809.201623	2469.817545
809.521590	2472.033132
809.841513	2470.505663
810.161390	2477.233082
810.481223	2471.839048
810.801011	2474.447845
811.120755	2469.862915
811.440453	2471.413070
811.760107	2469.084057
812.079716	2473.381641
812.399281	2472.280149
812.718801	2474.352063
813.038276	2472.688482
813.357707	2472.171764
813.677093	2474.778040
813.996434	2473.996662
814.315731	2471.350056
814.634983	2473.187556
814.954191	2470.301496
815.273354	2470.568677
815.592473	2470.800570
815.911547	2473.346353
816.230577	2472.834676
816.549562	2471.092957
816.868502	2473.570684
817.187399	2471.400467
817.506250	2471.387864
817.825058	2470.961887
818.143821	2474.399954
818.462539	2475.113277
818.781213	2473.190077
819.099843	2473.295941
819.418429	2473.573205
819.736970	2473.628657
820.055466	2476.020685
820.373919	2472.023050
820.692327	2474.210911
821.010691	2476.595376
821.329011	2479.607466
821.647286	2483.572333
821.965517	2488.127016
822.283704	2494.156236
822.601847	2496.835609
822.919945	2494.393170
823.237999	2493.941987
823.556010	2489.261275
823.873976	2488.744557
824.191897	2482.619555
824.509775	2476.272743
824.827609	2476.020685
825.145398	2473.956332
825.463144	2480.449338
825.780845	2477.021354
826.098502	2481.155100
826.416116	2477.633854
826.733685	2482.102837
827.051210	2483.078300
827.368692	2479.907414
827.686129	2479.791468
828.003522	2478.377424
828.320872	2480.865234
828.638177	2478.019502
828.955439	2475.400623
829.272656	2475.040180
829.589830	2474.924234
829.906960	2473.144707
830.224046	2473.681589
830.541088	2471.876856
830.858086	2472.058338
831.175041	2473.492546
831.491952	2473.348873
831.808819	2472.867443
832.125642	2473.051445
832.442421	2472.607824
832.759157	2473.585808
833.075849	2475.317444
833.392497	2475.909779
833.709101	2477.096971
834.025662	2476.746611
834.342179	2476.764255
834.658653	2475.476240
834.975083	2473.883236
835.291469	2472.459110
835.607811	2474.397433
835.924110	2474.301651
836.240366	2476.161837
836.556578	2472.328040
836.872746	2474.447845
837.188871	2470.611527
837.504952	2475.299800
837.820990	2472.375931
838.136984	2470.334263
838.452935	2471.118163
838.768842	2473.253091
839.084706	2472.159161
839.400526	2472.786785
839.716303	2470.964408
840.032037	2472.668317
840.347727	2469.691516
840.663373	2471.055148
840.978977	2465.575414
841.294537	2472.446507
841.610054	2472.733853
841.925527	2471.380303
842.240957	2469.943574
842.556344	2471.808801
842.871687	2468.032977
843.186987	2472.295272
843.502244	2471.080354
843.817458	2471.889459
844.132629	2470.588842
844.447756	2470.873667
844.762840	2470.261167
845.077881	2471.092957
845.392879	2470.092288
845.707833	2472.665797
846.022745	2474.006744
846.337613	2470.059520
846.652438	2468.753862
846.967221	2471.844089
847.281960	2468.758903
847.596656	2469.610858
847.911309	2471.551702
848.225919	2468.882411
848.540485	2470.750158
848.855009	2470.606486
849.169490	2469.986424
849.483928	2469.971300
849.798323	2469.399129
850.112675	2471.997844
850.426984	2472.295272
850.741251	2471.869295
851.055474	2469.825107
851.369654	2469.565487
851.683792	2469.454582
851.997887	2469.429376
852.311938	2469.414253
852.625947	2472.081023
852.939914	2469.449541
853.253837	2471.397947
853.567718	2469.746969
853.881555	2470.387195
854.195350	2469.530199
854.509103	2470.145220
854.822812	2468.159005
855.136479	2469.310909
855.450103	2471.269397
855.763685	2468.025415
856.077224	2466.026597
856.390720	2467.178501
856.704173	2464.990640
857.017584	2470.170426
857.330953	2469.111783
857.644278	2469.847792
857.957561	2470.644294
858.270802	2471.544140
858.584000	2467.549026
858.897155	2470.782926
859.210268	2467.644808
859.523339	2471.299644
859.836367	2470.170426
860.149352	2470.293934
860.462295	2468.698409
860.775195	2469.353759
861.088054	2469.744448
861.400869	2471.350056
861.713642	2470.185549
862.026373	2471.488688
862.339062	2472.252422
862.651708	2468.600106
862.964312	2469.774695
863.276873	2467.168419
863.589392	2467.528861
863.901869	2469.666310
864.214303	2471.791157
864.526696	2467.375106
864.839045	2467.584314
865.151353	2470.545992
865.463619	2471.365179
865.775842	2469.371403
866.088023	2471.347535
866.400162	2467.014663
866.712258	2468.363172
867.024313	2472.945581
867.336325	2468.537092
867.648296	2470.871146
867.960224	2469.444500
868.272110	2469.983903
868.583954	2470.699747
868.895755	2473.270735
869.207515	2471.087916
869.519233	2473.116980
869.830909	2468.461475
870.142542	2468.564818
870.454134	2470.566156
870.765684	2469.305868
871.077191	2467.402832
871.388657	2469.512555
871.700081	2466.303861
872.011463	2468.446351
872.322803	2467.269242
872.634101	2468.852164
872.945357	2469.787298
873.256571	2471.546661
873.567744	2470.029273
873.878874	2472.660756
874.189963	2469.550364
874.501010	2473.671507
874.812015	2470.520786
875.122979	2471.637402
875.433900	2468.527010
875.744780	2473.200159
876.055618	2467.286886
876.366415	2471.987762
876.677169	2468.476598
876.987882	2470.651856
877.298554	2470.472895
877.609183	2468.887452
877.919771	2471.271918
878.230317	2467.564149
878.540822	2470.646815
878.851285	2467.806125
879.161707	2469.071454
879.472087	2471.322329
879.782425	2472.570015
880.092722	2471.907103
880.402977	2474.286528
880.713191	2475.700572
881.023363	2477.303658
881.333494	2479.867085
881.643583	2481.616366
881.953631	2482.864051
882.263637	2480.875316
882.573602	2481.263485
882.883526	2478.105202
883.193408	2479.226859
883.503248	2475.882053
883.813048	2476.444142
884.122806	2473.681589
884.432522	2473.928606
884.742197	2473.280818
885.051831	2472.877525
885.361424	2470.336784
885.670975	2472.764099
885.980485	2470.019191
886.289954	2472.287710
886.599382	2472.272587
886.908768	2469.936012
887.218113	2465.381330
887.527417	2467.271762
887.836680	2463.715228
888.145901	2471.057669
888.455082	2466.865949
888.764221	2468.153964
889.073319	2467.972483
889.382376	2467.175980
889.691392	2469.444500
890.000366	2468.960549
890.309300	2471.639922
890.618193	2468.700929
890.927044	2470.498101
891.235855	2469.991465
891.544625	2467.274283
891.853353	2469.200004
892.162041	2470.419963
892.470687	2470.954325
892.779293	2470.775364
893.087858	2468.693368
893.396381	2468.917699
893.704864	2472.895169
894.013306	2471.864253
894.321707	2472.217134
894.630068	2471.919706
894.938387	2475.524131
895.246665	2469.971300
895.554903	2472.204531
895.863100	2470.861064
896.171256	2474.563791
896.479371	2468.169088
896.787446	2470.850982
897.095480	2472.461630
897.403473	2470.314099
897.711425	2467.513738
898.019336	2472.852320
898.327207	2471.491208
898.635038	2470.172946
898.942827	2467.574232
899.250576	2471.854171
899.558284	2471.191259
899.865952	2473.116980
900.173579	2469.046248
900.481165	2469.709160
900.788711	2468.027935
901.096216	2469.880559
901.403681	2468.932822
901.711105	2469.000878
902.018489	2468.842082
902.325832	2466.311423
902.633135	2465.582976
902.940397	2469.585652
903.247619	2467.218830
903.554800	2469.847792
903.861941	2475.473720
904.169041	2472.290231
904.476101	2472.524645
904.783121	2472.809470
905.090100	2474.503298
905.397039	2472.340642
905.703938	2472.302834
906.010796	2472.938019
906.317614	2470.684623
906.624391	2470.011629
906.931129	2470.921558
907.237826	2472.075982
907.544483	2466.225723
907.851099	2467.949797
908.157675	2468.224540
908.464211	2468.713532
908.770707	2468.274952
909.077163	2470.669500
909.383578	2469.651187
909.689954	2468.463995
909.996289	2468.955508
910.302584	2469.333594
910.608839	2468.032977
910.915054	2469.278142
911.221229	2468.577421
911.527363	2468.030456
911.833458	2467.922071
912.139513	2472.002885
912.445527	2470.651856
912.751502	2466.472739
913.057436	2469.129428
913.363331	2467.415435
913.669186	2468.658080
913.975000	2470.614047
914.280775	2468.753862
914.586510	2468.005250
914.892205	2467.377627
915.197859	2473.298462
915.503475	2469.739407
915.809050	2474.702423
916.114585	2471.672690
916.420081	2473.459779
916.725536	2471.808801
917.030952	2471.954994
917.336328	2469.169757
917.641665	2470.427525
917.946961	2466.802935
918.252218	2468.821917
918.557435	2466.308902
918.862612	2468.937864
919.167750	2470.503142
919.472848	2468.932822
919.777906	2471.889459
920.082925	2470.326702
920.387904	2471.352576
920.692843	2467.838892
920.997743	2469.144551
921.302603	2469.562967
921.607423	2467.549026
921.912204	2469.220168
922.216946	2467.438120
922.521647	2469.429376
922.826310	2469.023563
923.130932	2467.549026
923.435516	2467.049952
923.740059	2468.829479
924.044564	2466.303861
924.349028	2469.434417
924.653454	2468.395940
924.957840	2471.198821
925.262186	2466.984417
925.566493	2470.944243
925.870761	2469.401650
926.174989	2466.220682
926.479178	2466.603809
926.783328	2468.390898
927.087438	2468.234623
927.391509	2469.144551
927.695541	2465.923254
927.999533	2467.937195
928.303486	2467.894345
928.607400	2467.664972
928.911275	2464.763788
929.215110	2468.143882
929.518906	2466.626495
929.822663	2466.359313
930.126381	2467.559108
930.430060	2470.364510
930.733699	2468.249746
931.037299	2466.782770
931.340861	2467.947277
931.644383	2466.813017
931.947866	2465.774540
932.251309	2466.991978
932.554714	2466.548357
932.858080	2464.844447
933.161407	2461.550053
933.464694	2464.602471
933.767943	2462.338993
934.071153	2468.915178
934.374323	2465.615743
934.677455	2469.746969
934.980548	2467.639767
935.283602	2467.692699
935.586617	2465.409056
935.889593	2465.893007
936.192530	2465.537605
936.495428	2464.995681
936.798287	2469.257977
937.101108	2465.459468
937.403890	2468.622792
937.706632	2468.945425
938.009336	2466.301340
938.312002	2467.332256
938.614628	2469.651187
938.917216	2467.349900
939.219765	2470.480457
939.522275	2466.160188
939.824747	2468.126238
940.127179	2469.565487
940.429573	2466.177832
940.731929	2466.495425
941.034246	2467.619602
941.336524	2467.833851
941.638763	2466.152626
941.940964	2464.796556
942.243126	2466.765126
942.545250	2468.993316
942.847335	2466.981896
943.149381	2467.528861
943.451389	2466.881073
943.753359	2465.746813
944.055290	2468.282514
944.357182	2467.236474
944.659036	2466.727318
944.960851	2468.219499
945.262628	2468.264870
945.564367	2465.567852
945.866067	2466.760085
946.167729	2469.320991
946.469352	2467.342338
946.770937	2467.203707
947.072484	2466.467698
947.373992	2467.929633
947.675462	2465.633387
947.976893	2466.613892
948.278286	2463.954683
948.579641	2464.463840
948.880958	2464.206741
949.182236	2465.893007
949.483476	2467.057513
949.784678	2467.491052
950.085841	2465.688840
950.386967	2467.801083
950.688054	2467.102884
950.989103	2469.159674
951.290114	2466.296299
951.591087	2468.337966
951.892021	2467.271762
952.192917	2468.239664
952.493776	2468.131279
952.794596	2465.555249
953.095378	2466.208079
953.396122	2467.533902
953.696828	2467.896865
953.997496	2465.419138
954.298126	2467.344859
954.598718	2465.406535
954.899272	2468.075826
955.199788	2464.761268
955.500266	2467.793522
955.800706	2467.531382
956.101108	2466.820579
956.401472	2469.522637
956.701798	2466.820579
957.002087	2466.760085
957.302337	2466.717235
957.602550	2469.179839
957.902724	2467.400312
958.202861	2466.621453
958.502960	2465.645990
958.803022	2466.608851
959.103045	2465.184725
959.403031	2465.182204
959.702979	2465.411577
960.002889	2469.068934
960.302762	2467.667493
960.602596	2466.941567
960.902393	2466.336628
961.202153	2464.529375
961.501875	2465.784622
961.801559	2466.482822
962.101205	2466.477781
962.400814	2467.367544
962.700385	2466.286217
962.999918	2461.872687
963.299414	2462.497790
963.598873	2463.989971
963.898293	2460.927470
964.197677	2469.459623
964.497022	2463.939560
964.796331	2466.828141
965.095601	2464.751185
965.394835	2468.844602
965.694030	2467.312092
965.993189	2467.589355
966.292309	2464.436113
966.591393	2467.077678
966.890439	2466.031638
967.189447	2466.508027
967.488419	2463.037193
967.787353	2467.052472
968.086249	2465.242698
968.385108	2468.078347
968.683930	2466.709674
968.982714	2464.403346
969.281462	2463.611885
969.580172	2464.935188
969.878844	2465.356124
970.177480	2467.763275
970.476078	2467.385188
970.774639	2467.528861
971.073162	2467.110445
971.371649	2466.316464
971.670098	2468.718573
971.968510	2463.637090
972.266885	2465.668675
972.565223	2465.078860
972.863524	2467.995168
973.161788	2465.590538
973.460014	2466.157667
973.758204	2462.875876
974.056356	2466.492904
974.354471	2467.022225
974.652550	2464.736062
974.950591	2466.041721
975.248595	2468.063223
975.546563	2465.903089
975.844493	2467.448203
976.142386	2467.891824
976.440243	2465.023408
976.738062	2465.328398
977.035845	2464.957873
977.333590	2466.535754
977.631299	2465.918212
977.928971	2464.499128
978.226606	2460.461163
978.524204	2464.867132
978.821765	2458.719445
979.119290	2466.732359
979.416777	2463.548870
979.714228	2467.148254
980.011642	2467.543985
980.309020	2466.381999
980.606360	2467.750672
980.903664	2466.306381
981.200931	2467.493573
981.498162	2463.443006
981.795356	2466.250929
982.092513	2465.933336
982.389633	2465.719087
982.686717	2466.087091
982.983764	2467.470888
983.280775	2467.032308
983.577749	2466.646659
983.874686	2466.490383
984.171587	2465.275465
984.468451	2467.896865
984.765279	2464.972996
985.062070	2468.287555
985.358824	2463.785804
985.655543	2466.984417
985.952224	2466.114818
986.248869	2466.460137
986.545478	2464.831844
986.842050	2463.647173
987.138586	2463.735393
987.435086	2467.077678
987.731549	2465.625826
988.027975	2469.759572
988.324366	2465.643470
988.620719	2465.580455
988.917037	2464.088274
989.213318	2467.506176
989.509563	2463.440485
989.805772	2464.930146
990.101944	2463.324539
990.398080	2468.469036
990.694180	2465.177163
990.990244	2464.610033
991.286271	2468.002730
991.582262	2465.182204
991.878217	2464.930146
992.174136	2463.173304
992.470019	2466.782770
992.765865	2464.148768
993.061676	2461.827316
993.357450	2461.900413
993.653188	2460.483849
993.948890	2465.167081
994.244556	2465.676237
994.540186	2464.978037
994.835780	2465.948459
995.131337	2464.544498
995.426859	2465.552729
995.722345	2467.339818
996.017795	2464.491566
996.313208	2464.342852
996.608586	2465.071299
996.903928	2466.729838
997.199234	2466.001392
997.494504	2465.376288
997.789738	2464.012656
998.084936	2466.898717
998.380099	2464.809159
998.675225	2464.408387
998.970316	2463.715228
999.265371	2466.208079
999.560390	2464.005095
999.855373	2468.605147
1000.150320	2463.369909
1000.445232	2463.034672
1000.740108	2463.954683
1001.034948	2464.209261
1001.329752	2463.284210
1001.624521	2464.995681
1001.919254	2465.426700
1002.213951	2467.155816
1002.508613	2464.879735
1002.803239	2466.036680
1003.097829	2465.557770
1003.392384	2463.243880
1003.686903	2466.772688
1003.981386	2465.046093
1004.275834	2465.729169
1004.570246	2463.798407
1004.864623	2464.925105
1005.158964	2465.015846
1005.453270	2463.069961
1005.747540	2463.921916
1006.041775	2464.035342
1006.335974	2464.252111
1006.630138	2464.015177
1006.924266	2467.944756
1007.218359	2466.225723
1007.512416	2463.896710
1007.806438	2459.349589
1008.100425	2464.305043
1008.394376	2459.798252
1008.688292	2468.219499
1008.982172	2464.100877
1009.276017	2464.972996
1009.569827	2464.388222
1009.863602	2465.081381
1010.157341	2463.788325
1010.451045	2465.257821
1010.744714	2464.720938
1011.038347	2467.216310
1011.331945	2464.141206
1011.625508	2464.027780
1011.919036	2464.017698
1012.212528	2463.546350
1012.505986	2467.128089
1012.799408	2465.640949
1013.092795	2465.343521
1013.386147	2465.691361
1013.679464	2466.921402
1013.972745	2464.547019
1014.265992	2464.438634
1014.559204	2465.784622
1014.852380	2463.435444
1015.145521	2462.717080
1015.438628	2463.080043
1015.731699	2463.190948
1016.024736	2462.754888
1016.317737	2461.557614
1016.610703	2461.691205
1016.903635	2463.110290
1017.196531	2462.827985
1017.489393	2463.616926
1017.782219	2463.120372
1018.075011	2465.272945
1018.367768	2464.627677
1018.660490	2465.461988
1018.953177	2465.461988
1019.245829	2465.461988
