Dividing Wavelength (nm)	Counts (n)	Blue Motor Position (mm): 0.000000	Red Motor Position (mm): 40.000000	
326.493990	2052.445295
326.888308	2052.445295
327.282561	2052.445295
327.676750	2027.907478
328.070874	2029.510565
328.464933	2035.048273
328.858929	2045.692669
329.252859	2053.965203
329.646726	2065.844682
330.040528	2082.798082
330.434265	2098.322315
330.827938	2123.649072
331.221547	2140.393265
331.615091	2161.770278
332.008571	2182.118895
332.401986	2204.020188
332.795338	2223.330328
333.188625	2242.469068
333.581847	2263.906575
333.975006	2276.766558
334.368100	2297.233643
334.761129	2313.337609
335.154095	2326.414362
335.546996	2358.574403
335.939833	2409.802608
336.332606	2421.440112
336.725315	2435.724222
337.117960	2443.114553
337.510540	2451.563527
337.903056	2461.424024
338.295508	2470.125055
338.687896	2476.045891
339.080220	2481.452528
339.472480	2487.207005
339.864676	2490.561893
340.256807	2494.352841
340.648875	2495.025835
341.040879	2494.471308
341.432818	2500.661845
341.824694	2499.018429
342.216506	2498.453819
342.608253	2497.932060
342.999937	2498.363079
343.391557	2497.173366
343.783113	2494.430979
344.174605	2494.221771
344.566033	2492.560711
344.957397	2493.470639
345.348697	2489.921667
345.739934	2488.333703
346.131106	2485.175420
346.522215	2483.957982
346.913260	2485.132570
347.304241	2483.627786
347.695159	2481.371870
348.086012	2478.369863
348.476802	2479.746098
348.867528	2475.453555
349.258191	2470.946763
349.648789	2469.109263
350.039324	2467.682616
350.429796	2473.300982
350.820203	2469.187401
351.210548	2475.103195
351.600828	2471.642443
351.991045	2469.993985
352.381198	2469.043728
352.771288	2469.063893
353.161314	2469.787298
353.551276	2468.640436
353.941175	2470.558595
354.331010	2469.346197
354.720782	2470.808132
355.110490	2471.445838
355.500135	2465.492235
355.889717	2471.954994
356.279235	2469.031125
356.668689	2470.162864
357.058080	2472.524645
357.447408	2471.929788
357.836672	2475.884574
358.225873	2473.890797
358.615010	2473.222844
359.004084	2476.774337
359.393095	2473.646301
359.782043	2475.962712
360.170927	2478.064873
360.559748	2477.444811
360.948505	2475.811477
361.337199	2482.967395
361.725830	2476.698720
362.114398	2480.383803
362.502903	2481.268526
362.891344	2482.987559
363.279722	2480.419092
363.668037	2486.564258
364.056289	2480.688793
364.444478	2480.991263
364.832603	2484.351192
365.220665	2486.803713
365.608665	2484.003352
365.996601	2485.188023
366.384474	2487.668271
366.772284	2484.693990
367.160031	2485.896305
367.547715	2487.912767
367.935336	2485.800523
368.322893	2484.565441
368.710388	2484.578043
369.097820	2487.186841
369.485189	2485.102323
369.872495	2491.779332
370.259738	2490.405617
370.646918	2492.391832
371.034035	2495.053561
371.421090	2493.735299
371.808081	2492.210350
372.195010	2494.531802
372.581875	2497.024652
372.968678	2498.156391
373.355418	2499.368789
373.742096	2500.069509
374.128710	2503.338697
374.515262	2508.735253
374.901751	2511.712054
375.288177	2511.497805
375.674540	2515.382014
376.060841	2515.019051
376.447079	2524.415762
376.833254	2530.134951
377.219367	2533.328522
377.605417	2540.958308
377.991404	2543.476364
378.377329	2552.600853
378.763191	2560.202913
379.148991	2567.943605
379.534727	2578.487178
379.920402	2584.889443
380.306013	2596.113572
380.691563	2607.872064
381.077049	2618.206429
381.462474	2623.792027
381.847835	2642.010757
382.233134	2657.444250
382.618371	2665.394150
383.003545	2684.157324
383.388657	2697.760878
383.773706	2719.972202
384.158693	2730.195662
384.543618	2748.235431
384.928480	2760.840836
385.313280	2785.396296
385.698017	2802.054789
386.082692	2829.899602
386.467305	2842.371417
386.851856	2866.037114
387.236344	2894.194479
387.620770	2912.761048
388.005133	2932.565221
388.389435	2966.834985
388.773674	2978.359063
389.157851	3011.383662
389.541965	3038.928526
389.926018	3053.978891
390.310008	3085.901998
390.693936	3110.182715
391.077802	3143.242602
391.461606	3169.859894
391.845348	3188.275229
392.229027	3219.172461
392.612645	3261.099738
392.996200	3288.931948
393.379694	3326.269254
393.763125	3370.394474
394.146494	3396.537898
394.529801	3433.862601
394.913047	3476.873725
395.296230	3484.490909
395.679351	3507.473529
396.062410	3557.224677
396.445408	3538.481667
396.828343	3580.482040
397.211217	3613.552009
397.594028	3589.457814
397.976778	3632.292498
398.359466	3666.196779
398.742092	3676.654652
399.124656	3693.292981
399.507158	3752.574429
399.889598	3759.473248
400.271977	3824.768793
400.654294	3809.882266
401.036549	3872.175804
401.418742	3871.742265
401.800874	3942.603244
402.182944	3967.229281
402.564952	4056.009041
402.946898	4048.742218
403.328783	4046.418246
403.710606	4094.031944
404.092367	4164.749250
404.474067	4230.304415
404.855705	4213.461920
405.237282	4186.741284
405.618797	4282.387096
406.000250	4360.557748
406.381642	4450.010502
406.762972	4443.152012
407.144240	4412.491715
407.525447	4480.559894
407.906593	4494.065146
408.287677	4578.222168
408.668700	4603.478349
409.049661	4644.631808
409.430560	4682.654711
409.811399	4665.764325
410.192176	4717.826841
410.572891	4800.022855
410.953545	4909.385646
411.334138	4799.614521
411.714669	4914.436882
412.095139	4824.059076
412.475547	4935.934883
412.855894	4945.528199
413.236180	5040.851377
413.616405	4972.556345
413.996568	5074.332200
414.376670	5075.983178
414.756711	5072.187189
415.136691	5144.152181
415.516609	5233.645265
415.896466	5265.475110
416.276262	5348.152554
416.655997	5459.108350
417.035670	5551.752155
417.415283	5696.340009
417.794834	5770.634013
418.174324	5728.926027
418.553753	5732.878292
418.933121	5899.465741
419.312428	5913.875879
419.691674	5834.177758
420.070859	6066.146452
420.449983	5940.072235
420.829045	6139.659078
421.208047	6063.315844
421.586988	6224.819290
421.965867	6292.668179
422.344686	6380.212857
422.723444	6551.140740
423.102141	6159.506101
423.480777	6557.164919
423.859352	6370.561568
424.237866	6737.930613
424.616319	6731.548513
424.994712	6899.804584
425.373044	6812.978271
425.751314	7131.110367
426.129524	6848.420103
426.507673	7111.296111
426.885762	7161.478277
427.263789	7198.636622
427.641756	7286.801362
428.019662	7368.843620
428.397508	7413.979591
428.775292	7391.372537
429.153016	7563.432159
429.530679	7491.893144
429.908282	7544.593367
430.285824	7492.450192
430.663305	7775.142976
431.040726	7660.610481
431.418086	7663.234402
431.795385	7798.576780
432.172624	7990.561562
432.549802	7867.277624
432.926920	8004.036567
433.303977	7944.034233
433.680974	7985.974112
434.057910	8193.704939
434.434786	8240.063390
434.811601	8201.969911
435.188355	8542.779637
435.565050	8435.506404
435.941683	8443.269781
436.318257	8775.668342
436.694770	8727.784942
437.071222	8960.114079
437.447614	8738.073937
437.823946	8703.902476
438.200218	8853.874282
438.576429	8735.147547
438.952580	8896.903051
439.328670	8906.766068
439.704700	8983.825146
440.080670	8878.250781
440.456580	9151.723295
440.832429	9120.861351
441.208218	8860.662196
441.583947	8977.032191
441.959616	9093.936549
442.335224	9130.850398
442.710773	9211.672697
443.086261	9397.212364
443.461689	9114.270043
443.837057	9279.027553
444.212365	9503.668930
444.587612	9475.874529
444.962800	9378.131597
445.337927	9513.549592
445.712995	9041.548878
446.088002	9725.436850
446.462949	9785.673597
446.837837	9771.830589
447.212664	9787.163258
447.587431	10629.877823
447.962139	11647.422124
448.336786	12604.497785
448.711374	12385.053837
449.085901	11161.182671
449.460369	11076.231667
449.834776	10851.471823
450.209124	11778.676126
450.583412	11596.869433
450.957640	11916.844071
451.331808	11507.744354
451.705917	10928.601477
452.079965	10803.303598
452.453954	11009.040648
452.827883	10955.836310
453.201752	10918.861967
453.575562	10929.574419
453.949311	11275.891606
454.323001	11338.376708
454.696632	11254.050807
455.070202	11854.313598
455.443713	11915.989595
455.817164	12084.338928
456.190556	12404.389183
456.563888	12269.074531
456.937160	12537.125284
457.310373	12011.340500
457.683526	12027.285669
458.056619	12045.038092
458.429653	12106.686363
458.802628	12256.897624
459.175542	12304.100468
459.548398	12864.167619
459.921194	13441.568778
460.293930	13723.512951
460.666607	14589.328603
461.039224	15395.620832
461.411782	15760.391162
461.784280	15429.693991
462.156719	15375.945208
462.529099	15290.540500
462.901419	14635.036745
463.273680	14230.305188
463.645882	14446.341316
464.018024	14326.939066
464.390106	14699.742475
464.762130	15781.374965
465.134094	17312.295250
465.505999	19637.451845
465.877845	21925.006472
466.249631	23198.522922
466.621358	22734.577971
466.993026	21935.444181
467.364634	21175.278511
467.736184	20360.375991
468.107674	19737.342308
468.479105	19608.293811
468.850477	19317.351178
469.221790	18889.097597
469.593043	18218.266214
469.964238	17819.001788
470.335373	17882.404380
470.706449	18603.380121
471.077467	19467.328026
471.448425	21963.387297
471.819324	23870.087793
472.190164	23788.153919
472.560945	22018.398888
472.931667	20418.951678
473.302330	20086.704352
473.672934	19514.629172
474.043479	19943.830490
474.413965	19727.038190
474.784393	19545.685201
475.154761	20226.331711
475.525070	20348.705720
475.895321	20189.498520
476.265513	20717.168696
476.635645	21326.755101
477.005719	21383.929348
477.375734	21761.587388
477.745691	22392.437380
478.115588	23036.346482
478.485427	24247.571913
478.855207	26077.067138
479.224928	27899.716476
479.594591	29352.055255
479.964194	29009.851649
480.333739	29479.213319
480.703226	29696.270281
481.072653	30143.597067
481.442022	30663.430769
481.811333	31089.839288
482.180584	30653.509779
482.549777	30427.966035
482.918912	30182.040906
483.287988	30136.153803
483.657005	29987.724590
484.025964	29604.218811
484.394864	29799.263574
484.763706	29729.574663
485.132489	29185.130048
485.501213	29275.278482
485.869879	29446.405490
486.238487	29373.802793
486.607036	29664.321968
486.975527	29328.480299
487.343959	29688.824496
487.712333	30037.737877
488.080648	29999.868730
488.448905	30429.380079
488.817104	30319.394705
489.185244	31164.166060
489.553326	32119.016052
489.921350	34041.916295
490.289315	36594.829700
490.657222	37517.318004
491.025070	38107.148127
491.392861	37857.913481
491.760593	37061.431338
492.128267	36059.640643
492.495883	35076.439202
492.863440	34162.465407
493.230939	33167.109745
493.598380	32588.652464
493.965763	32427.900151
494.333088	31908.943609
494.700354	31731.434500
495.067563	31676.440553
495.434713	31561.933263
495.801805	31848.535463
496.168839	31680.997756
496.535815	31536.929140
496.902733	31669.493842
497.269593	31470.837093
497.636395	31624.098252
498.003139	31901.971693
498.369825	31666.204490
498.736453	32064.871539
499.103023	31909.293969
499.469535	32012.882119
499.835989	32116.021606
500.202385	32001.322753
500.568723	32039.227189
500.935003	32344.259847
501.301226	32215.042471
501.667390	32941.961732
502.033497	33165.771318
502.399546	32947.554892
502.765537	32560.328742
503.131470	33047.757907
503.497345	33494.744416
503.863163	32403.256470
504.228923	33203.887483
504.594625	33601.372381
504.960269	33050.011303
505.325856	33742.554936
505.691385	33394.415372
506.056856	33734.242073
506.422270	34235.335286
506.787625	33731.207298
507.152924	34204.992581
507.518164	34376.200248
507.883347	33940.326963
508.248472	34100.101293
508.613540	34787.979338
508.978550	35034.305238
509.343503	34862.931213
509.708398	35233.677832
510.073236	35820.926885
510.438016	35916.151760
510.802738	35581.802272
511.167403	36133.982538
511.532010	36401.640081
511.896561	36914.418689
512.261053	37676.545368
512.625488	37465.081568
512.989866	37353.931687
513.354186	37420.928622
513.718449	37394.147492
514.082655	38300.105852
514.446803	37972.332550
514.810894	38617.862382
515.174927	38610.310734
515.538904	38621.912949
515.902822	39265.277606
516.266684	38941.113770
516.630488	39300.948811
516.994235	39316.783075
517.357925	39899.384184
517.721558	40137.273713
518.085133	40526.042457
518.448651	40715.804090
518.812112	40608.775353
519.175516	40753.665676
519.538863	41221.015926
519.902152	41273.491817
520.265385	41826.781137
520.628560	41845.619928
520.991678	41777.861780
521.354739	42014.407842
521.717743	42369.476472
522.080690	42292.452682
522.443580	42983.128568
522.806413	42993.173067
523.169189	43109.101961
523.531908	43341.020244
523.894569	43189.031976
524.257174	43383.033220
524.619722	43730.716559
524.982213	43874.976738
525.344647	43932.670224
525.707025	44048.082400
526.069345	44500.485628
526.431608	44412.782154
526.793815	44807.365869
527.155964	44323.800748
527.518057	44599.146050
527.880093	44439.167553
528.242072	45090.882882
528.603995	44799.836905
528.965860	44708.413060
529.327669	44932.278099
529.689421	45009.523700
530.051117	44959.490248
530.412755	45232.370426
530.774337	45288.173478
531.135862	45243.239154
531.497331	45376.827210
531.858743	45375.329987
532.220098	45784.308717
532.581396	45514.662438
532.942638	45271.194872
533.303824	45522.501433
533.664953	45570.407518
534.026025	45237.945942
534.387040	45810.550443
534.747999	45873.935391
535.108902	46205.232460
535.469748	45522.246854
535.830537	45801.990564
536.191270	46046.801597
536.551947	45779.587676
536.912567	46050.020374
537.273131	46182.625405
537.633638	45828.822105
537.994089	46004.992788
538.354483	45742.636018
538.714821	46404.360557
539.075103	46688.003599
539.435328	46540.242339
539.795497	46312.218347
540.155609	46432.160000
540.515665	47017.707663
540.875665	46303.169476
541.235609	46577.599809
541.595496	46715.787918
541.955328	47291.354097
542.315102	46727.400216
542.674821	46634.670712
543.034483	46509.287133
543.394090	46523.215842
543.753640	46509.375354
544.113134	47579.864373
544.472571	46665.789755
544.831953	47810.771904
545.191278	47065.003769
545.550548	46759.703930
545.909761	47397.372083
546.268918	47532.527938
546.628019	47943.762584
546.987064	47378.951707
547.346053	46697.538942
547.704986	47613.642624
548.063863	47235.021723
548.422684	47443.546532
548.781449	47007.035541
549.140158	47550.323211
549.498811	47297.325344
549.857408	46690.917386
550.215949	47539.116726
550.574434	47346.824433
550.932864	47314.709763
551.291237	48026.011529
551.649555	47764.007641
552.007817	47944.470866
552.366022	47638.349319
552.724173	47714.322028
553.082267	48103.872151
553.440305	48484.116303
553.798288	47704.065801
554.156215	48123.290675
554.514086	48309.793203
554.871902	47878.615753
555.229661	48066.098785
555.587365	47747.056761
555.945014	47873.645175
556.302606	47881.718583
556.660143	47986.869490
557.017625	48202.895536
557.375050	47888.377947
557.732421	48299.201739
558.089735	48362.818580
558.446994	48211.619252
558.804197	48690.856543
559.161345	48547.778514
559.518437	47901.484947
559.875474	48136.511101
560.232455	48363.385709
560.589381	48379.565293
560.946251	48207.137667
561.303065	48869.220128
561.659825	48531.543478
562.016528	48339.538531
562.373177	47902.561233
562.729770	48546.346827
563.086307	48043.597595
563.442789	48596.791132
563.799216	48443.098955
564.155587	48342.487606
564.511904	48295.378023
564.868164	48338.411833
565.224370	48654.837498
565.580520	48367.443838
565.936615	48565.283921
566.292654	48188.003967
566.648638	48553.744720
567.004567	48475.296804
567.360441	48548.280109
567.716260	48248.228112
568.072023	48636.863264
568.427732	48551.536694
568.783385	48071.041636
569.138982	48466.368921
569.494525	48599.982183
569.850013	48197.740956
570.205445	48333.557202
570.560823	48063.401767
570.916145	47942.099003
571.271412	48169.402109
571.626625	47772.328065
571.981782	47860.301241
572.336884	47440.143753
572.691931	47770.314124
573.046923	47403.698731
573.401860	47212.631439
573.756743	47203.912763
574.111570	47337.233638
574.466342	47232.118019
574.821059	47363.845889
575.175722	46843.182917
575.530330	46923.894311
575.884882	46555.965698
576.239380	46426.128260
576.593823	46519.903803
576.948211	46439.827595
577.302544	45954.508153
577.656823	45940.549198
578.011047	46164.071439
578.365216	45985.748183
578.719330	45665.161045
579.073389	45641.785215
579.427394	45658.836918
579.781344	45525.102668
580.135239	45267.711435
580.489080	45294.548018
580.842866	44778.064162
581.196597	45247.214103
581.550273	45205.470829
581.903895	45097.242297
582.257463	45506.145409
582.610975	44919.491212
582.964434	45202.723400
583.317837	44672.419221
583.671186	44616.419564
584.024481	44849.119225
584.377721	44345.782699
584.730906	44542.022215
585.084037	44631.084280
585.437113	44342.059807
585.790135	44418.261888
586.143103	43933.524699
586.496016	44062.527826
586.848874	44153.533256
587.201679	44146.354653
587.554428	43581.778190
587.907124	43823.970344
588.259765	43554.535794
588.612352	43659.759798
588.964884	43092.352727
589.317362	43335.785005
589.669786	43302.556240
590.022155	43131.802277
590.374470	43565.722115
590.726731	43085.355606
591.078937	42397.550657
591.431090	42699.971997
591.783188	42174.255268
592.135232	41957.614202
592.487222	42144.514981
592.839157	42255.843823
593.191038	41882.740465
593.542866	41643.757005
593.894639	40995.081493
594.246358	41241.094842
594.598022	41197.814015
594.949633	40709.946269
595.301190	40647.675417
595.652692	40557.229555
596.004141	40987.280307
596.355535	39871.332683
596.706876	39830.075880
597.058162	39508.404894
597.409395	39931.718144
597.760573	40108.844126
598.111698	39663.057412
598.462768	39537.832630
598.813785	39491.443932
599.164748	39070.981454
599.515657	39271.826065
599.866511	38740.692616
600.217312	39326.673819
600.568060	38262.697970
600.918753	38993.156121
601.269392	38839.791618
601.619978	38523.282774
601.970510	38661.750668
602.320988	38708.885456
602.671412	38923.255482
603.021783	38713.762772
603.372100	38264.293495
603.722363	38286.772000
604.072572	38266.854402
604.422728	38189.102165
604.772830	37904.080368
605.122878	38019.885754
605.472872	37823.563059
605.822813	37986.596495
606.172701	37666.155550
606.522534	37894.539984
606.872314	38023.404479
607.222041	37797.885942
607.571714	38033.365799
607.921333	37466.833368
608.270899	37595.846578
608.620411	37857.646300
608.969870	37568.652073
609.319276	37510.794751
609.668627	37461.756927
610.017926	37720.673109
610.367171	37784.499157
610.716362	37745.021882
611.065500	37568.979748
611.414585	37687.688839
611.763616	37727.980261
612.112594	37554.466266
612.461518	37597.069057
612.810389	37857.656382
613.159207	37559.756957
613.507971	37447.674463
613.856682	37801.331570
614.205340	37549.041985
614.553945	38081.997811
614.902496	37396.882318
615.250994	37691.192441
615.599439	37663.385436
615.947830	37651.944538
616.296169	37555.109013
616.644454	37474.352249
616.992686	37494.668099
617.340864	37779.458004
617.688990	37244.019410
618.037063	37727.965138
618.385082	37458.517985
618.733048	37635.868298
619.080961	37426.932636
619.428821	37347.143773
619.776628	37281.192878
620.124382	37030.430762
620.472083	37030.942439
620.819731	37042.380817
621.167326	36592.137723
621.514868	36498.765472
621.862357	35951.550743
622.209793	35948.639476
622.557176	35498.033419
622.904506	35222.370524
623.251783	34825.011654
623.599007	34466.177282
623.946179	34304.636028
624.293297	33992.152545
624.640363	33459.874754
624.987376	33237.736310
625.334336	32993.431913
625.681243	32559.423854
626.028097	32372.137427
626.374899	32148.002686
626.721647	32009.905318
627.068343	31742.814905
627.414987	31395.005536
627.761577	31089.360378
628.108115	31250.163104
628.454600	30565.687838
628.801032	30636.558899
629.147412	30444.427923
629.493739	30266.820511
629.840014	29812.642797
630.186236	30023.552071
630.532405	29485.963424
630.878521	29555.241481
631.224585	29284.090419
631.570597	28932.913559
631.916556	28960.844072
632.262462	28762.885522
632.608316	28611.008160
632.954117	28417.813501
633.299866	28278.503735
633.645562	28121.529766
633.991206	27628.459549
634.336797	27251.774451
634.682336	27082.197598
635.027823	26820.607083
635.373257	26643.077810
635.718639	26303.586345
636.063968	26144.989124
636.409245	25593.847336
636.754470	25466.475022
637.099642	25223.103238
637.444762	24730.171653
637.789829	24726.002619
638.134845	24367.962229
638.479808	24220.450506
638.824719	24099.235962
639.169577	23651.228619
639.514383	23621.773157
639.859137	23258.346294
640.203839	23277.359006
640.548489	23000.569413
640.893086	22895.647878
641.237632	22610.358899
641.582125	22589.682607
641.926566	22352.634950
642.270955	22281.912603
642.615292	22146.114001
642.959576	21968.725879
643.303809	21882.736397
643.647990	21853.328826
643.992118	21738.725755
644.336195	21524.388497
644.680219	21482.599852
645.024192	21494.653251
645.368112	21727.713355
645.711981	21641.789408
646.055797	21982.304227
646.399562	21736.356413
646.743274	22158.137152
647.086935	22301.399183
647.430544	22180.955935
647.774101	22107.710491
648.117606	22201.728010
648.461059	22192.573274
648.804460	21874.473946
649.147810	21490.506902
649.491108	21230.264896
649.834354	21070.233467
650.177548	20513.732933
650.520690	20111.214442
650.863781	20007.071765
651.206820	19822.109310
651.549807	19507.155662
651.892742	19069.926306
652.235626	18925.955994
652.578458	18750.949817
652.921238	18273.754194
653.263967	18352.582717
653.606644	18083.324608
653.949269	17940.859079
654.291843	17627.274104
654.634365	17731.255464
654.976836	17392.868012
655.319255	17366.447325
655.661622	17196.915842
656.003938	17048.892441
656.346203	16870.244031
656.688416	16914.820434
657.030577	16720.425980
657.372687	16548.404167
657.714746	16533.951179
658.056753	16549.225875
658.398708	16145.462219
658.740612	16107.865294
659.082465	16138.913761
659.424266	16006.253277
659.766016	15905.725107
660.107715	15751.884215
660.449362	15723.759618
660.790958	15629.570699
661.132503	15516.676580
661.473996	15475.901207
661.815438	15448.442042
662.156829	15417.824594
662.498168	15245.409571
662.839456	15149.627648
663.180693	15136.913858
663.521879	15079.787502
663.863013	14984.534900
664.204097	14900.670265
664.545129	15006.481563
664.886110	14901.396191
665.227040	14879.136976
665.567918	14789.870744
665.908746	14736.852929
666.249522	14707.397468
666.590248	14641.489422
666.930922	14614.478920
667.271545	14547.872675
667.612118	14498.701260
667.952639	14346.370194
668.293109	14282.778558
668.633528	14143.438546
668.973896	14058.043920
669.314213	13967.419097
669.654480	13818.079956
669.994695	13729.456471
670.334859	13622.800779
670.674973	13475.011793
671.015035	13470.421822
671.355047	13372.371380
671.695008	13266.996141
672.034918	13160.363134
672.374777	13122.340231
672.714585	13001.143331
673.054342	12987.769150
673.394049	12862.579656
673.733705	12878.865103
674.073310	12696.705530
674.412864	12647.766008
674.752368	12475.335861
675.091820	12487.948828
675.431223	12279.686160
675.770574	12138.992597
676.109875	12007.642813
676.449125	11872.736495
676.788324	11759.560071
677.127473	11526.252950
677.466571	11427.116139
677.805619	11272.418251
678.144616	11189.594614
678.483562	11112.527975
678.822458	10938.572879
679.161303	10859.882988
679.500098	10773.769998
679.838842	10689.252533
680.177535	10642.004319
680.516179	10650.637295
680.854771	10618.973807
681.193314	10770.470563
681.531805	11007.034269
681.870247	11199.089627
682.208638	11396.980122
682.546978	11464.085441
682.885268	11461.048146
683.223508	11282.699684
683.561697	11143.561318
683.899836	11042.019876
684.237925	10859.275529
684.575963	10748.692778
684.913951	10579.892262
685.251889	10567.801055
685.589776	10516.078816
685.927614	10451.345360
686.265401	10453.881060
686.603137	10436.438668
686.940824	10524.187512
687.278460	10573.305995
687.616046	10590.390465
687.953582	10740.755481
688.291068	10681.766420
688.628504	10737.362785
688.965889	10702.195696
689.303224	10583.554660
689.640510	10451.007602
689.977745	10224.029650
690.314930	9966.764446
690.652065	9799.158684
690.989150	9562.133712
691.326185	9285.460066
691.663170	9069.310512
692.000105	8827.488883
692.336990	8616.526677
692.673825	8458.975495
693.010610	8283.336654
693.347345	8112.716282
693.684030	7904.438490
694.020665	7810.340312
694.357251	7609.599046
694.693786	7560.515851
695.030272	7469.951522
695.366707	7315.505692
695.703093	7210.190947
696.039429	7187.442740
696.375716	7099.532579
696.711952	7062.656538
697.048139	6999.528689
697.384276	6938.621469
697.720363	6935.700120
698.056400	6887.468881
698.392388	6817.013714
698.728326	6787.991792
699.064214	6726.673717
699.400053	6696.590631
699.735842	6576.505306
700.071581	6505.359501
700.407270	6420.292551
700.742910	6348.715728
701.078501	6266.708758
701.414042	6194.327871
701.749533	6100.073417
702.084974	6008.505899
702.420366	6021.128948
702.755709	5915.045427
703.091002	5826.999155
703.426246	5806.892513
703.761440	5765.567654
704.096584	5698.399320
704.431679	5655.675541
704.766725	5622.678669
705.101721	5582.563687
705.436668	5584.438996
705.771565	5506.669116
706.106413	5538.819074
706.441212	5525.298700
706.775961	5520.789388
707.110661	5511.937122
707.445311	5552.697371
707.779913	5511.375033
708.114465	5539.925608
708.448967	5573.794600
708.783421	5660.827600
709.117825	5699.021902
709.452180	5724.850254
709.786485	5782.929388
710.120742	5895.994907
710.454949	5909.956382
710.789107	5993.425287
711.123216	6106.004335
711.457275	6147.112424
711.791286	6234.281536
712.125247	6258.106029
712.459159	6203.704417
712.793023	6310.692825
713.126837	6129.274301
713.460602	6138.071114
713.794318	6050.309667
714.127985	5980.552701
714.461602	5796.643847
714.795171	5756.110449
715.128691	5572.267130
715.462162	5457.215397
715.795584	5358.307958
716.128957	5289.619716
716.462281	5202.851376
716.795556	5134.417713
717.128782	5042.807345
717.461960	4931.544038
717.795088	4902.970778
718.128167	4837.781097
718.461198	4758.733284
718.794180	4726.177513
719.127113	4664.040250
719.459997	4625.939210
719.792833	4554.596800
720.125619	4539.405283
720.458357	4483.582066
720.791046	4452.168116
721.123686	4412.065737
721.456278	4368.999160
721.788821	4357.659084
722.121315	4310.269718
722.453761	4314.413546
722.786158	4285.880615
723.118506	4285.520173
723.450805	4258.181995
723.783056	4269.728758
724.115259	4245.652208
724.447412	4231.400866
724.779518	4243.348400
725.111574	4242.526692
725.443582	4269.320425
725.775542	4252.273763
726.107453	4304.273265
726.439315	4286.641829
726.771129	4327.150021
727.102895	4366.627297
727.434612	4396.690218
727.766281	4411.019698
728.097901	4442.700829
728.429473	4448.823310
728.760996	4437.009366
729.092471	4443.088998
729.423897	4411.957352
729.755276	4378.963000
730.086606	4368.706773
730.417887	4413.179832
730.749120	4462.673881
731.080305	4473.167042
731.411442	4505.155684
731.742530	4500.916074
732.073570	4498.897092
732.404562	4528.060167
732.735506	4507.512423
733.066401	4482.122652
733.397249	4418.417591
733.728048	4328.490968
734.058798	4227.955237
734.389501	4132.909322
734.720156	4062.318045
735.050762	3984.351560
735.381320	3928.992129
735.711831	3885.693658
736.042293	3841.195393
736.372707	3826.886078
736.703073	3801.962613
737.033391	3813.146413
737.363661	3802.829692
737.693883	3808.422852
738.024056	3822.860717
738.354182	3838.266483
738.684260	3871.737224
739.014290	3896.766553
739.344272	3916.633740
739.674207	3950.054069
740.004093	3963.811378
740.333931	3963.584526
740.663722	3963.624856
740.993464	3960.602684
741.323159	3934.950772
741.652806	3893.583064
741.982405	3870.446688
742.311956	3822.409533
742.641460	3799.061429
742.970915	3757.124071
743.300323	3712.303172
743.629683	3676.823531
743.958996	3640.537306
744.288260	3601.833847
744.617477	3566.273548
744.946647	3556.239131
745.275768	3520.651105
745.604842	3494.172445
745.933869	3475.600834
746.262847	3463.043320
746.591778	3449.104529
746.920662	3429.181889
747.249498	3424.518822
747.578286	3431.778084
747.907027	3441.394085
748.235720	3457.956796
748.564365	3459.622897
748.892963	3451.672997
749.221514	3451.632668
749.550017	3439.370061
749.878473	3425.827002
750.206881	3406.511821
750.535242	3388.217473
750.863555	3380.144065
751.191821	3362.933566
751.520039	3356.881661
751.848210	3345.226513
752.176334	3342.547140
752.504411	3332.636232
752.832440	3319.148624
753.160421	3322.080055
753.488356	3310.513128
753.816243	3298.885707
754.144082	3283.636216
754.471875	3276.760082
754.799620	3269.037035
755.127318	3263.262393
755.454969	3256.993718
755.782572	3253.472472
756.110129	3246.785382
756.437638	3236.100656
756.765100	3235.117631
757.092515	3229.963051
757.419882	3231.533371
757.747203	3232.135788
758.074477	3231.944225
758.401703	3226.754357
758.728882	3243.125504
759.056014	3240.012591
759.383099	3246.266143
759.710138	3253.774941
760.037129	3255.244438
760.364073	3257.512957
760.690970	3253.336361
761.017820	3254.248810
761.344623	3257.003800
761.671379	3271.005605
761.998088	3290.834984
762.324751	3370.442365
762.651366	3539.510062
762.977935	3802.408756
763.304456	3998.383611
763.630931	4086.790326
763.957359	4032.464332
764.283740	3900.965834
764.610074	3769.255607
764.936362	3606.423818
765.262602	3490.903257
765.588796	3370.545708
765.914943	3286.202163
766.241044	3211.363714
766.567097	3158.814726
766.893104	3111.190946
767.219064	3079.950916
767.544978	3046.691903
767.870845	3019.605783
768.196665	3003.416118
768.522438	2986.702172
768.848165	2971.911427
769.173846	2953.271761
769.499479	2943.179371
769.825066	2932.451795
770.150607	2918.860844
770.476101	2906.426838
770.801548	2899.739748
771.126949	2887.136863
771.452303	2879.660832
771.777611	2864.214737
772.102872	2861.779859
772.428087	2854.094620
772.753256	2841.471571
773.078378	2833.120900
773.403453	2825.912050
773.728482	2814.408137
774.053465	2812.774803
774.378401	2806.334729
774.703291	2797.520271
775.028135	2789.610701
775.352932	2786.180196
775.677683	2778.366407
776.002388	2772.695109
776.327046	2768.904162
776.651658	2762.912750
776.976224	2756.238262
777.300743	2758.474014
777.625216	2752.195257
777.949643	2752.747263
778.274024	2748.386665
778.598359	2746.977663
778.922647	2744.822570
779.246889	2740.708988
779.571086	2740.378792
779.895236	2742.128073
780.219339	2739.509193
780.543397	2739.178998
780.867409	2741.649163
781.191374	2742.281828
781.515294	2737.318812
781.839167	2740.431725
782.162995	2736.912999
782.486776	2735.294789
782.810511	2732.943091
783.134201	2726.097204
783.457844	2726.281206
783.781441	2723.032182
784.104993	2719.699979
784.428498	2717.197047
784.751958	2714.525235
785.075372	2711.366952
785.398739	2707.397043
785.722061	2707.951570
786.045337	2704.866384
786.368568	2712.382745
786.691752	2708.954760
787.014891	2721.212326
787.337983	2735.824110
787.661030	2757.753129
787.984031	2782.888322
788.306987	2798.949438
788.629897	2800.890283
788.952760	2798.074798
789.275579	2789.840073
789.598351	2773.453803
789.921078	2760.871083
790.243759	2741.840727
790.566395	2731.740775
790.888984	2720.236862
791.211529	2712.034905
791.534027	2703.807742
791.856480	2697.039993
792.178888	2692.853315
792.501249	2683.229752
792.823566	2678.213804
793.145836	2676.038546
793.468062	2677.931499
793.790241	2674.695078
794.112375	2674.702640
794.434464	2680.925945
794.756507	2678.601973
795.078505	2683.746470
795.400457	2690.972964
795.722364	2704.473174
796.044226	2715.692262
796.366042	2722.465052
796.687812	2722.805330
797.009538	2725.212481
797.331218	2718.943806
797.652852	2713.811912
797.974442	2708.957281
798.295986	2705.710777
798.617484	2697.970086
798.938938	2695.073943
799.260346	2690.337779
799.581709	2679.453928
799.903026	2681.326716
800.224299	2678.614576
800.545526	2669.432114
800.866708	2666.372133
801.187845	2664.194355
801.508936	2661.310815
801.829983	2659.924498
802.150984	2655.145484
802.471940	2651.732623
802.792851	2649.489309
803.113717	2649.448980
803.434538	2648.143321
803.755314	2646.709113
804.076045	2643.608803
804.396731	2641.163844
804.717372	2641.267187
805.037967	2643.664256
805.358518	2645.295069
805.679024	2648.130718
805.999485	2649.317910
806.319901	2646.820018
806.640272	2647.961840
806.960598	2651.072232
807.280879	2647.994607
807.601115	2652.090545
807.921306	2649.759011
808.241453	2647.581232
808.561554	2646.096613
808.881611	2646.802374
809.201623	2645.637868
809.521590	2646.802374
809.841513	2645.970584
810.161390	2645.612662
810.481223	2641.907414
810.801011	2639.449851
811.120755	2637.312402
811.440453	2634.514562
811.760107	2635.401805
812.079716	2635.283338
812.399281	2632.200672
812.718801	2632.971969
813.038276	2630.799231
813.357707	2629.085239
813.677093	2628.863428
813.996434	2626.491565
814.315731	2625.826133
814.634983	2625.997532
814.954191	2625.974847
815.273354	2628.336628
815.592473	2629.899385
815.911547	2635.265694
816.230577	2637.514048
816.549562	2641.347846
816.868502	2644.160810
817.187399	2648.652478
817.506250	2650.608445
817.825058	2651.573826
818.143821	2658.137409
818.462539	2664.443892
818.781213	2672.930675
819.099843	2686.004907
819.418429	2713.446428
819.736970	2740.225037
820.055466	2770.519851
820.373919	2808.734318
820.692327	2861.923532
821.010691	2954.269909
821.329011	3177.335926
821.647286	3578.193356
821.965517	4108.169860
822.283704	4480.759020
822.601847	4665.108975
822.919945	4491.158920
823.237999	4261.219291
823.556010	4011.876260
823.873976	3783.771610
824.191897	3580.724015
824.509775	3420.967329
824.827609	3277.796039
825.145398	3175.747962
825.463144	3118.510701
825.780845	3099.631580
826.098502	3128.908081
826.416116	3209.432952
826.733685	3307.697643
827.051210	3358.381404
827.368692	3334.763598
827.686129	3241.139289
828.003522	3135.895120
828.320872	3035.114893
828.638177	2955.993984
828.955439	2888.571072
829.272656	2836.967300
829.589830	2795.987761
829.906960	2757.019641
830.224046	2727.659961
830.541088	2705.425952
830.858086	2687.184537
831.175041	2676.308248
831.491952	2669.371620
831.808819	2666.987154
832.125642	2673.248267
832.442421	2693.879189
832.759157	2727.944787
833.075849	2794.747637
833.392497	2873.936602
833.709101	2935.219389
834.025662	2949.453087
834.342179	2918.714651
834.658653	2869.812938
834.975083	2819.598005
835.291469	2781.433949
835.607811	2741.351735
835.924110	2716.944989
836.240366	2692.722245
836.556578	2667.924809
836.872746	2647.203146
837.188871	2635.757206
837.504952	2625.677419
837.820990	2613.339195
838.136984	2604.701178
838.452935	2602.909048
838.768842	2602.135231
839.084706	2605.036415
839.400526	2632.956845
839.716303	2674.558967
840.032037	2704.682382
840.347727	2712.178578
840.663373	2692.311391
840.978977	2663.047492
841.294537	2646.961171
841.610054	2628.540794
841.925527	2617.639299
842.240957	2603.448451
842.556344	2594.190372
842.871687	2585.159145
843.186987	2577.564647
843.502244	2571.263204
843.817458	2567.174829
844.132629	2560.286092
844.447756	2561.569066
844.762840	2555.756615
845.077881	2552.399207
845.392879	2550.498692
845.707833	2549.349309
846.022745	2546.420398
846.337613	2547.267312
846.652438	2546.012065
846.967221	2542.659698
847.281960	2544.547610
847.596656	2542.417722
847.911309	2545.308824
848.225919	2543.211704
848.540485	2542.274049
848.855009	2540.718853
849.169490	2538.430169
849.483928	2539.713143
849.798323	2540.746580
850.112675	2538.591486
850.426984	2537.066537
850.741251	2537.482432
851.055474	2540.255067
851.369654	2538.473019
851.683792	2538.357073
851.997887	2535.178625
852.311938	2538.125180
852.625947	2539.577032
852.939914	2537.873122
853.253837	2539.566950
853.567718	2540.106353
853.881555	2538.644418
854.195350	2538.117618
854.509103	2538.301620
854.822812	2538.147865
855.136479	2542.783206
855.450103	2535.899510
855.763685	2536.212062
856.077224	2535.556712
856.390720	2536.118800
856.704173	2534.296423
857.017584	2539.607279
857.330953	2540.489481
857.644278	2539.977804
857.957561	2542.662218
858.270802	2541.578370
858.584000	2538.047042
858.897155	2542.838658
859.210268	2541.124666
859.523339	2540.166847
859.836367	2540.376055
860.149352	2539.899666
860.462295	2539.108205
860.775195	2537.510159
861.088054	2539.377906
861.400869	2538.341949
861.713642	2535.607123
862.026373	2535.536547
862.339062	2538.319264
862.651708	2538.105015
862.964312	2539.418236
863.276873	2538.309182
863.589392	2542.894111
863.901869	2544.550130
864.214303	2546.816129
864.526696	2543.065510
864.839045	2547.789072
865.151353	2547.839483
865.463619	2549.366953
865.775842	2548.308310
866.088023	2547.844524
866.400162	2548.900646
866.712258	2547.746222
867.024313	2549.901315
867.336325	2548.641027
867.648296	2548.583053
867.960224	2549.117416
868.272110	2552.094217
868.583954	2550.886861
868.895755	2547.224462
869.207515	2550.518856
869.519233	2549.263609
869.830909	2549.613969
870.142542	2553.893909
870.454134	2552.951213
870.765684	2555.128992
871.077191	2551.849721
871.388657	2551.060780
871.700081	2551.653116
872.011463	2552.719320
872.322803	2552.230328
872.634101	2559.666030
872.945357	2557.367264
873.256571	2561.231308
873.567744	2564.800445
873.878874	2563.951011
874.189963	2562.894889
874.501010	2565.745662
874.812015	2564.528223
875.122979	2564.999571
875.433900	2567.615930
875.744780	2568.384706
876.055618	2569.196331
876.366415	2569.007288
876.677169	2570.978379
876.987882	2573.627506
877.298554	2572.407546
877.609183	2577.259657
877.919771	2578.139338
878.230317	2582.169741
878.540822	2590.979157
878.851285	2597.487287
879.161707	2609.356683
879.472087	2627.991309
879.782425	2661.487255
880.092722	2710.414174
880.402977	2797.908440
880.713191	2916.171389
881.023363	3047.775751
881.333494	3137.248670
881.643583	3182.019158
881.953631	3189.051567
882.263637	3154.028151
882.573602	3110.941409
882.883526	3062.871486
883.193408	3015.915659
883.503248	2966.958493
883.813048	2922.215732
884.122806	2881.052191
884.432522	2833.995540
884.742197	2795.849129
885.051831	2761.642379
885.361424	2726.959241
885.670975	2700.198276
885.980485	2677.659277
886.289954	2659.838798
886.599382	2644.511170
886.908768	2627.008284
887.218113	2613.465224
887.527417	2608.061107
887.836680	2596.776484
888.145901	2593.930753
888.455082	2589.391194
888.764221	2584.506316
889.073319	2581.365677
889.382376	2578.749318
889.691392	2574.431570
890.000366	2572.122721
890.309300	2570.814542
890.618193	2575.336457
890.927044	2571.318657
891.235855	2572.452917
891.544625	2575.207907
891.853353	2576.362332
892.162041	2579.777713
892.470687	2581.282498
892.779293	2590.661564
893.087858	2599.886876
893.396381	2615.988321
893.704864	2630.290075
894.013306	2662.782832
894.321707	2692.971782
894.630068	2721.905484
894.938387	2732.491907
895.246665	2731.501321
895.554903	2718.517829
895.863100	2700.397401
896.171256	2684.837880
896.479371	2671.844306
896.787446	2657.129178
897.095480	2646.807415
897.403473	2634.343162
897.711425	2623.973509
898.019336	2615.542179
898.327207	2606.173195
898.635038	2601.086671
898.942827	2594.434868
899.250576	2588.642582
899.558284	2582.686459
899.865952	2578.398958
900.173579	2569.665159
900.481165	2569.314798
900.788711	2568.374623
901.096216	2564.878583
901.403681	2561.155691
901.711105	2563.507389
902.018489	2558.693087
902.325832	2561.354817
902.633135	2560.762481
902.940397	2572.019377
903.247619	2588.902202
903.554800	2631.346197
903.861941	2686.758560
904.169041	2734.730180
904.476101	2766.373502
904.783121	2762.204468
905.090100	2741.021540
905.397039	2719.566389
905.703938	2697.511341
906.010796	2677.959226
906.317614	2659.032213
906.624391	2644.831283
906.931129	2629.029786
907.237826	2615.156531
907.544483	2604.514655
907.851099	2596.353027
908.157675	2583.573702
908.464211	2570.139027
908.770707	2561.632080
909.077163	2553.931717
909.383578	2550.019782
909.689954	2544.222455
909.996289	2543.249513
910.302584	2539.967721
910.608839	2539.176260
910.915054	2538.848585
911.221229	2536.849768
911.527363	2537.923533
911.833458	2537.535365
912.139513	2539.995448
912.445527	2538.997299
912.751502	2540.804553
913.057436	2544.497198
913.363331	2549.119936
913.669186	2551.791748
913.975000	2560.611246
914.280775	2575.200346
914.586510	2588.183837
914.892205	2615.290122
915.197859	2641.252064
915.503475	2676.784637
915.809050	2711.268650
916.114585	2737.220510
916.420081	2748.953795
916.725536	2750.478744
917.030952	2738.989955
917.336328	2729.139540
917.641665	2716.047663
917.946961	2700.956969
918.252218	2688.565813
918.557435	2672.489574
918.862612	2662.969355
919.167750	2648.148362
919.472848	2635.643780
919.777906	2624.520474
920.082925	2612.608228
920.387904	2601.893255
920.692843	2588.559403
920.997743	2582.545307
921.302603	2575.369224
921.607423	2569.327401
921.912204	2561.130485
922.216946	2559.749209
922.521647	2555.320555
922.826310	2550.153373
923.130932	2545.989380
923.435516	2542.153062
923.740059	2544.164482
924.044564	2541.046528
924.349028	2538.604089
924.653454	2534.029242
924.957840	2535.239119
925.262186	2531.201155
925.566493	2527.324508
925.870761	2524.657737
926.174989	2526.066740
926.479178	2524.750998
926.783328	2525.139167
927.087438	2523.677233
927.391509	2522.600946
927.695541	2518.870493
927.999533	2518.079031
928.303486	2517.723630
928.607400	2519.064577
928.911275	2517.695904
929.215110	2518.663805
929.518906	2515.205574
929.822663	2517.504340
930.126381	2517.884947
930.430060	2515.868485
930.733699	2516.218846
931.037299	2515.878568
931.340861	2517.227076
931.644383	2514.703979
931.947866	2514.908146
932.251309	2516.866634
932.554714	2515.671880
932.858080	2514.328413
933.161407	2513.531911
933.464694	2513.930162
933.767943	2510.686179
934.071153	2514.630882
934.374323	2514.030985
934.677455	2511.646519
934.980548	2514.151973
935.283602	2513.375635
935.586617	2513.725995
935.889593	2512.185923
936.192530	2511.147445
936.495428	2514.552744
936.798287	2514.081396
937.101108	2518.598270
937.403890	2514.663650
937.706632	2515.273629
938.009336	2521.880061
938.312002	2523.533560
938.614628	2527.052285
938.917216	2526.422141
939.219765	2528.395753
939.522275	2530.644107
939.824747	2530.727286
940.127179	2531.271731
940.429573	2529.688809
940.731929	2529.227543
941.034246	2531.738038
941.336524	2533.273069
941.638763	2529.928263
941.940964	2529.958510
942.243126	2523.447860
942.545250	2527.841226
942.847335	2525.628159
943.149381	2524.680422
943.451389	2522.845442
943.753359	2522.860566
944.055290	2521.978364
944.357182	2520.791172
944.659036	2517.849659
944.960851	2520.771008
945.262628	2519.888806
945.564367	2519.523322
945.866067	2518.608352
946.167729	2518.321007
946.469352	2518.373939
946.770937	2519.425019
947.072484	2517.030471
947.373992	2519.293949
947.675462	2518.653723
947.976893	2515.293794
948.278286	2514.093999
948.579641	2513.292456
948.880958	2513.887312
949.182236	2515.656757
949.483476	2513.731036
949.784678	2517.499299
950.085841	2514.719102
950.386967	2513.307579
950.688054	2517.174144
950.989103	2516.571726
951.290114	2516.836387
951.591087	2520.221522
951.892021	2518.142046
952.192917	2516.750687
952.493776	2518.752025
952.794596	2521.776718
953.095378	2523.616739
953.396122	2521.741430
953.696828	2518.928466
953.997496	2518.537776
954.298126	2519.326717
954.598718	2519.465349
954.899272	2519.843435
955.199788	2517.786644
955.500266	2515.071983
955.800706	2516.680111
956.101108	2511.260871
956.401472	2512.463186
956.701798	2508.558812
957.002087	2511.996879
957.302337	2507.941271
957.602550	2506.222238
957.902724	2503.966321
958.202861	2506.887670
958.502960	2504.961949
958.803022	2501.445744
959.103045	2501.579335
959.403031	2504.354490
959.702979	2499.162102
960.002889	2500.462719
960.302762	2499.056237
960.602596	2498.534478
960.902393	2499.716628
961.202153	2498.489108
961.501875	2498.547081
961.801559	2495.983654
962.101205	2499.734273
962.400814	2499.426762
962.700385	2494.194044
962.999918	2494.289826
963.299414	2491.625577
963.598873	2494.700680
963.898293	2493.253869
964.197677	2496.734786
964.497022	2498.789056
964.796331	2497.982472
965.095601	2495.759323
965.394835	2493.631956
965.694030	2495.144302
965.993189	2495.383757
966.292309	2493.117758
966.591393	2496.780156
966.890439	2494.554487
967.189447	2494.950218
967.488419	2495.512306
967.787353	2493.826040
968.086249	2496.916268
968.385108	2495.318222
968.683930	2495.517347
968.982714	2495.973572
969.281462	2492.361585
969.580172	2497.261587
969.878844	2494.804024
970.177480	2495.378716
970.476078	2495.842502
970.774639	2494.189003
971.073162	2497.251504
971.371649	2495.981133
971.670098	2498.796618
971.968510	2495.950887
972.266885	2495.255207
972.565223	2497.687564
972.863524	2495.507265
973.161788	2495.897954
973.460014	2495.156905
973.758204	2495.595485
974.056356	2495.913078
974.354471	2497.858963
974.652550	2496.117245
974.950591	2496.447440
975.248595	2496.608757
975.546563	2497.332163
975.844493	2496.518016
976.142386	2498.552122
976.440243	2495.275372
976.738062	2493.084991
977.035845	2493.458036
977.333590	2494.146153
977.631299	2496.921309
977.928971	2491.139105
978.226606	2489.800679
978.524204	2491.691112
978.821765	2489.064670
979.119290	2493.687408
979.416777	2495.114055
979.714228	2492.283447
980.011642	2496.202944
980.309020	2494.793942
980.606360	2493.153046
980.903664	2493.198417
981.200931	2496.558346
981.498162	2498.799138
981.795356	2499.454488
982.092513	2504.888852
982.389633	2508.946981
982.686717	2514.923269
982.983764	2517.658095
983.280775	2518.852848
983.577749	2520.725637
983.874686	2517.718589
984.171587	2514.315810
984.468451	2516.634741
984.765279	2514.265398
985.062070	2512.543844
985.358824	2509.594769
985.655543	2506.285252
985.952224	2503.089160
986.248869	2503.923471
986.545478	2499.913233
986.842050	2496.795280
987.138586	2493.256390
987.435086	2493.667244
987.731549	2491.882675
988.027975	2492.336379
988.324366	2488.147180
988.620719	2488.542911
988.917037	2488.842860
989.213318	2488.507623
989.509563	2488.560555
989.805772	2488.540390
990.101944	2485.918990
990.398080	2485.692138
990.694180	2487.501913
990.990244	2487.207005
991.286271	2488.994094
991.582262	2485.583754
991.878217	2485.513178
992.174136	2484.472179
992.470019	2485.477889
992.765865	2483.358084
993.061676	2481.649133
993.357450	2487.237252
993.653188	2480.610655
993.948890	2488.106851
994.244556	2487.448981
994.540186	2491.355875
994.835780	2489.261275
995.131337	2488.976450
995.426859	2490.682881
995.722345	2495.328304
996.017795	2499.925836
996.313208	2500.876094
996.608586	2499.754437
996.903928	2501.899448
997.199234	2501.743172
997.494504	2502.340549
997.789738	2499.414159
998.084936	2499.260404
998.380099	2498.542040
998.675225	2497.266628
998.970316	2497.987513
999.265371	2493.901658
999.560390	2494.085660
999.855373	2489.851090
1000.150320	2489.972078
1000.445232	2490.209012
1000.740108	2485.747591
1001.034948	2487.927890
1001.329752	2485.702221
1001.624521	2484.346150
1001.919254	2485.331696
1002.213951	2484.973774
1002.508613	2480.807260
1002.803239	2481.185347
1003.097829	2483.252220
1003.392384	2482.730461
1003.686903	2481.664257
1003.981386	2480.867754
1004.275834	2484.361274
1004.570246	2481.379431
1004.864623	2483.390852
1005.158964	2481.124853
1005.453270	2480.996304
1005.747540	2481.233238
1006.041775	2477.696868
1006.335974	2481.386993
1006.630138	2481.797847
1006.924266	2480.948413
1007.218359	2480.756849
1007.512416	2475.798874
1007.806438	2473.663945
1008.100425	2478.241313
1008.394376	2475.483802
1008.688292	2480.492188
1008.982172	2477.580922
1009.276017	2479.680562
1009.569827	2475.002372
1009.863602	2479.433546
1010.157341	2480.409009
1010.451045	2478.972280
1010.744714	2478.329533
1011.038347	2480.174596
1011.331945	2480.431694
1011.625508	2477.253247
1011.919036	2478.236272
1012.212528	2479.768783
1012.505986	2477.328864
1012.799408	2480.058649
1013.092795	2476.799543
1013.386147	2475.569502
1013.679464	2478.216107
1013.972745	2479.138638
1014.265992	2478.054790
1014.559204	2476.905407
1014.852380	2478.153093
1015.145521	2476.570171
1015.438628	2477.706951
1015.731699	2477.613689
1016.024736	2476.809625
1016.317737	2479.342805
1016.610703	2480.078814
1016.903635	2477.921200
1017.196531	2480.061170
1017.489393	2479.368011
1017.782219	2477.638895
1018.075011	2477.487661
1018.367768	2476.242496
1018.660490	2476.706282
1018.953177	2476.706282
1019.245829	2476.706282
