Dividing Wavelength (nm)	Counts (n)	Blue Motor Position (mm): 0.000000	Red Motor Position (mm): 2.000000	
326.493990	2056.584082
326.888308	2056.584082
327.282561	2056.584082
327.676750	2032.608354
328.070874	2032.691533
328.464933	2038.612368
328.858929	2047.759542
329.252859	2058.240101
329.646726	2072.685527
330.040528	2086.321848
330.434265	2104.729622
330.827938	2126.066305
331.221547	2147.453401
331.615091	2165.072233
332.008571	2185.904802
332.401986	2207.869109
332.795338	2225.785370
333.188625	2246.444018
333.581847	2266.797677
333.975006	2285.386932
334.368100	2302.569704
334.761129	2317.138639
335.154095	2333.353510
335.546996	2350.682477
335.939833	2359.335617
336.332606	2373.813811
336.725315	2387.296377
337.117960	2397.986144
337.510540	2404.209448
337.903056	2413.190264
338.295508	2420.015986
338.687896	2428.124682
339.080220	2431.141813
339.472480	2439.116918
339.864676	2440.551126
340.256807	2445.574636
340.648875	2449.320213
341.040879	2448.198557
341.432818	2450.235183
341.824694	2449.592436
342.216506	2448.395162
342.608253	2449.118567
342.999937	2449.453804
343.391557	2448.201077
343.783113	2448.155707
344.174605	2445.307455
344.566033	2448.168310
344.957397	2442.625561
345.348697	2442.454162
345.739934	2440.735128
346.131106	2438.746393
346.522215	2435.746907
346.913260	2436.661876
347.304241	2434.600044
347.695159	2432.729776
348.086012	2430.879673
348.476802	2428.414548
348.867528	2425.273910
349.258191	2421.346851
349.648789	2419.703435
350.039324	2418.985070
350.429796	2422.657551
350.820203	2421.513209
351.210548	2424.444640
351.600828	2419.312745
351.991045	2418.168403
352.381198	2422.849115
352.771288	2418.788465
353.161314	2417.250913
353.551276	2420.716707
353.941175	2418.780903
354.331010	2418.203691
354.720782	2418.168403
355.110490	2419.292581
355.500135	2421.785431
355.889717	2419.196799
356.279235	2419.131264
356.668689	2420.021027
357.058080	2424.401790
357.447408	2421.946748
357.836672	2418.327200
358.225873	2421.840884
358.615010	2422.024886
359.004084	2421.498085
359.393095	2421.815678
359.782043	2425.107552
360.170927	2423.622932
360.559748	2425.674681
360.948505	2424.086718
361.337199	2426.413210
361.725830	2425.258786
362.114398	2426.680392
362.502903	2423.794331
362.891344	2425.420103
363.279722	2429.682399
363.668037	2427.797007
364.056289	2428.618715
364.444478	2429.508479
364.832603	2429.906730
365.220665	2428.893458
365.608665	2433.201124
365.996601	2429.097625
366.384474	2431.121648
366.772284	2432.709612
367.160031	2430.504107
367.547715	2432.518048
367.935336	2431.167018
368.322893	2430.060485
368.710388	2430.352872
369.097820	2431.971083
369.485189	2428.870773
369.872495	2433.659869
370.259738	2432.581062
370.646918	2435.449479
371.034035	2436.649273
371.421090	2432.815476
371.808081	2433.196083
372.195010	2435.865374
372.581875	2434.829417
372.968678	2434.108532
373.355418	2434.058120
373.742096	2437.536516
374.128710	2439.895776
374.515262	2435.867894
374.901751	2436.873605
375.288177	2438.484253
375.674540	2439.530293
376.060841	2438.330498
376.447079	2436.203131
376.833254	2439.232865
377.219367	2438.237237
377.605417	2437.828903
377.991404	2436.364448
378.377329	2439.540375
378.763191	2439.132042
379.148991	2440.921651
379.534727	2440.846034
379.920402	2440.742690
380.306013	2439.797474
380.691563	2439.552978
381.077049	2442.991045
381.462474	2442.660849
381.847835	2443.797629
382.233134	2439.792433
382.618371	2439.767227
383.003545	2442.554985
383.388657	2443.409461
383.773706	2442.635643
384.158693	2444.841148
384.543618	2442.509615
384.928480	2443.510284
385.313280	2443.527928
385.698017	2441.241764
386.082692	2444.281580
386.467305	2446.673608
386.851856	2444.382403
387.236344	2445.577157
387.620770	2444.536158
388.005133	2444.057249
388.389435	2446.136725
388.773674	2442.433997
389.157851	2449.166458
389.541965	2446.688731
389.926018	2446.834925
390.310008	2446.401385
390.693936	2448.017075
391.077802	2448.049843
391.461606	2447.422219
391.845348	2449.857096
392.229027	2449.743670
392.612645	2447.548248
392.996200	2448.369956
393.379694	2447.366766
393.763125	2450.991356
394.146494	2449.126129
394.529801	2448.569082
394.913047	2449.743670
395.296230	2450.464555
395.679351	2450.827518
396.062410	2448.286777
396.445408	2448.223763
396.828343	2449.763835
397.211217	2450.807354
397.594028	2451.172838
397.976778	2450.628393
398.359466	2447.424740
398.742092	2449.821808
399.124656	2446.928186
399.507158	2450.409103
399.889598	2448.611931
400.271977	2450.494802
400.654294	2451.064453
401.036549	2451.437498
401.418742	2449.476489
401.800874	2451.298866
402.182944	2452.612087
402.564952	2450.121757
402.946898	2450.734257
403.328783	2452.765842
403.710606	2450.648557
404.092367	2450.459514
404.474067	2451.185440
404.855705	2453.305246
405.237282	2451.704679
405.618797	2450.283074
406.000250	2452.501182
406.381642	2452.075204
406.762972	2450.338527
407.144240	2450.388938
407.525447	2450.550255
407.906593	2449.118567
408.287677	2453.358178
408.668700	2450.572940
409.049661	2453.171655
409.430560	2451.964299
409.811399	2455.228446
410.192176	2453.804320
410.572891	2452.738116
410.953545	2455.278857
411.334138	2455.591409
411.714669	2459.883951
412.095139	2452.659978
412.475547	2456.909671
412.855894	2456.057716
413.236180	2454.452108
413.616405	2455.510750
413.996568	2454.618466
414.376670	2453.763991
414.756711	2456.098045
415.136691	2456.871862
415.516609	2456.574434
415.896466	2458.316153
416.276262	2454.618466
416.655997	2454.321038
417.035670	2456.168621
417.415283	2454.931018
417.794834	2455.155349
418.174324	2458.643828
418.553753	2456.309773
418.933121	2458.573251
419.312428	2459.684826
419.691674	2460.524178
420.070859	2455.528394
420.449983	2456.702983
420.829045	2459.344548
421.208047	2459.916719
421.586988	2459.873869
421.965867	2457.398662
422.344686	2459.500824
422.723444	2457.020576
423.102141	2459.712552
423.480777	2460.990485
423.859352	2458.608539
424.237866	2460.466205
424.616319	2462.492748
424.994712	2457.885134
425.373044	2457.466718
425.751314	2456.826492
426.129524	2454.994032
426.507673	2458.288426
426.885762	2454.086624
427.263789	2460.183900
427.641756	2459.586523
428.019662	2460.849332
428.397508	2457.633076
428.775292	2459.989816
429.153016	2459.962089
429.530679	2460.559466
429.908282	2461.701287
430.285824	2461.121555
430.663305	2462.152471
431.040726	2461.645835
431.418086	2462.034003
431.795385	2462.107100
432.172624	2459.427727
432.549802	2462.434775
432.926920	2461.282872
433.303977	2458.422017
433.680974	2461.671040
434.057910	2460.350258
434.434786	2463.836216
434.811601	2463.042234
435.188355	2460.846812
435.565050	2462.061730
435.941683	2465.368727
436.318257	2461.779425
436.694770	2463.072481
437.071222	2461.257666
437.447614	2464.221864
437.823946	2465.177163
438.200218	2460.937552
438.576429	2464.312605
438.952580	2460.178859
439.328670	2462.548201
439.704700	2466.308902
440.080670	2467.382668
440.456580	2464.368058
440.832429	2464.783953
441.208218	2463.160701
441.583947	2465.051134
441.959616	2464.693212
442.335224	2464.589868
442.710773	2466.077009
443.086261	2464.388222
443.461689	2465.837554
443.837057	2466.137503
444.212365	2463.513582
444.587612	2463.470732
444.962800	2460.468725
445.337927	2464.214303
445.712995	2462.550722
446.088002	2462.409569
446.462949	2465.988789
446.837837	2465.280507
447.212664	2465.877883
447.587431	2464.234467
447.962139	2464.181535
448.336786	2465.698922
448.711374	2466.359313
449.085901	2467.491052
449.460369	2465.005764
449.834776	2467.153295
450.209124	2467.342338
450.583412	2467.778398
450.957640	2466.366875
451.331808	2466.351752
451.705917	2467.425518
452.079965	2467.211268
452.453954	2465.066257
452.827883	2467.309571
453.201752	2464.940229
453.575562	2468.521968
453.949311	2466.397122
454.323001	2469.464664
454.696632	2467.049952
455.070202	2466.240846
455.443713	2469.036166
455.817164	2465.456947
456.190556	2465.925774
456.563888	2469.880559
456.937160	2466.195476
457.310373	2468.620271
457.683526	2467.359983
458.056619	2468.237143
458.429653	2467.415435
458.802628	2470.936681
459.175542	2466.611371
459.548398	2469.215127
459.921194	2469.384006
460.293930	2471.110601
460.666607	2469.409212
461.039224	2469.857874
461.411782	2469.719242
461.784280	2466.205558
462.156719	2468.370734
462.529099	2470.793008
462.901419	2470.825776
463.273680	2466.470219
463.645882	2465.567852
464.018024	2466.344190
464.390106	2464.511731
464.762130	2471.488687
465.134094	2469.900724
465.505999	2470.994654
465.877845	2471.203862
466.249631	2469.706640
466.621358	2469.459623
466.993026	2468.106073
467.364634	2474.195787
467.736184	2472.035653
468.107674	2470.558595
468.479105	2468.902576
468.850477	2471.166054
469.221790	2469.676393
469.593043	2470.931640
469.964238	2468.247226
470.335373	2470.704788
470.706449	2470.896352
471.077467	2469.497432
471.448425	2471.314768
471.819324	2468.746300
472.190164	2471.082875
472.560945	2468.791670
472.931667	2471.594552
473.302330	2471.155971
473.672934	2470.780405
474.043479	2467.082719
474.413965	2472.370889
474.784393	2469.381485
475.154761	2472.068420
475.525070	2471.947432
475.895321	2471.047587
476.265513	2469.956177
476.635645	2472.640591
477.005719	2469.537761
477.375734	2470.271249
477.745691	2472.083544
478.115588	2471.521455
478.485427	2471.672690
478.855207	2471.682772
479.224928	2472.010447
479.594591	2470.291413
479.964194	2473.893318
480.333739	2471.483646
480.703226	2472.638071
481.072653	2470.432566
481.442022	2472.386013
481.811333	2470.782926
482.180584	2469.313430
482.549777	2470.261167
482.918912	2468.055662
483.287988	2471.894500
483.657005	2469.636063
484.025964	2471.680251
484.394864	2470.019191
484.763706	2472.038173
485.132489	2472.033132
485.501213	2473.086733
485.869879	2471.836527
486.238487	2473.026239
486.607036	2472.398616
486.975527	2473.197639
487.343959	2474.218472
487.712333	2470.372072
488.080648	2473.222844
488.448905	2471.902062
488.817104	2476.701241
489.185244	2473.858030
489.553326	2473.744604
489.921350	2471.430714
490.289315	2474.178143
490.657222	2475.214100
491.025070	2472.161682
491.392861	2473.527834
491.760593	2470.886270
492.128267	2473.089254
492.495883	2470.916517
492.863440	2475.914821
493.230939	2474.707464
493.598380	2474.629326
493.965763	2470.724953
494.333088	2475.297279
494.700354	2474.352063
495.067563	2474.752835
495.434713	2474.231075
495.801805	2476.270222
496.168839	2471.334932
496.535815	2472.138996
496.902733	2473.963894
497.269593	2472.827114
497.636395	2474.226034
498.003139	2474.594038
498.369825	2472.824593
498.736453	2473.832824
499.103023	2473.250571
499.469535	2475.539255
499.835989	2472.849799
500.202385	2471.471043
500.568723	2469.913327
500.935003	2471.352576
501.301226	2468.441310
501.667390	2474.452886
502.033497	2473.812659
502.399546	2475.408185
502.765537	2472.247381
503.131470	2470.931640
503.497345	2473.197639
503.863163	2473.439614
504.228923	2474.263843
504.594625	2474.843575
504.960269	2473.520273
505.325856	2474.052114
505.691385	2474.899028
506.056856	2478.024543
506.422270	2476.010603
506.787625	2473.648822
507.152924	2476.660911
507.518164	2477.084368
507.883347	2474.762917
508.248472	2475.272073
508.613540	2474.495736
508.978550	2474.515900
509.343503	2474.047073
509.708398	2477.432208
510.073236	2473.028760
510.438016	2474.289048
510.802738	2476.393730
511.167403	2473.545478
511.532010	2473.333750
511.896561	2475.163689
512.261053	2474.047073
512.625488	2473.968935
512.989866	2474.127732
513.354186	2477.041518
513.718449	2473.734522
514.082655	2473.651343
514.446803	2477.704430
514.810894	2478.538741
515.174927	2475.874491
515.538904	2476.991107
515.902822	2472.736373
516.266684	2476.166878
516.630488	2474.599079
516.994235	2474.178143
517.357925	2473.714357
517.721558	2477.452373
518.085133	2474.299131
518.448651	2475.408185
518.812112	2472.912813
519.175516	2472.113791
519.538863	2468.252267
519.902152	2475.771148
520.265385	2473.878194
520.628560	2474.203349
520.991678	2475.889615
521.354739	2473.956332
521.717743	2473.374079
522.080690	2476.413895
522.443580	2475.657722
522.806413	2474.747793
523.169189	2476.945737
523.531908	2477.321302
523.894569	2474.793164
524.257174	2475.382979
524.619722	2474.296610
524.982213	2476.537403
525.344647	2476.328195
525.707025	2478.614358
526.069345	2477.651498
526.431608	2475.811477
526.793815	2475.108236
527.155964	2474.992289
527.518057	2476.277784
527.880093	2476.915490
528.242072	2477.278453
528.603995	2478.934472
528.965860	2476.625623
529.327669	2477.346508
529.689421	2476.822228
530.051117	2478.226190
530.412755	2477.245685
530.774337	2478.742908
531.135862	2475.123359
531.497331	2479.567137
531.858743	2476.033288
532.220098	2477.051601
532.581396	2477.212918
532.942638	2478.377424
533.303824	2476.665953
533.664953	2478.495891
534.026025	2478.039667
534.387040	2476.741570
534.747999	2474.856178
535.108902	2475.340129
535.469748	2479.120994
535.830537	2475.345170
536.191270	2475.108236
536.551947	2475.110757
536.912567	2473.026239
537.273131	2474.084882
537.633638	2471.329891
537.994089	2476.323154
538.354483	2478.397589
538.714821	2478.327013
539.075103	2477.457414
539.435328	2478.425315
539.795497	2478.954636
540.155609	2475.294759
540.515665	2474.389872
540.875665	2476.275263
541.235609	2479.514204
541.595496	2478.879019
541.955328	2477.827938
542.315102	2479.385655
542.674821	2477.434728
543.034483	2478.500932
543.394090	2477.545634
543.753640	2478.674852
544.113134	2477.439770
544.472571	2476.086220
544.831953	2478.372383
545.191278	2476.260140
545.550548	2476.900366
545.909761	2477.868268
546.268918	2473.767289
546.628019	2479.809112
546.987064	2476.628144
547.346053	2476.726446
547.704986	2476.968422
548.063863	2479.370532
548.422684	2477.684266
548.781449	2480.048567
549.140158	2474.667135
549.498811	2476.983545
549.857408	2478.165696
550.215949	2475.945068
550.574434	2478.107723
550.932864	2476.282825
551.291237	2478.639564
551.649555	2477.500263
552.007817	2478.148052
552.366022	2476.726446
552.724173	2477.611169
553.082267	2477.197794
553.440305	2477.159986
553.798288	2477.555716
554.156215	2478.667291
554.514086	2473.497587
554.871902	2473.255612
555.229661	2475.750983
555.587365	2471.523976
555.945014	2475.836683
556.302606	2476.028247
556.660143	2475.715695
557.017625	2480.403968
557.375050	2474.697382
557.732421	2475.672845
558.089735	2477.482619
558.446994	2475.030098
558.804197	2479.373052
559.161345	2476.544965
559.518437	2478.516056
559.875474	2476.466827
560.232455	2475.027578
560.589381	2477.323823
560.946251	2477.623772
561.303065	2475.090592
561.659825	2478.301807
562.016528	2476.943216
562.373177	2477.553196
562.729770	2477.152424
563.086307	2479.660398
563.442789	2474.120170
563.799216	2476.199646
564.155587	2476.250057
564.511904	2474.891466
564.868164	2479.335243
565.224370	2478.195943
565.580520	2476.781899
565.936615	2479.342805
566.292654	2476.653350
566.648638	2477.575881
567.004567	2474.697382
567.360441	2479.247023
567.716260	2473.994141
568.072023	2479.859523
568.427732	2477.124698
568.783385	2475.476240
569.138982	2476.519759
569.494525	2477.999338
569.850013	2477.444811
570.205445	2477.724595
570.560823	2475.962712
570.916145	2476.688638
571.271412	2477.525469
571.626625	2476.532362
571.981782	2477.739718
572.336884	2475.377938
572.691931	2472.146558
573.046923	2474.979687
573.401860	2473.825262
573.756743	2477.351549
574.111570	2477.948926
574.466342	2480.265336
574.821059	2477.139821
575.175722	2479.226859
575.530330	2476.045891
575.884882	2477.802733
576.239380	2475.816518
576.593823	2477.782568
576.948211	2477.321303
577.302544	2478.899184
577.656823	2476.529841
578.011047	2476.340798
578.365216	2478.281642
578.719330	2478.206025
579.073389	2477.593525
579.427394	2478.553865
579.781344	2476.504636
580.135239	2476.814667
580.489080	2476.098823
580.842866	2478.001858
581.196597	2481.523104
581.550273	2476.297948
581.903895	2477.737198
582.257463	2477.951447
582.610975	2480.086375
582.964434	2476.282825
583.317837	2480.353557
583.671186	2479.947744
584.024481	2477.805253
584.377721	2477.895994
584.730906	2477.316261
585.084037	2476.328195
585.437113	2474.150417
585.790135	2477.991776
586.143103	2477.507825
586.496016	2477.916159
586.848874	2478.168216
587.201679	2478.639564
587.554428	2477.810294
587.907124	2479.136118
588.259765	2476.819708
588.612352	2477.898515
588.964884	2478.281642
589.317362	2477.840541
589.669786	2479.030254
590.022155	2476.313072
590.374470	2474.261322
590.726731	2475.844244
591.078937	2472.375931
591.431090	2478.168216
591.783188	2478.836169
592.135232	2476.131590
592.487222	2477.817856
592.839157	2476.567650
593.191038	2478.836169
593.542866	2477.858185
593.894639	2475.292238
594.246358	2479.647795
594.598022	2475.040180
594.949633	2479.005048
595.301190	2479.577219
595.652692	2479.425984
596.004141	2479.839359
596.355535	2476.499594
596.706876	2478.848772
597.058162	2477.815336
597.409395	2478.591673
597.760573	2476.066055
598.111698	2475.211580
598.462768	2478.130408
598.813785	2479.602425
599.164748	2476.734008
599.515657	2478.213587
599.866511	2477.747280
600.217312	2478.591673
600.568060	2475.277115
600.918753	2480.557723
601.269392	2476.658391
601.619978	2479.995635
601.970510	2477.686786
602.320988	2477.878350
602.671412	2475.955150
603.021783	2476.360963
603.372100	2478.926910
603.722363	2476.635706
604.072572	2480.608135
604.422728	2478.193422
604.772830	2478.022023
605.122878	2479.788947
605.472872	2475.675366
605.822813	2476.469347
606.172701	2478.022023
606.522534	2478.712661
606.872314	2477.333905
607.222041	2477.906076
607.571714	2475.302320
607.921333	2476.343319
608.270899	2474.886425
608.620411	2474.135293
608.969870	2478.379945
609.319276	2476.925572
609.668627	2478.233751
610.017926	2479.037815
610.367171	2476.948257
610.716362	2479.516725
611.065500	2479.304997
611.414585	2476.628144
611.763616	2476.998669
612.112594	2477.633854
612.461518	2475.720736
612.810389	2478.465644
613.159207	2476.746611
613.507971	2476.991107
613.856682	2479.357929
614.205340	2475.708133
614.553945	2476.968422
614.902496	2477.883391
615.250994	2478.062352
615.599439	2477.613689
615.947830	2475.514049
616.296169	2477.245685
616.644454	2478.906745
616.992686	2475.577063
617.340864	2477.349029
617.688990	2476.565129
618.037063	2477.195274
618.385082	2478.364821
618.733048	2477.253247
619.080961	2478.531179
619.428821	2477.270891
619.776628	2477.245685
620.124382	2476.935654
620.472083	2477.550675
620.819731	2477.475058
621.167326	2478.538741
621.514868	2479.471355
621.862357	2478.856334
622.209793	2476.877681
622.557176	2478.122846
622.904506	2478.805922
623.251783	2478.851293
623.599007	2478.377424
623.946179	2479.128556
624.293297	2476.953298
624.640363	2476.348360
624.987376	2476.454224
625.334336	2474.321816
625.681243	2477.797692
626.028097	2472.501959
626.374899	2478.032105
626.721647	2476.411374
627.068343	2477.691827
627.414987	2475.874491
627.761577	2476.706282
628.108115	2475.289718
628.454600	2477.598566
628.801032	2478.236272
629.147412	2477.792650
629.493739	2475.831642
629.840014	2480.971098
630.186236	2477.296097
630.532405	2477.459934
630.878521	2476.182002
631.224585	2478.440439
631.570597	2478.357260
631.916556	2477.407002
632.262462	2478.823566
632.608316	2475.541775
632.954117	2476.260140
633.299866	2478.092599
633.645562	2480.151910
633.991206	2479.264667
634.336797	2476.849955
634.682336	2477.830459
635.027823	2480.509832
635.373257	2475.279635
635.718639	2477.825418
636.063968	2476.688638
636.409245	2478.158134
636.754470	2476.302989
637.099642	2474.367186
637.444762	2476.146714
637.789829	2479.438587
638.134845	2476.239975
638.479808	2477.162506
638.824719	2478.790799
639.169577	2476.360963
639.514383	2477.278453
639.859137	2479.224338
640.203839	2475.592187
640.548489	2478.047229
640.893086	2478.856334
641.237632	2477.971611
641.582125	2478.841210
641.926566	2476.464306
642.270955	2474.130252
642.615292	2473.537917
642.959576	2476.388689
643.303809	2472.449027
643.647990	2475.398102
643.992118	2475.892135
644.336195	2475.947588
644.680219	2478.037146
645.024192	2476.416415
645.368112	2478.725264
645.711981	2476.822228
646.055797	2477.558237
646.399562	2477.412043
646.743274	2475.609831
647.086935	2478.755511
647.430544	2476.270222
647.774101	2477.603607
648.117606	2475.269553
648.461059	2477.802733
648.804460	2479.511684
649.147810	2478.092599
649.491108	2477.008751
649.834354	2476.164358
650.177548	2477.596045
650.520690	2479.108392
650.863781	2477.961529
651.206820	2477.495222
651.549807	2477.517907
651.892742	2476.078658
652.235626	2477.679224
652.578458	2476.784420
652.921238	2476.078658
653.263967	2478.553865
653.606644	2476.081179
653.949269	2475.990438
654.291843	2475.713174
654.634365	2474.674697
654.976836	2477.669142
655.319255	2478.168216
655.661622	2475.335088
656.003938	2477.475058
656.346203	2477.064204
656.688416	2479.047898
657.030577	2476.368524
657.372687	2479.047898
657.714746	2474.553709
658.056753	2475.793833
658.398708	2474.568832
658.740612	2476.159317
659.082465	2478.450521
659.424266	2473.716877
659.766016	2473.968935
660.107715	2473.963894
660.449362	2470.780405
660.790958	2476.136631
661.132503	2478.279122
661.473996	2477.013792
661.815438	2474.185705
662.156829	2475.307362
662.498168	2479.420943
662.839456	2476.451703
663.180693	2478.584112
663.521879	2473.973976
663.863013	2479.234420
664.204097	2476.928092
664.545129	2474.231075
664.886110	2476.081179
665.227040	2477.366673
665.567918	2478.402630
665.908746	2477.255768
666.249522	2478.541262
666.590248	2476.446662
666.930922	2475.574543
667.271545	2477.205356
667.612118	2475.952629
667.952639	2478.243834
668.293109	2477.117136
668.633528	2477.807774
668.973896	2474.417598
669.314213	2475.771148
669.654480	2473.237968
669.994695	2477.467496
670.334859	2476.171919
670.674973	2476.391210
671.015035	2476.918010
671.355047	2475.987917
671.695008	2475.536734
672.034918	2477.777527
672.374777	2477.573360
672.714585	2476.159317
673.054342	2477.522949
673.394049	2476.522280
673.733705	2475.609831
674.073310	2476.703761
674.412864	2477.719554
674.752368	2476.451703
675.091820	2475.539255
675.431223	2476.242496
675.770574	2475.627475
676.109875	2474.455407
676.449125	2472.827114
676.788324	2472.312916
677.127473	2472.875005
677.466571	2474.939357
677.805619	2475.995479
678.144616	2473.762248
678.483562	2479.390696
678.822458	2473.847947
679.161303	2477.013792
679.500098	2476.660911
679.838842	2473.545478
680.177535	2474.951960
680.516179	2477.462455
680.854771	2475.506487
681.193314	2477.888432
681.531805	2474.039511
681.870247	2474.735191
682.208638	2477.717033
682.546978	2478.296766
682.885268	2474.969604
683.223508	2478.425315
683.561697	2477.565798
683.899836	2477.013792
684.237925	2476.988586
684.575963	2474.856178
684.913951	2476.870119
685.251889	2477.654019
685.589776	2475.710654
685.927614	2475.493884
686.265401	2475.564460
686.603137	2475.771148
686.940824	2474.825931
687.278460	2475.100674
687.616046	2476.552527
687.953582	2476.552527
688.291068	2476.537403
688.628504	2475.682927
688.965889	2477.490181
689.303224	2477.263329
689.640510	2475.367855
689.977745	2475.224183
690.314930	2475.335088
690.652065	2476.681076
690.989150	2476.860037
691.326185	2474.644450
691.663170	2477.379276
692.000105	2477.830459
692.336990	2475.960191
692.673825	2477.948926
693.010610	2474.740232
693.347345	2471.274438
693.684030	2472.633029
694.020665	2474.833493
694.357251	2470.601444
694.693786	2474.878863
695.030272	2475.115798
695.366707	2476.101343
695.703093	2477.580922
696.039429	2477.139821
696.375716	2476.436580
696.711952	2476.562609
697.048139	2476.832311
697.384276	2477.351549
697.720363	2477.013792
698.056400	2475.269553
698.392388	2475.945068
698.728326	2474.808287
699.064214	2473.338791
699.400053	2478.319451
699.735842	2478.634523
700.071581	2475.146045
700.407270	2477.207877
700.742910	2477.598566
701.078501	2475.899697
701.414042	2473.429532
701.749533	2475.662763
702.084974	2473.283338
702.420366	2476.512197
702.755709	2475.539255
703.091002	2477.565798
703.426246	2473.837865
703.761440	2475.445993
704.096584	2476.592856
704.431679	2476.033288
704.766725	2476.368524
705.101721	2475.183853
705.436668	2474.475571
705.771565	2475.408185
706.106413	2477.603607
706.441212	2476.789461
706.775961	2476.653350
707.110661	2475.388020
707.445311	2476.459265
707.779913	2473.021198
708.114465	2472.285190
708.448967	2475.284676
708.783421	2474.170581
709.117825	2477.454893
709.452180	2475.811477
709.786485	2474.145376
710.120742	2471.402988
710.454949	2471.191259
710.789107	2473.308544
711.123216	2468.821917
711.457275	2475.372897
711.791286	2476.807105
712.125247	2476.860037
712.459159	2474.432721
712.793023	2475.120839
713.126837	2474.891466
713.460602	2477.056642
713.794318	2477.898515
714.127985	2476.986066
714.461602	2475.859368
714.795171	2471.634881
715.128691	2481.051756
715.462162	2478.616879
715.795584	2474.914152
716.128957	2476.456745
716.462281	2474.367186
716.795556	2475.244347
717.128782	2474.667135
717.461960	2475.955150
717.795088	2477.079327
718.128167	2476.386168
718.461198	2474.934316
718.794180	2478.042188
719.127113	2474.026908
719.459997	2476.978504
719.792833	2475.456076
720.125619	2475.945067
720.458357	2476.882722
720.791046	2476.277784
721.123686	2472.907772
721.456278	2474.745273
721.788821	2475.294759
722.121315	2477.326344
722.453761	2476.600417
722.786158	2474.087402
723.118506	2475.123359
723.450805	2479.075624
723.783056	2475.302320
724.115259	2475.355253
724.447412	2474.551188
724.779518	2477.026395
725.111574	2475.246868
725.443582	2477.570840
725.775542	2475.360294
726.107453	2475.272073
726.439315	2473.361476
726.771129	2475.728298
727.102895	2471.037504
727.434612	2475.793833
727.766281	2469.691516
728.097901	2475.065386
728.429473	2475.703092
728.760996	2473.437093
729.092471	2476.179481
729.423897	2474.926754
729.755276	2475.629995
730.086606	2474.185705
730.417887	2476.098823
730.749120	2476.300469
731.080305	2473.658904
731.411442	2474.495736
731.742530	2474.432721
732.073570	2472.993472
732.404562	2475.793833
732.735506	2474.399954
733.066401	2472.663276
733.397249	2473.043883
733.728048	2473.316106
734.058798	2472.837196
734.389501	2473.986579
734.720156	2474.417598
735.050762	2473.132104
735.381320	2472.958184
735.711831	2476.360963
736.042293	2474.536065
736.372707	2474.883905
736.703073	2474.944398
737.033391	2476.507156
737.363661	2477.260809
737.693883	2474.982207
738.024056	2474.873822
738.354182	2476.035808
738.684260	2473.573205
739.014290	2475.813997
739.344272	2473.916003
739.674207	2475.017495
740.004093	2471.846609
740.333931	2475.193936
740.663722	2477.361632
740.993464	2475.413226
741.323159	2476.489512
741.652806	2474.379789
741.982405	2474.210911
742.311956	2476.318113
742.641460	2474.359625
742.970915	2476.570171
743.300323	2472.617906
743.629683	2469.288224
743.958996	2472.343163
744.288260	2469.701598
744.617477	2475.072948
744.946647	2474.931796
745.275768	2475.761065
745.604842	2474.011785
745.933869	2473.142186
746.262847	2475.325006
746.591778	2477.079327
746.920662	2476.398771
747.249498	2472.665797
747.578286	2476.912969
747.907027	2475.020016
748.235720	2474.281487
748.564365	2474.465489
748.892963	2474.397433
749.221514	2474.926754
749.550017	2474.727629
749.878473	2476.174440
750.206881	2476.275263
750.535242	2472.645632
750.863555	2476.542444
751.191821	2472.199490
751.520039	2476.570171
751.848210	2474.639409
752.176334	2474.457927
752.504411	2473.507670
752.832440	2473.353914
753.160421	2475.806436
753.488356	2475.637557
753.816243	2474.649491
754.144082	2472.559933
754.471875	2473.399285
754.799620	2474.107567
755.127318	2475.834162
755.454969	2474.377269
755.782572	2474.588997
756.110129	2474.110087
756.437638	2476.366004
756.765100	2474.626806
757.092515	2475.239306
757.419882	2473.636219
757.747203	2475.100674
758.074477	2472.897690
758.401703	2474.160499
758.728882	2475.592187
759.056014	2473.726960
759.383099	2473.830303
759.710138	2471.276959
760.037129	2470.094808
760.364073	2473.293421
760.690970	2466.815538
761.017820	2472.983390
761.344623	2474.601600
761.671379	2474.515900
761.998088	2475.037660
762.324751	2472.839717
762.651366	2476.456745
762.977935	2475.027578
763.304456	2474.662094
763.630931	2475.728298
763.957359	2475.743421
764.283740	2472.645632
764.610074	2473.177474
764.936362	2473.447176
765.262602	2474.735191
765.588796	2473.613534
765.914943	2472.194449
766.241044	2475.758545
766.567097	2475.501446
766.893104	2472.509521
767.219064	2473.641260
767.544978	2474.150417
767.870845	2475.075468
768.196665	2472.801908
768.522438	2471.362659
768.848165	2471.418111
769.173846	2474.846096
769.499479	2473.812659
769.825066	2474.525983
770.150607	2473.568163
770.476101	2474.457927
770.801548	2474.155458
771.126949	2471.188739
771.452303	2475.912300
771.777611	2474.152937
772.102872	2473.666466
772.428087	2471.004737
772.753256	2474.926754
773.078378	2476.066055
773.403453	2474.979687
773.728482	2474.150417
774.053465	2472.824593
774.378401	2470.840899
774.703291	2473.674028
775.028135	2470.049438
775.352932	2475.980356
775.677683	2473.245530
776.002388	2473.797536
776.327046	2468.040538
776.651658	2472.504480
776.976224	2464.935188
777.300743	2473.399285
777.625216	2473.996662
777.949643	2472.108749
778.274024	2475.745942
778.598359	2471.186218
778.922647	2475.572022
779.246889	2472.018009
779.571086	2471.992803
779.895236	2472.890128
780.219339	2472.670838
780.543397	2473.237968
780.867409	2473.104377
781.191374	2473.200159
781.515294	2473.265694
781.839167	2473.414408
782.162995	2472.678400
782.486776	2473.792495
782.810511	2473.588328
783.134201	2472.315437
783.457844	2472.126393
783.781441	2475.463637
784.104993	2474.989769
784.428498	2472.983390
784.751958	2475.882053
785.075372	2474.294090
785.398739	2472.799388
785.722061	2473.328709
786.045337	2474.107567
786.368568	2476.529841
786.691752	2472.761579
787.014891	2474.294090
787.337983	2473.701754
787.661030	2472.358287
787.984031	2473.469861
788.306987	2473.653863
788.629897	2472.799388
788.952760	2474.281487
789.275579	2475.390541
789.598351	2472.819552
789.921078	2472.184367
790.243759	2473.966415
790.566395	2473.036322
790.888984	2472.116311
791.211529	2472.915334
791.534027	2474.344501
791.856480	2471.128245
792.178888	2470.624130
792.501249	2467.430559
792.823566	2468.741259
793.145836	2467.745631
793.468062	2473.956332
793.790241	2471.564305
794.112375	2472.277628
794.434464	2469.535240
794.756507	2473.416929
795.078505	2473.742083
795.400457	2471.791157
795.722364	2468.327884
796.044226	2475.221662
796.366042	2472.875005
796.687812	2474.314254
797.009538	2473.406847
797.331218	2472.254943
797.652852	2473.800057
797.974442	2473.575725
798.295986	2470.399798
798.617484	2468.927781
798.938938	2472.217134
799.260346	2473.984059
799.581709	2475.037660
799.903026	2473.212762
800.224299	2475.060345
800.545526	2471.841568
800.866708	2474.344501
801.187845	2475.584625
801.508936	2473.517752
801.829983	2473.041363
802.150984	2472.537247
802.471940	2477.054121
802.792851	2473.938688
803.113717	2475.904738
803.434538	2474.359625
803.755314	2471.050107
804.076045	2472.605303
804.396731	2475.423308
804.717372	2471.521455
805.037967	2475.143524
805.358518	2471.586990
805.679024	2474.089923
805.999485	2472.854840
806.319901	2473.119501
806.640272	2471.521455
806.960598	2475.047742
807.280879	2472.189408
807.601115	2474.949440
807.921306	2473.767289
808.241453	2469.499952
808.561554	2467.909468
808.881611	2469.653708
809.201623	2468.484160
809.521590	2472.219655
809.841513	2475.811477
810.161390	2473.608493
810.481223	2473.515231
810.801011	2471.133286
811.120755	2473.621096
811.440453	2472.393575
811.760107	2472.133955
812.079716	2472.386013
812.399281	2473.255612
812.718801	2474.649491
813.038276	2474.314254
813.357707	2470.568677
813.677093	2471.811321
813.996434	2473.290900
814.315731	2472.486836
814.634983	2470.235961
814.954191	2471.269397
815.273354	2472.335601
815.592473	2472.774182
815.911547	2474.299131
816.230577	2473.454738
816.549562	2474.636888
816.868502	2470.888790
817.187399	2471.413070
817.506250	2474.561271
817.825058	2471.834007
818.143821	2473.353914
818.462539	2472.935499
818.781213	2474.145376
819.099843	2474.389872
819.418429	2473.079172
819.736970	2473.351394
820.055466	2472.839717
820.373919	2472.761579
820.692327	2471.592031
821.010691	2471.894500
821.329011	2473.348873
821.647286	2474.886425
821.965517	2475.120839
822.283704	2470.467854
822.601847	2473.646301
822.919945	2474.430201
823.237999	2474.107567
823.556010	2472.375931
823.873976	2473.530355
824.191897	2470.820735
824.509775	2466.107256
824.827609	2471.619758
825.145398	2466.606330
825.463144	2472.698564
825.780845	2471.675210
826.098502	2470.364510
826.416116	2470.707309
826.733685	2475.410705
827.051210	2470.581280
827.368692	2474.364666
827.686129	2474.087402
828.003522	2472.764099
828.320872	2473.006075
828.638177	2473.434573
828.955439	2472.796867
829.272656	2470.989613
829.589830	2472.907772
829.906960	2472.322998
830.224046	2474.314254
830.541088	2474.203349
830.858086	2470.480457
831.175041	2473.069089
831.491952	2470.586321
831.808819	2473.119501
832.125642	2470.281331
832.442421	2473.797536
832.759157	2471.506332
833.075849	2470.712350
833.392497	2472.373410
833.709101	2474.455407
834.025662	2470.089767
834.342179	2473.232927
834.658653	2471.740745
834.975083	2470.654377
835.291469	2473.217803
835.607811	2471.392906
835.924110	2473.777371
836.240366	2470.588842
836.556578	2472.491877
836.872746	2473.573205
837.188871	2472.355766
837.504952	2471.410550
837.820990	2472.799387
838.136984	2472.499439
838.452935	2471.503811
838.768842	2472.663276
839.084706	2471.834007
839.400526	2470.850982
839.716303	2471.677731
840.032037	2470.561115
840.347727	2468.847123
840.663373	2471.420632
840.978977	2468.413584
841.294537	2470.737556
841.610054	2472.769141
841.925527	2471.803760
842.240957	2472.141517
842.556344	2470.573718
842.871687	2471.740745
843.186987	2471.130766
843.502244	2470.800570
843.817458	2473.333750
844.132629	2471.690334
844.447756	2470.722432
844.762840	2471.171095
845.077881	2471.523976
845.392879	2472.375931
845.707833	2471.249233
846.022745	2469.504993
846.337613	2472.869964
846.652438	2470.349387
846.967221	2471.276959
847.281960	2469.643625
847.596656	2471.738225
847.911309	2470.195632
848.225919	2472.751497
848.540485	2471.413070
848.855009	2469.623461
849.169490	2470.309058
849.483928	2468.055662
849.798323	2468.151444
850.112675	2474.014306
850.426984	2471.788636
850.741251	2471.168574
851.055474	2472.645632
851.369654	2471.029942
851.683792	2471.914665
851.997887	2471.763430
852.311938	2472.433904
852.625947	2472.436424
852.939914	2470.409881
853.253837	2471.697895
853.567718	2469.452061
853.881555	2471.418111
854.195350	2468.864767
854.509103	2468.826958
854.822812	2471.155971
855.136479	2473.278297
855.450103	2469.966259
855.763685	2467.017184
856.077224	2468.368213
856.390720	2468.753862
856.704173	2466.021556
857.017584	2472.202011
857.330953	2467.027266
857.644278	2473.091774
857.957561	2473.308544
858.270802	2472.537247
858.584000	2472.438945
858.897155	2471.813842
859.210268	2470.359469
859.523339	2471.675210
859.836367	2472.108749
860.149352	2473.270735
860.462295	2470.180508
860.775195	2472.948102
861.088054	2469.404170
861.400869	2468.895014
861.713642	2474.122690
862.026373	2472.542289
862.339062	2471.823924
862.651708	2470.543471
862.964312	2471.007257
863.276873	2472.527165
863.589392	2470.188070
863.901869	2471.357618
864.214303	2470.304016
864.526696	2470.167905
864.839045	2471.271918
865.151353	2470.049438
865.463619	2470.974490
865.775842	2471.564305
866.088023	2471.536578
866.400162	2470.500621
866.712258	2471.735704
867.024313	2471.675210
867.336325	2468.640436
867.648296	2471.826445
867.960224	2472.927937
868.272110	2471.652525
868.583954	2470.316619
868.895755	2469.124386
869.207515	2470.724953
869.519233	2473.048925
869.830909	2469.467185
870.142542	2471.145889
870.454134	2468.952987
870.765684	2472.935499
871.077191	2472.877525
871.388657	2469.837710
871.700081	2466.132462
872.011463	2468.388378
872.322803	2467.518779
872.634101	2471.884418
872.945357	2469.434417
873.256571	2471.435755
873.567744	2469.489870
873.878874	2471.897021
874.189963	2469.172277
874.501010	2473.008595
874.812015	2469.547843
875.122979	2470.853502
875.433900	2471.004737
875.744780	2472.491877
876.055618	2470.276290
876.366415	2472.781743
876.677169	2472.968266
876.987882	2471.004737
877.298554	2468.842082
877.609183	2469.439458
877.919771	2471.534058
878.230317	2468.776547
878.540822	2471.745786
878.851285	2470.520786
879.161707	2471.067751
879.472087	2471.617237
879.782425	2469.507514
880.092722	2469.827627
880.402977	2469.333594
880.713191	2468.791670
881.023363	2471.778554
881.333494	2469.560446
881.643583	2469.913327
881.953631	2470.384675
882.263637	2471.428194
882.573602	2472.050776
882.883526	2469.815024
883.193408	2470.208234
883.503248	2469.008440
883.813048	2472.350725
884.122806	2471.801239
884.432522	2469.736887
884.742197	2472.620427
885.051831	2469.948615
885.361424	2471.458441
885.670975	2471.949953
885.980485	2471.544140
886.289954	2469.421814
886.599382	2471.481126
886.908768	2467.231433
887.218113	2467.080198
887.527417	2468.169088
887.836680	2465.638428
888.145901	2470.805611
888.455082	2468.222020
888.764221	2470.934161
889.073319	2469.366362
889.382376	2471.884418
889.691392	2469.348718
890.000366	2470.125055
890.309300	2469.477267
890.618193	2472.111270
890.927044	2468.038018
891.235855	2472.098667
891.544625	2472.093626
891.853353	2470.732514
892.162041	2467.158336
892.470687	2470.024232
892.779293	2470.354428
893.087858	2470.301496
893.396381	2469.948615
893.704864	2471.266877
894.013306	2468.448872
894.321707	2470.886270
894.630068	2470.210755
894.938387	2468.794191
895.246665	2471.332412
895.554903	2471.725622
895.863100	2473.162351
896.171256	2471.554223
896.479371	2469.870477
896.787446	2470.354428
897.095480	2468.993316
897.403473	2471.380303
897.711425	2468.320322
898.019336	2468.416104
898.327207	2470.414922
898.635038	2471.161013
898.942827	2467.846454
899.250576	2471.181177
899.558284	2469.721763
899.865952	2469.840230
900.173579	2469.318471
900.481165	2468.940384
900.788711	2470.450210
901.096216	2471.234109
901.403681	2468.232102
901.711105	2471.493729
902.018489	2468.559777
902.325832	2466.608851
902.633135	2463.518623
902.940397	2470.578759
903.247619	2464.342852
903.554800	2470.825776
903.861941	2469.061372
904.169041	2467.929633
904.476101	2467.864098
904.783121	2470.485498
905.090100	2467.758234
905.397039	2468.529530
905.703938	2471.032463
906.010796	2469.192442
906.317614	2467.707822
906.624391	2473.212762
906.931129	2469.341156
907.237826	2470.387195
907.544483	2469.999027
907.851099	2468.295117
908.157675	2468.806794
908.464211	2471.339973
908.770707	2469.678913
909.077163	2469.358800
909.383578	2471.516414
909.689954	2472.068420
909.996289	2471.589511
910.302584	2468.786629
910.608839	2471.571867
910.915054	2468.544654
911.221229	2469.255456
911.527363	2468.378296
911.833458	2468.355610
912.139513	2471.289562
912.445527	2470.631691
912.751502	2469.799901
913.057436	2469.252936
913.363331	2471.095477
913.669186	2469.381485
913.975000	2471.186218
914.280775	2470.828296
914.586510	2470.223358
914.892205	2470.122535
915.197859	2468.108594
915.503475	2468.398460
915.809050	2472.401136
916.114585	2470.951805
916.420081	2468.920220
916.725536	2467.475929
917.030952	2469.905765
917.336328	2466.709674
917.641665	2465.567852
917.946961	2466.636577
918.252218	2468.806794
918.557435	2464.516772
918.862612	2471.559264
919.167750	2468.169088
919.472848	2468.685806
919.777906	2468.461475
920.082925	2468.416104
920.387904	2471.082875
920.692843	2467.450723
920.997743	2470.114973
921.302603	2471.652525
921.607423	2466.807976
921.912204	2470.692185
922.216946	2470.931640
922.521647	2469.762092
922.826310	2469.918368
923.130932	2467.370065
923.435516	2471.057669
923.740059	2472.305354
924.044564	2469.386526
924.349028	2470.848461
924.653454	2469.835189
924.957840	2467.175980
925.262186	2468.106073
925.566493	2469.386526
925.870761	2465.530044
926.174989	2470.044397
926.479178	2467.425518
926.783328	2469.469705
927.087438	2469.956177
927.391509	2471.271918
927.695541	2466.636577
927.999533	2469.520117
928.303486	2467.233954
928.607400	2471.085395
928.911275	2469.449541
929.215110	2468.557257
929.518906	2468.252267
929.822663	2471.776033
930.126381	2467.644808
930.430060	2468.821917
930.733699	2470.049438
931.037299	2468.791670
931.340861	2470.709829
931.644383	2469.164716
931.947866	2468.567339
932.251309	2468.214458
932.554714	2471.292083
932.858080	2467.606999
933.161407	2465.139354
933.464694	2468.055662
933.767943	2464.547019
934.071153	2470.230920
934.374323	2468.708491
934.677455	2470.515745
934.980548	2470.094808
935.283602	2467.919551
935.586617	2469.888121
935.889593	2469.053810
936.192530	2469.757051
936.495428	2471.791157
936.798287	2467.634725
937.101108	2468.970631
937.403890	2468.937864
937.706632	2467.007102
938.009336	2467.813686
938.312002	2469.326033
938.614628	2467.838892
938.917216	2469.560446
939.219765	2468.809314
939.522275	2471.095478
939.824747	2467.206227
940.127179	2469.313430
940.429573	2469.484829
940.731929	2469.061372
941.034246	2468.504324
941.336524	2468.637915
941.638763	2467.029787
941.940964	2468.786629
942.243126	2468.337966
942.545250	2469.487349
942.847335	2469.300827
943.149381	2470.414922
943.451389	2467.208748
943.753359	2468.416104
944.055290	2467.841413
944.357182	2469.492391
944.659036	2467.233954
944.960851	2470.064562
945.262628	2470.780405
945.564367	2469.421814
945.866067	2468.826958
946.167729	2472.045735
946.469352	2466.939046
946.770937	2466.253449
947.072484	2472.007926
947.373992	2469.288224
947.675462	2468.025415
947.976893	2466.344190
948.278286	2464.746144
948.579641	2466.631536
948.880958	2463.548870
949.182236	2468.020374
949.483476	2468.516927
949.784678	2469.656228
950.085841	2466.802935
950.386967	2466.881073
950.688054	2470.319140
950.989103	2470.609006
951.290114	2466.709674
951.591087	2469.752010
951.892021	2468.403501
952.192917	2469.555405
952.493776	2470.304016
952.794596	2468.647997
953.095378	2467.566670
953.396122	2467.990127
953.696828	2468.549695
953.997496	2467.952318
954.298126	2469.537761
954.598718	2467.501135
954.899272	2467.392750
955.199788	2470.697226
955.500266	2467.002061
955.800706	2468.711012
956.101108	2468.048100
956.401472	2467.985086
956.701798	2468.862246
957.002087	2468.191773
957.302337	2467.284365
957.602550	2470.629171
957.902724	2466.308902
958.202861	2470.661938
958.502960	2464.985599
958.803022	2467.188583
959.103045	2464.531895
959.403031	2469.043728
959.702979	2467.612040
960.002889	2469.192442
960.302762	2467.571711
960.602596	2469.951136
960.902393	2466.203038
961.202153	2469.525158
961.501875	2467.191104
961.801559	2470.573718
962.101205	2465.930815
962.400814	2471.070272
962.700385	2467.188583
962.999918	2466.167750
963.299414	2465.915692
963.598873	2465.560291
963.898293	2465.547688
964.197677	2466.966773
964.497022	2469.638584
964.796331	2467.433079
965.095601	2469.573049
965.394835	2467.395271
965.694030	2468.143882
965.993189	2467.670013
966.292309	2467.629684
966.591393	2470.616568
966.890439	2467.937195
967.189447	2469.414253
967.488419	2468.209417
967.787353	2466.629015
968.086249	2467.365024
968.385108	2469.520117
968.683930	2466.626495
968.982714	2467.425517
969.281462	2468.494242
969.580172	2468.854685
969.878844	2468.574901
970.177480	2466.399643
970.476078	2466.676906
970.774639	2466.185394
971.073162	2469.182360
971.371649	2467.574232
971.670098	2467.922071
971.968510	2466.475260
972.266885	2469.363841
972.565223	2466.185394
972.863524	2468.227061
973.161788	2469.391568
973.460014	2466.349231
973.758204	2468.516927
974.056356	2468.463995
974.354471	2466.261011
974.652550	2466.971814
974.950591	2466.621453
975.248595	2470.011629
975.546563	2470.699747
975.844493	2470.490539
976.142386	2470.019191
976.440243	2468.889973
976.738062	2469.699078
977.035845	2469.147072
977.333590	2469.136989
977.631299	2468.627833
977.928971	2463.506020
978.226606	2463.528706
978.524204	2462.593572
978.821765	2463.939560
979.119290	2469.109263
979.416777	2466.588686
979.714228	2466.533233
980.011642	2467.990127
980.309020	2470.172946
980.606360	2465.663634
980.903664	2468.705971
981.200931	2468.418625
981.498162	2469.890642
981.795356	2466.863429
982.092513	2466.956690
982.389633	2467.854016
982.686717	2467.511217
982.983764	2467.206227
983.280775	2469.222689
983.577749	2463.838737
983.874686	2466.434931
984.171587	2468.998357
984.468451	2468.179170
984.765279	2467.637246
985.062070	2466.329067
985.358824	2467.725466
985.655543	2466.792853
985.952224	2465.857719
986.248869	2468.806794
986.545478	2468.794191
986.842050	2471.491208
987.138586	2470.576239
987.435086	2470.498101
987.731549	2467.211268
988.027975	2469.063893
988.324366	2468.146402
988.620719	2466.858388
988.917037	2464.458798
989.213318	2468.761423
989.509563	2464.925105
989.805772	2465.015846
990.101944	2469.578090
990.398080	2468.345528
990.694180	2466.407204
990.990244	2466.288737
991.286271	2466.598768
991.582262	2468.070785
991.878217	2466.329067
992.174136	2467.254118
992.470019	2468.171608
992.765865	2463.301854
993.061676	2464.368058
993.357450	2464.743624
993.653188	2461.862604
993.948890	2466.480301
994.244556	2467.483491
994.540186	2466.465178
994.835780	2467.743110
995.131337	2464.428552
995.426859	2469.119345
995.722345	2467.428038
996.017795	2466.785291
996.313208	2467.985086
996.608586	2465.764457
996.903928	2465.893007
997.199234	2467.140692
997.494504	2468.232102
997.789738	2466.442493
998.084936	2467.533902
998.380099	2466.722277
998.675225	2467.231433
998.970316	2467.599437
999.265371	2466.059365
999.560390	2465.832513
999.855373	2468.421145
1000.150320	2466.205558
1000.445232	2468.597586
1000.740108	2465.802266
1001.034948	2463.052317
1001.329752	2467.143213
1001.624521	2467.412915
1001.919254	2468.277473
1002.213951	2468.363172
1002.508613	2467.838892
1002.803239	2467.513738
1003.097829	2465.991309
1003.392384	2467.029787
1003.686903	2465.908130
1003.981386	2467.501135
1004.275834	2467.987606
1004.570246	2465.396453
1004.864623	2469.038687
1005.158964	2468.751341
1005.453270	2468.365693
1005.747540	2467.233954
1006.041775	2464.738583
1006.335974	2466.167750
1006.630138	2466.681947
1006.924266	2469.028604
1007.218359	2467.052472
1007.512416	2464.526854
1007.806438	2462.117182
1008.100425	2464.849488
1008.394376	2462.379322
1008.688292	2466.354272
1008.982172	2463.770681
1009.276017	2467.143213
1009.569827	2467.657411
1009.863602	2465.882924
1010.157341	2466.654221
1010.451045	2463.513582
1010.744714	2465.739252
1011.038347	2467.622122
1011.331945	2467.317133
1011.625508	2466.543316
1011.919036	2467.004581
1012.212528	2469.283183
1012.505986	2466.525672
1012.799408	2468.355610
1013.092795	2466.089612
1013.386147	2467.463326
1013.679464	2463.518623
1013.972745	2467.622123
1014.265992	2466.646659
1014.559204	2467.221351
1014.852380	2465.905610
1015.145521	2467.859057
1015.438628	2466.041721
1015.731699	2467.110445
1016.024736	2465.146916
1016.317737	2466.676906
1016.610703	2465.628346
1016.903635	2468.718573
1017.196531	2464.224385
1017.489393	2464.922585
1017.782219	2467.753193
1018.075011	2467.793522
1018.367768	2466.094653
1018.660490	2468.658080
1018.953177	2468.658080
1019.245829	2468.658080
