Dividing Wavelength (nm)	Counts (n)	Blue Motor Position (mm): 0.000000	Red Motor Position (mm): 33.500000	
326.493990	2053.672816
326.888308	2053.672816
327.282561	2053.672816
327.676750	2028.449402
328.070874	2030.223888
328.464933	2033.810669
328.858929	2043.300642
329.252859	2053.841694
329.646726	2067.906513
330.040528	2085.482496
330.434265	2100.023705
330.827938	2121.720831
331.221547	2143.334778
331.615091	2159.847077
332.008571	2183.467404
332.401986	2201.459282
332.795338	2219.413351
333.188625	2239.278018
333.581847	2260.889444
333.975006	2277.000972
334.368100	2293.533436
334.761129	2313.009934
335.154095	2327.954435
335.546996	2346.415140
335.939833	2380.667260
336.332606	2395.518499
336.725315	2406.490570
337.117960	2418.697724
337.510540	2427.164342
337.903056	2434.186670
338.295508	2441.196394
338.687896	2450.572940
339.080220	2456.700463
339.472480	2457.910340
339.864676	2463.727831
340.256807	2467.876701
340.648875	2470.616568
341.040879	2470.316619
341.432818	2471.672690
341.824694	2475.297279
342.216506	2474.762917
342.608253	2471.740745
342.999937	2468.519448
343.391557	2473.164871
343.783113	2468.035497
344.174605	2468.693368
344.566033	2467.201186
344.957397	2467.052472
345.348697	2463.032152
345.739934	2463.556432
346.131106	2460.393108
346.522215	2454.699125
346.913260	2457.643158
347.304241	2454.762139
347.695159	2451.997066
348.086012	2452.584361
348.476802	2450.976233
348.867528	2448.795933
349.258191	2445.289811
349.648789	2446.875254
350.039324	2443.028853
350.429796	2445.975408
350.820203	2444.994903
351.210548	2443.716971
351.600828	2442.986004
351.991045	2444.652105
352.381198	2443.956426
352.771288	2442.819646
353.161314	2442.721343
353.551276	2445.483895
353.941175	2442.368462
354.331010	2442.736467
354.720782	2441.234203
355.110490	2443.674121
355.500135	2442.686055
355.889717	2444.914245
356.279235	2441.682865
356.668689	2444.115222
357.058080	2445.962805
357.447408	2445.655295
357.836672	2443.880808
358.225873	2447.149997
358.615010	2447.031530
359.004084	2448.009513
359.393095	2449.708382
359.782043	2445.002465
360.170927	2447.999431
360.559748	2449.668053
360.948505	2450.683846
361.337199	2451.195523
361.725830	2452.894392
362.114398	2451.891202
362.502903	2452.569237
362.891344	2454.038733
363.279722	2453.080914
363.668037	2455.404886
364.056289	2452.657457
364.444478	2453.090997
364.832603	2456.947479
365.220665	2456.375308
365.608665	2459.931842
365.996601	2457.466718
366.384474	2456.803806
366.772284	2457.771708
367.160031	2459.110134
367.547715	2458.878241
367.935336	2459.193313
368.322893	2461.562656
368.710388	2457.633076
369.097820	2462.235650
369.485189	2457.864969
369.872495	2464.670527
370.259738	2461.595423
370.646918	2462.747327
371.034035	2464.330249
371.421090	2465.799745
371.808081	2465.935857
372.195010	2465.943418
372.581875	2467.861577
372.968678	2472.474233
373.355418	2471.002216
373.742096	2474.281487
374.128710	2475.009933
374.515262	2478.750470
374.901751	2480.000676
375.288177	2482.559061
375.674540	2487.486789
376.060841	2491.865031
376.447079	2495.855105
376.833254	2500.964314
377.219367	2506.733915
377.605417	2510.991169
377.991404	2517.927797
378.377329	2522.376615
378.763191	2529.499765
379.148991	2540.345808
379.534727	2547.640357
379.920402	2556.152346
380.306013	2562.632749
380.691563	2575.555747
381.077049	2590.699373
381.462474	2595.927050
381.847835	2611.542024
382.233134	2627.517440
382.618371	2637.546816
383.003545	2656.395690
383.388657	2669.560663
383.773706	2688.676719
384.158693	2701.579552
384.543618	2718.112016
384.928480	2732.912844
385.313280	2755.008221
385.698017	2773.272321
386.082692	2797.177473
386.467305	2810.912097
386.851856	2835.442351
387.236344	2862.687267
387.620770	2879.219731
388.005133	2898.333266
388.389435	2932.998760
388.773674	2948.449897
389.157851	2982.298724
389.541965	3007.900224
389.926018	3022.234745
390.310008	3053.454611
390.693936	3080.177768
391.077802	3105.728856
391.461606	3135.751447
391.845348	3154.607883
392.229027	3182.674507
392.612645	3225.274778
392.996200	3253.091865
393.379694	3290.769449
393.763125	3330.995336
394.146494	3358.835108
394.529801	3394.939852
394.913047	3439.712860
395.296230	3449.250723
395.679351	3468.903661
396.062410	3524.568082
396.445408	3498.800224
396.828343	3541.287069
397.211217	3571.375195
397.594028	3545.221689
397.976778	3596.162549
398.359466	3632.058085
398.742092	3637.187459
399.124656	3653.639264
399.507158	3711.330229
399.889598	3719.534707
400.271977	3783.474182
400.654294	3773.089405
401.036549	3835.251873
401.418742	3830.621573
401.800874	3899.808889
402.182944	3928.800565
402.564952	4014.976569
402.946898	4006.199920
403.328783	4003.054240
403.710606	4049.959656
404.092367	4123.129484
404.474067	4187.628527
404.855705	4173.364582
405.237282	4143.089933
405.618797	4243.784460
406.000250	4313.959842
406.381642	4403.495776
406.762972	4400.113161
407.144240	4368.174931
407.525447	4433.641876
407.906593	4451.399340
408.287677	4534.265827
408.668700	4560.918407
409.049661	4600.970375
409.430560	4634.582268
409.811399	4622.105412
410.192176	4666.263399
410.572891	4751.393364
410.953545	4858.497719
411.334138	4753.926544
411.714669	4861.938306
412.095139	4777.735914
412.475547	4889.939395
412.855894	4896.404675
413.236180	4989.242564
413.616405	4919.800670
413.996568	5027.232700
414.376670	5024.712123
414.756711	5021.281618
415.136691	5094.557309
415.516609	5179.097459
415.896466	5210.324887
416.276262	5287.850271
416.655997	5400.830091
417.035670	5498.419267
417.415283	5642.155167
417.794834	5710.203182
418.174324	5670.710782
418.553753	5672.608777
418.933121	5841.540363
419.312428	5854.153330
419.691674	5775.471001
420.070859	6005.176217
420.449983	5877.045209
420.829045	6076.115334
421.208047	6003.898284
421.586988	6161.192367
421.965867	6235.788841
422.344686	6311.181817
422.723444	6482.490307
423.102141	6101.154745
423.480777	6487.279403
423.859352	6306.932124
424.237866	6670.893350
424.616319	6665.292628
424.994712	6831.496949
425.373044	6743.987560
425.751314	7060.214099
426.129524	6777.274299
426.507673	7045.577109
426.885762	7092.555622
427.263789	7130.591128
427.641756	7213.029117
428.019662	7294.274872
428.397508	7343.388314
428.775292	7312.995197
429.153016	7492.051941
429.530679	7423.429234
429.908282	7474.551575
430.285824	7414.483707
430.663305	7699.656738
431.040726	7578.517812
431.418086	7588.141374
431.795385	7713.852628
432.172624	7904.473778
432.549802	7791.720811
432.926920	7929.004033
433.303977	7869.591514
433.680974	7910.394613
434.057910	8111.955067
434.434786	8165.721494
434.811601	8124.421841
435.188355	8462.063202
435.565050	8350.855348
435.941683	8358.475052
436.318257	8696.028193
436.694770	8643.567426
437.071222	8872.637457
437.447614	8650.078076
437.823946	8613.232283
438.200218	8772.689020
438.576429	8646.531624
438.952580	8811.475657
439.328670	8820.307759
439.704700	8900.091580
440.080670	8792.074777
440.456580	9064.100480
440.832429	9033.593937
441.208218	8776.936192
441.583947	8885.046257
441.959616	9005.885235
442.335224	9038.388074
442.710773	9127.419893
443.086261	9306.171646
443.461689	9021.870734
443.837057	9191.160242
444.212365	9406.346935
444.587612	9392.269513
444.962800	9290.657495
445.337927	9412.358511
445.712995	8958.397566
446.088002	9634.585175
446.462949	9686.418319
446.837837	9673.462554
447.212664	9694.622797
447.587431	10524.820177
447.962139	11531.336954
448.336786	12479.237714
448.711374	12265.502874
449.085901	11051.346011
449.460369	10972.131840
449.834776	10741.486449
450.209124	11657.484267
450.583412	11483.398101
450.957640	11798.588684
451.331808	11388.258925
451.705917	10820.637605
452.079965	10696.703358
452.453954	10903.373022
452.827883	10848.830258
453.201752	10811.702160
453.575562	10813.383385
453.949311	11162.642085
454.323001	11229.074410
454.696632	11143.841102
455.070202	11733.242727
455.443713	11795.606841
455.817164	11967.384159
456.190556	12274.304728
456.563888	12146.259421
456.937160	12411.338413
457.310373	11902.620455
457.683526	11913.443813
458.056619	11924.148703
458.429653	11996.821977
458.802628	12129.684107
459.175542	12184.920029
459.548398	12729.258781
459.921194	13307.784117
460.293930	13584.251076
460.666607	14447.984732
461.039224	15247.662966
461.411782	15608.743172
461.784280	15277.630105
462.156719	15227.173197
462.529099	15138.695905
462.901419	14494.985930
463.273680	14096.586062
463.645882	14306.252691
464.018024	14191.301781
464.390106	14558.877513
464.762130	15613.315499
465.134094	17128.489740
465.505999	19423.565769
465.877845	21699.006504
466.249631	22966.254279
466.621358	22513.503211
466.993026	21724.353426
467.364634	20971.031121
467.736184	20172.129224
468.107674	19557.884793
468.479105	19407.582791
468.850477	19131.864443
469.221790	18707.663950
469.593043	18038.765849
469.964238	17640.078635
470.335373	17686.547991
470.706449	18416.973375
471.077467	19264.119114
471.448425	21727.844425
471.819324	23603.914870
472.190164	23527.871585
472.560945	21799.741361
472.931667	20200.823472
473.302330	19870.368276
473.672934	19312.806578
474.043479	19736.344160
474.413965	19518.306694
474.784393	19338.236679
475.154761	20005.214100
475.525070	20128.873604
475.895321	19962.732297
476.265513	20495.347844
476.635645	21093.664750
477.005719	21140.797018
477.375734	21502.759426
477.745691	22138.300212
478.115588	22783.330970
478.485427	23967.273677
478.855207	25778.469513
479.224928	27582.736284
479.594591	29024.216417
479.964194	28674.040227
480.333739	29157.060903
480.703226	29361.646050
481.072653	29801.774069
481.442022	30327.052217
481.811333	30742.360115
482.180584	30311.487655
482.549777	30085.502810
482.918912	29857.476298
483.287988	29785.415525
483.657005	29624.186822
484.025964	29276.614388
484.394864	29462.562388
484.763706	29397.957481
485.132489	28848.267545
485.501213	28932.449773
485.869879	29104.771535
486.238487	29022.114256
486.607036	29297.668767
486.975527	28979.720673
487.343959	29326.766307
487.712333	29683.785863
488.080648	29643.428906
488.448905	30087.443654
488.817104	29950.135227
489.185244	30791.551694
489.553326	31734.668400
489.921350	33620.228817
490.289315	36124.104398
490.657222	37049.594709
491.025070	37634.255129
491.392861	37373.307362
491.760593	36603.218180
492.128267	35601.208194
492.495883	34625.525635
492.863440	33734.940273
493.230939	32738.755341
493.598380	32153.971412
493.965763	31983.865237
494.333088	31484.100369
494.700354	31279.288370
495.067563	31239.188512
495.434713	31102.482502
495.801805	31382.795862
496.168839	31222.895503
496.535815	31055.274617
496.902733	31158.943425
497.269593	30958.184514
497.636395	31122.327004
498.003139	31370.785313
498.369825	31113.739398
498.736453	31523.824661
499.103023	31338.048059
499.469535	31417.826840
499.835989	31499.047390
500.202385	31366.049148
500.568723	31379.115819
500.935003	31680.080266
501.301226	31511.234379
501.667390	32215.153376
502.033497	32422.085180
502.399546	32183.066432
502.765537	31756.947779
503.131470	32222.589078
503.497345	32606.629219
503.863163	31531.623326
504.228923	32258.373708
504.594625	32617.876033
504.960269	32075.026943
505.325856	32697.407797
505.691385	32321.373008
506.056856	32609.013685
506.422270	33048.539286
506.787625	32524.420603
507.152924	32924.229473
507.518164	33035.013870
507.883347	32587.369491
508.248472	32666.971831
508.613540	33294.976092
508.978550	33465.130157
509.343503	33248.365583
509.708398	33541.269224
510.073236	34043.060637
510.438016	34067.525357
510.802738	33687.445042
511.167403	34157.192360
511.532010	34316.535672
511.896561	34762.682828
512.261053	35390.122480
512.625488	35114.484790
512.989866	34935.808654
513.354186	34924.524031
513.718449	34807.234025
514.082655	35556.722532
514.446803	35166.806926
514.810894	35677.531263
515.174927	35572.178710
515.538904	35485.276779
515.902822	35983.020145
516.266684	35578.086942
516.630488	35809.851470
516.994235	35717.280762
517.357925	36148.891751
517.721558	36284.791176
518.085133	36514.642586
518.448651	36556.196817
518.812112	36357.237598
519.175516	36377.772738
519.538863	36669.935330
519.902152	36594.466737
520.265385	36970.113357
520.628560	36856.460543
520.991678	36684.423606
521.354739	36742.507781
521.717743	36943.690149
522.080690	36712.429737
522.443580	37195.669703
522.806413	37049.322486
523.169189	37025.036728
523.531908	37065.839827
523.894569	36800.337377
524.257174	36816.388411
524.619722	36967.895249
524.982213	36955.892262
525.344647	36830.962387
525.707025	36772.699251
526.069345	36999.490681
526.431608	36758.505883
526.793815	36914.832063
527.155964	36363.579370
527.518057	36406.537562
527.880093	36121.039376
528.242072	36481.887689
528.603995	36073.602118
528.965860	35848.610381
529.327669	35845.857911
529.689421	35716.990895
530.051117	35513.645872
530.412755	35554.282614
530.774337	35406.675108
531.135862	35180.765881
531.497331	35124.264629
531.858743	34928.705668
532.220098	35059.773148
532.581396	34653.335160
532.942638	34261.894605
533.303824	34280.627533
533.664953	34127.424347
534.026025	33665.977288
534.387040	33925.886578
534.747999	33775.219092
535.108902	33825.360929
535.469748	33096.495782
535.830537	33116.874647
536.191270	33082.907352
536.551947	32687.146528
536.912567	32679.809129
537.273131	32578.111412
537.633638	32103.721191
537.994089	32022.165404
538.354483	31624.735958
538.714821	31888.794117
539.075103	31879.755328
539.435328	31557.348334
539.795497	31173.807267
540.155609	31054.515923
540.515665	31238.946537
540.875665	30541.288653
541.235609	30497.312147
541.595496	30383.878624
541.955328	30551.078574
542.315102	29948.537181
542.674821	29656.825772
543.034483	29372.890344
543.394090	29142.265117
543.753640	28929.896429
544.113134	29392.107222
544.472571	28569.416120
544.831953	29078.204654
545.191278	28374.724238
545.550548	27962.264592
545.909761	28109.630122
546.268918	27974.257497
546.628019	27997.240118
546.987064	27412.925016
547.346053	26780.683666
547.704986	27090.812930
548.063863	26653.465107
548.422684	26542.156430
548.781449	26068.865181
549.140158	26153.783417
549.498811	25772.478102
549.857408	25211.853903
550.215949	25449.161180
550.574434	25137.610310
550.932864	24884.410797
551.291237	25035.040473
551.649555	24658.370499
552.007817	24528.313771
552.366022	24150.809486
552.724173	23951.628456
553.082267	23923.710546
553.440305	23892.210897
553.798288	23281.296147
554.156215	23249.017639
554.514086	23116.624336
554.871902	22681.792049
555.229661	22545.270042
555.587365	22165.330879
555.945014	22008.639215
556.302606	21798.418058
556.660143	21617.606993
557.017625	21506.840240
557.375050	21147.242133
557.732421	21101.836461
558.089735	20909.511400
558.446994	20632.832713
558.804197	20613.958633
559.161345	20330.111424
559.518437	19849.520584
559.875474	19728.888293
560.232455	19602.821638
560.589381	19404.800074
560.946251	19139.620258
561.303065	19178.432102
561.659825	18841.715792
562.016528	18538.873516
562.373177	18169.538421
562.729770	18204.766004
563.086307	17808.211198
563.442789	17808.715314
563.799216	17541.423254
564.155587	17303.775700
564.511904	17083.414263
564.868164	16900.017086
565.224370	16810.987788
565.580520	16521.277718
565.936615	16401.230201
566.292654	16096.384066
566.648638	16011.576735
567.004567	15799.329035
567.360441	15643.827082
567.716260	15378.125507
568.072023	15307.274611
568.427732	15096.723258
568.783385	14784.012924
569.138982	14721.595877
569.494525	14589.237862
569.850013	14303.958966
570.205445	14163.673737
570.560823	13934.293675
570.916145	13731.480494
571.271412	13622.137868
571.626625	13375.186864
571.981782	13217.670971
572.336884	12955.830920
572.691931	12871.628527
573.046923	12622.303140
573.401860	12411.192220
573.756743	12271.136363
574.111570	12149.674802
574.466342	11972.367339
574.821059	11856.055317
575.175722	11596.708116
575.530330	11468.599794
575.884882	11255.043914
576.239380	11089.825138
576.593823	10959.939809
576.948211	10812.924640
577.302544	10586.763355
577.656823	10448.098857
578.011047	10362.573161
578.365216	10204.356547
578.719330	10014.499132
579.073389	9890.854752
579.427394	9777.280076
579.781344	9629.022262
580.135239	9474.866298
580.489080	9361.047126
580.842866	9161.523298
581.196597	9123.074418
581.550273	9006.142334
581.903895	8884.534580
582.257463	8836.015994
582.610975	8646.801326
582.964434	8584.331347
583.317837	8403.023729
583.671186	8294.507851
584.024481	8218.593115
584.377721	8057.369454
584.730906	7974.122360
585.084037	7893.352993
585.437113	7755.782425
585.790135	7665.180287
586.143103	7518.502875
586.496016	7435.001203
586.848874	7357.632094
587.201679	7262.568535
587.554428	7110.658405
587.907124	7052.692698
588.259765	6945.611028
588.612352	6874.432457
588.964884	6734.593370
589.317362	6680.237128
589.669786	6599.341732
590.022155	6502.659963
590.374470	6463.845599
590.726731	6341.607701
591.078937	6199.779879
591.431090	6149.186859
591.783188	6030.593714
592.135232	5942.857473
592.487222	5886.520058
592.839157	5826.918496
593.191038	5727.476695
593.542866	5644.181710
593.894639	5526.627044
594.246358	5485.544161
594.598022	5417.695271
594.949633	5326.442825
595.301190	5260.645685
595.652692	5189.020971
596.004141	5157.004603
596.355535	5033.791241
596.706876	4971.815296
597.058162	4896.686980
597.409395	4868.005335
597.760573	4828.578471
598.111698	4748.620730
598.462768	4691.489333
598.813785	4641.372702
599.164748	4574.448864
599.515657	4539.755643
599.866511	4462.152121
600.217312	4450.807004
600.568060	4358.866441
600.918753	4354.273949
601.269392	4303.965755
601.619978	4251.966253
601.970510	4218.329154
602.320988	4181.690047
602.671412	4155.080317
603.021783	4111.330663
603.372100	4059.341244
603.722363	4021.187271
604.072572	3988.790296
604.422728	3957.010862
604.772830	3910.823810
605.122878	3882.684089
605.472872	3848.646219
605.822813	3825.446829
606.172701	3787.186992
606.522534	3768.537243
606.872314	3747.482864
607.222041	3714.594376
607.571714	3696.408414
607.921333	3655.978360
608.270899	3636.998416
608.620411	3617.811784
608.969870	3594.672888
609.319276	3570.757654
609.668627	3550.111608
610.017926	3537.097870
610.367171	3520.943492
610.716362	3498.863238
611.065500	3480.190805
611.414585	3463.353351
611.763616	3450.624437
612.112594	3431.301695
612.461518	3417.844334
612.810389	3403.963517
613.159207	3390.352402
613.507971	3370.495297
613.856682	3361.111189
614.205340	3346.585104
614.553945	3345.307172
614.902496	3314.654436
615.250994	3312.431287
615.599439	3301.005512
615.947830	3288.271557
616.296169	3278.211935
616.644454	3267.302878
616.992686	3256.761825
617.340864	3257.475148
617.688990	3237.560070
618.037063	3236.897158
618.385082	3227.407186
618.733048	3223.054150
619.080961	3210.519321
619.428821	3203.093701
619.776628	3192.366126
620.124382	3180.733663
620.472083	3173.295441
620.819731	3166.137002
621.167326	3147.648571
621.514868	3140.843013
621.862357	3123.014972
622.209793	3117.341154
622.557176	3101.083432
622.904506	3089.254365
623.251783	3075.270204
623.599007	3069.102353
623.946179	3058.231104
624.293297	3050.883623
624.640363	3035.674461
624.987376	3025.995446
625.334336	3015.991276
625.681243	3003.244719
626.028097	2998.974861
626.374899	2995.899758
626.721647	2989.563027
627.068343	2987.579333
627.414987	2976.526603
627.761577	2966.272896
628.108115	2966.628298
628.454600	2958.678398
628.801032	2951.519960
629.147412	2946.415791
629.493739	2942.632405
629.840014	2933.835592
630.186236	2932.792073
630.532405	2925.416865
630.878521	2920.564754
631.224585	2918.228180
631.570597	2912.153589
631.916556	2913.799526
632.262462	2907.077147
632.608316	2901.221847
632.954117	2894.759088
633.299866	2894.186917
633.645562	2889.241545
633.991206	2880.285935
634.336797	2872.086498
634.682336	2867.340252
635.027823	2863.193903
635.373257	2859.014787
635.718639	2853.540093
636.063968	2850.049094
636.409245	2837.642815
636.754470	2835.827999
637.099642	2830.980930
637.444762	2826.005311
637.789829	2821.869044
638.134845	2818.357881
638.479808	2815.255051
638.824719	2811.859833
639.169577	2806.501087
639.514383	2804.948412
639.859137	2795.466001
640.203839	2799.919861
640.548489	2798.278965
640.893086	2791.110444
641.237632	2785.562654
641.582125	2785.756739
641.926566	2782.192643
642.270955	2777.945471
642.615292	2772.485901
642.959576	2771.707043
643.303809	2768.165632
643.647990	2770.449275
643.992118	2770.479522
644.336195	2768.669748
644.680219	2766.229829
645.024192	2766.239912
645.368112	2768.389964
645.711981	2766.701177
646.055797	2770.529934
646.399562	2768.710077
646.743274	2770.497166
647.086935	2773.453803
647.430544	2771.339039
647.774101	2771.215531
648.117606	2771.303751
648.461059	2772.311982
648.804460	2769.655293
649.147810	2763.318563
649.491108	2762.083480
649.834354	2757.203643
650.177548	2751.156779
650.520690	2746.123187
650.863781	2741.727301
651.206820	2742.024729
651.549807	2736.381157
651.892742	2733.787484
652.235626	2730.868656
652.578458	2729.784808
652.921238	2721.076214
653.263967	2722.835577
653.606644	2721.572768
653.949269	2716.221583
654.291843	2716.652602
654.634365	2717.781820
654.976836	2712.844010
655.319255	2710.978783
655.661622	2707.964173
656.003938	2709.650439
656.346203	2705.846889
656.688416	2706.172043
657.030577	2703.626260
657.372687	2701.589634
657.714746	2702.040817
658.056753	2704.528627
658.398708	2699.069057
658.740612	2698.547298
659.082465	2698.562421
659.424266	2696.498069
659.766016	2691.638397
660.107715	2695.068902
660.449362	2688.873324
660.790958	2694.650486
661.132503	2690.912470
661.473996	2694.088397
661.815438	2694.458922
662.156829	2693.428006
662.498168	2692.243335
662.839456	2691.711493
663.180693	2688.706966
663.521879	2692.951617
663.863013	2687.852490
664.204097	2688.439784
664.545129	2690.574713
664.886110	2689.689991
665.227040	2688.228056
665.567918	2687.923066
665.908746	2687.746626
666.249522	2690.075639
666.590248	2687.945751
666.930922	2690.297450
667.271545	2687.391224
667.612118	2690.640248
667.952639	2689.594209
668.293109	2686.014989
668.633528	2684.300997
668.973896	2686.806451
669.314213	2683.033147
669.654480	2682.292097
669.994695	2682.831501
670.334859	2682.549196
670.674973	2679.632889
671.015035	2683.791841
671.355047	2680.051304
671.695008	2678.410409
672.034918	2679.799247
672.374777	2677.813032
672.714585	2678.370080
673.054342	2677.361849
673.394049	2675.927641
673.733705	2677.999555
674.073310	2677.470234
674.412864	2675.647857
674.752368	2674.702640
675.091820	2674.470747
675.431223	2673.321364
675.770574	2672.482012
676.109875	2668.607885
676.449125	2666.185611
676.788324	2664.353151
677.127473	2661.489776
677.466571	2658.838129
677.805619	2661.119251
678.144616	2658.828047
678.483562	2662.276196
678.822458	2656.670433
679.161303	2658.278561
679.500098	2655.815957
679.838842	2655.831081
680.177535	2654.384270
680.516179	2657.804692
680.854771	2656.919970
681.193314	2659.508602
681.531805	2667.927329
681.870247	2668.875066
682.208638	2674.589214
682.546978	2678.435615
682.885268	2676.754390
683.223508	2679.461489
683.561697	2670.626867
683.899836	2673.497804
684.237925	2668.864984
684.575963	2668.428924
684.913951	2668.058399
685.251889	2666.924140
685.589776	2665.454643
685.927614	2667.662669
686.265401	2665.089160
686.603137	2667.990344
686.940824	2670.578976
687.278460	2671.642660
687.616046	2668.633091
687.953582	2673.729697
688.291068	2674.483350
688.628504	2675.625171
688.965889	2676.278001
689.303224	2675.146262
689.640510	2675.519307
689.977745	2668.547391
690.314930	2665.873059
690.652065	2664.907678
690.989150	2659.369971
691.326185	2656.400731
691.663170	2653.764208
692.000105	2645.723567
692.336990	2642.547640
692.673825	2640.233751
693.010610	2640.178298
693.347345	2634.786784
693.684030	2624.742285
694.020665	2627.656072
694.357251	2621.044599
694.693786	2625.705145
695.030272	2624.926287
695.366707	2622.302367
695.703093	2620.197685
696.039429	2620.452263
696.375716	2619.496964
696.711952	2617.641820
697.048139	2619.055863
697.384276	2617.389762
697.720363	2616.079062
698.056400	2616.862962
698.392388	2614.970008
698.728326	2616.237858
699.064214	2611.239554
699.400053	2613.334154
699.735842	2610.677466
700.071581	2611.347939
700.407270	2607.798967
700.742910	2609.056735
701.078501	2606.306785
701.414042	2605.812752
701.749533	2603.438369
702.084974	2600.887545
702.420366	2602.120107
702.755709	2599.448296
703.091002	2598.107349
703.426246	2598.697164
703.761440	2598.964345
704.096584	2597.973758
704.431679	2594.525609
704.766725	2597.928388
705.101721	2594.767584
705.436668	2595.448140
705.771565	2592.383118
706.106413	2596.635332
706.441212	2598.450147
706.775961	2597.245311
707.110661	2597.610795
707.445311	2600.048193
707.779913	2595.927050
708.114465	2598.626588
708.448967	2599.082812
708.783421	2604.345777
709.117825	2603.133379
709.452180	2607.350304
709.786485	2608.456837
710.120742	2610.780809
710.454949	2611.370624
710.789107	2618.521501
711.123216	2618.471090
711.457275	2621.725154
711.791286	2624.598612
712.125247	2629.342338
712.459159	2624.207923
712.793023	2631.653707
713.126837	2625.332100
713.460602	2627.835033
713.794318	2624.240690
714.127985	2624.069291
714.461602	2618.130812
714.795171	2618.718106
715.128691	2614.057559
715.462162	2610.871550
715.795584	2609.621344
716.128957	2605.696806
716.462281	2605.686723
716.795556	2600.958121
717.128782	2601.026177
717.461960	2597.515013
717.795088	2598.601382
718.128167	2591.856318
718.461198	2592.829261
718.794180	2591.712645
719.127113	2586.537901
719.459997	2586.537901
719.792833	2585.882551
720.125619	2582.358784
720.458357	2583.311562
720.791046	2581.779051
721.123686	2580.690162
721.456278	2577.746128
721.788821	2577.622620
722.121315	2577.549523
722.453761	2577.491550
722.786158	2576.175809
723.118506	2578.406519
723.450805	2577.705799
723.783056	2578.159503
724.115259	2578.880388
724.447412	2577.781416
724.779518	2577.426015
725.111574	2577.660429
725.443582	2580.823753
725.775542	2581.894998
726.107453	2583.180492
726.439315	2582.063877
726.771129	2586.358940
727.102895	2584.551686
727.434612	2588.768611
727.766281	2584.685277
728.097901	2592.287337
728.429473	2593.356061
728.760996	2594.283633
729.092471	2594.875969
729.423897	2593.905547
729.755276	2592.703232
730.086606	2593.164497
730.417887	2595.911926
730.749120	2599.957452
731.080305	2601.101794
731.411442	2603.705550
731.742530	2605.177567
732.073570	2606.435335
732.404562	2606.392485
732.735506	2607.443566
733.066401	2605.689244
733.397249	2603.231682
733.728048	2602.359562
734.058798	2597.083994
734.389501	2590.240628
734.720156	2589.081163
735.050762	2582.552868
735.381320	2580.251582
735.711831	2577.940213
736.042293	2577.602455
736.372707	2578.577919
736.703073	2573.962742
737.033391	2576.415264
737.363661	2575.563309
737.693883	2576.805953
738.024056	2576.916858
738.354182	2576.228741
738.684260	2580.662436
739.014290	2583.482961
739.344272	2584.851635
739.674207	2589.156780
740.004093	2590.157449
740.333931	2589.308015
740.663722	2590.114599
740.993464	2589.124012
741.323159	2587.014290
741.652806	2588.037644
741.982405	2583.228383
742.311956	2582.751994
742.641460	2585.141501
742.970915	2581.721078
743.300323	2578.857703
743.629683	2577.052970
743.958996	2573.141034
744.288260	2567.961249
744.617477	2572.566343
744.946647	2570.040725
745.275768	2570.900241
745.604842	2570.151630
745.933869	2567.726835
746.262847	2567.361351
746.591778	2568.072154
746.920662	2564.596278
747.249498	2563.517472
747.578286	2564.475291
747.907027	2568.200703
748.235720	2570.141548
748.564365	2568.079716
748.892963	2566.143913
749.221514	2572.856209
749.550017	2568.248594
749.878473	2570.728842
750.206881	2566.128789
750.535242	2568.167936
750.863555	2566.383367
751.191821	2565.186093
751.520039	2565.899417
751.848210	2564.656772
752.176334	2566.789180
752.504411	2564.278686
752.832440	2564.581155
753.160421	2567.081567
753.488356	2563.835064
753.816243	2561.337172
754.144082	2563.698953
754.471875	2563.207441
754.799620	2558.892213
755.127318	2563.522513
755.454969	2560.386915
755.782572	2562.589899
756.110129	2560.381874
756.437638	2563.711556
756.765100	2560.414641
757.092515	2562.506720
757.419882	2560.701987
757.747203	2561.793397
758.074477	2562.458829
758.401703	2563.467060
758.728882	2563.996381
759.056014	2566.942936
759.383099	2562.710887
759.710138	2562.607543
760.037129	2562.751216
760.364073	2564.853377
760.690970	2563.663665
761.017820	2570.275138
761.344623	2569.909655
761.671379	2573.319995
761.998088	2572.631878
762.324751	2583.152766
762.651366	2604.171857
762.977935	2630.632873
763.304456	2651.692293
763.630931	2664.670744
763.957359	2661.918274
764.283740	2647.636685
764.610074	2639.714512
764.936362	2621.326903
765.262602	2607.917434
765.588796	2595.007039
765.914943	2583.339288
766.241044	2574.348391
766.567097	2569.138358
766.893104	2562.743654
767.219064	2559.406411
767.544978	2556.202757
767.870845	2555.146636
768.196665	2552.862993
768.522438	2551.212015
768.848165	2548.467107
769.173846	2546.082641
769.499479	2546.266643
769.825066	2544.305634
770.150607	2541.742208
770.476101	2538.815818
770.801548	2541.003678
771.126949	2538.336908
771.452303	2540.149203
771.777611	2537.230375
772.102872	2538.190715
772.428087	2535.644932
772.753256	2535.133255
773.078378	2534.230888
773.403453	2530.190403
773.728482	2532.058151
774.053465	2530.364323
774.378401	2531.788449
774.703291	2528.748633
775.028135	2530.548325
775.352932	2530.296268
775.677683	2526.152439
776.002388	2526.404497
776.327046	2526.827954
776.651658	2525.441637
776.976224	2520.917201
777.300743	2525.587830
777.625216	2526.656555
777.949643	2525.613036
778.274024	2524.012469
778.598359	2525.146729
778.922647	2523.871317
779.246889	2525.471883
779.571086	2523.437778
779.895236	2526.107069
780.219339	2524.264527
780.543397	2523.929290
780.867409	2523.541122
781.191374	2524.720752
781.515294	2525.396266
781.839167	2524.385515
782.162995	2524.990453
782.486776	2525.602953
782.810511	2523.425175
783.134201	2522.669002
783.457844	2524.529188
783.781441	2522.527850
784.104993	2522.767304
784.428498	2522.895854
784.751958	2524.231760
785.075372	2523.150432
785.398739	2519.898888
785.722061	2523.775535
786.045337	2524.330062
786.368568	2521.683456
786.691752	2522.638755
787.014891	2525.166894
787.337983	2530.505476
787.661030	2532.501773
787.984031	2537.414377
788.306987	2541.132228
788.629897	2541.659028
788.952760	2544.802188
789.275579	2542.271529
789.598351	2539.793802
789.921078	2536.015457
790.243759	2531.760723
790.566395	2530.225692
790.888984	2530.190403
791.211529	2526.180166
791.534027	2528.829292
791.856480	2525.547501
792.178888	2523.183200
792.501249	2520.060205
792.823566	2521.496934
793.145836	2518.076511
793.468062	2520.839063
793.790241	2518.557941
794.112375	2520.924763
794.434464	2523.556245
794.756507	2520.932324
795.078505	2523.624301
795.400457	2528.002543
795.722364	2525.948273
796.044226	2530.848274
796.366042	2534.445137
796.687812	2531.158305
797.009538	2532.695857
797.331218	2532.791639
797.652852	2532.806762
797.974442	2532.405991
798.295986	2533.477236
798.617484	2529.898017
798.938938	2527.871473
799.260346	2528.620084
799.581709	2524.229239
799.903026	2528.584796
800.224299	2522.069105
800.545526	2521.980884
800.866708	2521.418796
801.187845	2524.715710
801.508936	2522.285874
801.829983	2522.558097
802.150984	2522.479959
802.471940	2520.738240
802.792851	2520.455935
803.113717	2518.570544
803.434538	2517.985770
803.755314	2519.586336
804.076045	2517.947961
804.396731	2518.540297
804.717372	2516.322189
805.037967	2518.966274
805.358518	2518.257992
805.679024	2520.017355
805.999485	2517.383352
806.319901	2519.062056
806.640272	2521.133971
806.960598	2519.611542
807.280879	2520.897036
807.601115	2523.057171
807.921306	2516.748167
808.241453	2518.525173
808.561554	2517.332941
808.881611	2518.711696
809.201623	2516.501150
809.521590	2517.416120
809.841513	2522.709331
810.161390	2519.737571
810.481223	2519.936697
810.801011	2517.166583
811.120755	2521.713703
811.440453	2518.207581
811.760107	2518.714217
812.079716	2519.059536
812.399281	2517.537107
812.718801	2518.414268
813.038276	2516.150790
813.357707	2517.121212
813.677093	2517.423681
813.996434	2515.460152
814.315731	2519.815709
814.634983	2518.905781
814.954191	2515.303876
815.273354	2517.932838
815.592473	2519.752694
815.911547	2520.650020
816.230577	2517.947961
816.549562	2523.024403
816.868502	2521.917870
817.187399	2523.495751
817.506250	2523.233611
817.825058	2526.593540
818.143821	2530.946577
818.462539	2531.062523
818.781213	2535.281969
819.099843	2540.008051
819.418429	2548.464586
819.736970	2553.982129
820.055466	2566.219530
820.373919	2582.575554
820.692327	2604.212186
821.010691	2634.764099
821.329011	2705.131045
821.647286	2820.470124
821.965517	2970.222640
822.283704	3082.158941
822.601847	3148.170330
822.919945	3103.820779
823.237999	3038.308464
823.556010	2970.036118
823.873976	2899.825448
824.191897	2834.920592
824.509775	2787.160700
824.827609	2739.078175
825.145398	2706.560212
825.463144	2689.153108
825.780845	2685.546162
826.098502	2698.486804
826.416116	2723.402707
826.733685	2756.752460
827.051210	2776.458331
827.368692	2769.335180
827.686129	2739.892321
828.003522	2703.495190
828.320872	2669.472443
828.638177	2643.034112
828.955439	2618.198867
829.272656	2600.267483
829.589830	2587.180648
829.906960	2569.513924
830.224046	2558.917419
830.541088	2551.035575
830.858086	2543.998124
831.175041	2544.126673
831.491952	2538.762886
831.808819	2539.561908
832.125642	2541.107022
832.442421	2549.616490
832.759157	2560.180228
833.075849	2589.996132
833.392497	2619.968312
833.709101	2645.733650
834.025662	2651.309166
834.342179	2639.621251
834.658653	2621.039557
834.975083	2600.285127
835.291469	2586.033785
835.607811	2570.738924
835.924110	2562.201730
836.240366	2555.033210
836.556578	2540.612989
836.872746	2534.341794
837.188871	2526.013808
837.504952	2523.278982
837.820990	2519.868641
838.136984	2517.113650
838.452935	2518.527694
838.768842	2512.627023
839.084706	2520.123219
839.400526	2528.718387
839.716303	2544.396375
840.032037	2554.135884
840.347727	2557.394990
840.663373	2550.057591
840.978977	2535.980169
841.294537	2532.461443
841.610054	2527.087573
841.925527	2521.602798
842.240957	2516.594412
842.556344	2511.129801
842.871687	2510.119049
843.186987	2507.013699
843.502244	2506.507063
843.817458	2501.690240
844.132629	2501.302071
844.447756	2497.440548
844.762840	2498.305105
845.077881	2497.339724
845.392879	2496.780156
845.707833	2497.264107
846.022745	2494.216730
846.337613	2495.076246
846.652438	2494.196565
846.967221	2493.510968
847.281960	2490.750936
847.596656	2493.999960
847.911309	2492.807727
848.225919	2489.054588
848.540485	2494.032727
848.855009	2492.291009
849.169490	2492.903509
849.483928	2489.399907
849.798323	2491.771770
850.112675	2492.212871
850.426984	2492.527943
850.741251	2490.309835
851.055474	2491.247490
851.369654	2492.767398
851.683792	2490.851759
851.997887	2490.682881
852.311938	2489.800679
852.625947	2491.678509
852.939914	2490.866883
853.253837	2489.296563
853.567718	2493.261431
853.881555	2492.527943
854.195350	2492.240597
854.509103	2491.544918
854.822812	2488.159783
855.136479	2491.149188
855.450103	2492.585916
855.763685	2487.156594
856.077224	2484.419247
856.390720	2488.258086
856.704173	2487.058291
857.017584	2490.698004
857.330953	2490.110710
857.644278	2493.642038
857.957561	2496.689416
858.270802	2491.875114
858.584000	2491.426451
858.897155	2493.742861
859.210268	2489.969558
859.523339	2492.406955
859.836367	2491.229846
860.149352	2491.469301
860.462295	2491.998622
860.775195	2492.636328
861.088054	2493.848725
861.400869	2493.725217
861.713642	2491.396204
862.026373	2490.539208
862.339062	2491.612974
862.651708	2494.201606
862.964312	2491.439054
863.276873	2493.372336
863.589392	2493.836122
863.901869	2491.597850
864.214303	2493.770587
864.526696	2495.114055
864.839045	2495.272851
865.151353	2494.534322
865.463619	2494.309991
865.775842	2496.391987
866.088023	2497.317039
866.400162	2497.732934
866.712258	2497.193531
867.024313	2496.089518
867.336325	2497.120434
867.648296	2500.099756
867.960224	2497.271669
868.272110	2495.923160
868.583954	2495.960969
868.895755	2498.544560
869.207515	2497.604385
869.519233	2498.191679
869.830909	2495.655979
870.142542	2500.059427
870.454134	2499.119252
870.765684	2499.134375
871.077191	2498.960455
871.388657	2496.563387
871.700081	2494.751092
872.011463	2499.482215
872.322803	2495.635814
872.634101	2501.188645
872.945357	2502.968173
873.256571	2503.643687
873.567744	2503.890704
873.878874	2504.215858
874.189963	2503.661331
874.501010	2506.161744
874.812015	2505.425735
875.122979	2507.326250
875.433900	2504.102432
875.744780	2507.568226
876.055618	2506.237361
876.366415	2506.665859
876.677169	2506.512104
876.987882	2508.755417
877.298554	2509.168792
877.609183	2511.528052
877.919771	2513.075686
878.230317	2516.261695
878.540822	2518.618435
878.851285	2522.197654
879.161707	2529.131761
879.472087	2541.628782
879.782425	2556.079249
880.092722	2581.063208
880.402977	2627.293109
880.713191	2682.980215
881.023363	2741.150089
881.333494	2789.298149
881.643583	2814.027530
881.953631	2816.124650
882.263637	2802.430355
882.573602	2781.527211
882.883526	2761.654982
883.193408	2737.893504
883.503248	2712.027343
883.813048	2689.377439
884.122806	2669.963956
884.432522	2646.772127
884.742197	2628.956690
885.051831	2607.793926
885.361424	2593.227512
885.670975	2576.914338
885.980485	2565.105435
886.289954	2555.091183
886.599382	2546.659853
886.908768	2538.198276
887.218113	2531.319622
887.527417	2528.073119
887.836680	2523.974661
888.145901	2524.027593
888.455082	2516.299504
888.764221	2519.399814
889.073319	2516.024761
889.382376	2513.776407
889.691392	2510.943278
890.000366	2512.944616
890.309300	2510.043432
890.618193	2510.900428
890.927044	2511.361694
891.235855	2510.355984
891.544625	2511.580984
891.853353	2514.444359
892.162041	2513.572240
892.470687	2518.441994
892.779293	2519.200688
893.087858	2524.130937
893.396381	2531.685106
893.704864	2543.546941
894.013306	2562.622667
894.321707	2580.652353
894.630068	2593.620722
894.938387	2600.985847
895.246665	2599.952411
895.554903	2592.920001
895.863100	2582.751994
896.171256	2572.629357
896.479371	2566.585014
896.787446	2558.844322
897.095480	2549.823177
897.403473	2546.889226
897.711425	2541.901004
898.019336	2533.734335
898.327207	2531.606968
898.635038	2525.928108
898.942827	2523.878879
899.250576	2520.420647
899.558284	2516.657426
899.865952	2515.553413
900.173579	2510.605521
900.481165	2513.773886
900.788711	2507.613596
901.096216	2509.181395
901.403681	2504.278873
901.711105	2506.375993
902.018489	2503.731907
902.325832	2504.425066
902.633135	2504.742659
902.940397	2513.499143
903.247619	2519.664474
903.554800	2547.237065
903.861941	2575.722105
904.169041	2608.323247
904.476101	2620.492592
904.783121	2622.768673
905.090100	2611.884822
905.397039	2599.105497
905.703938	2585.975812
906.010796	2571.013667
906.317614	2562.922615
906.624391	2555.922973
906.931129	2544.098947
907.237826	2538.175591
907.544483	2532.186700
907.851099	2526.568334
908.157675	2518.139525
908.464211	2512.488392
908.770707	2505.745848
909.077163	2502.443893
909.383578	2499.968686
909.689954	2495.227481
909.996289	2494.841833
910.302584	2495.187152
910.608839	2496.696977
910.915054	2493.702532
911.221229	2492.716986
911.527363	2494.914929
911.833458	2493.432830
912.139513	2496.578510
912.445527	2490.413179
912.751502	2494.113386
913.057436	2498.463902
913.363331	2500.364417
913.669186	2503.366424
913.975000	2507.827845
914.280775	2514.030985
914.586510	2524.526667
914.892205	2535.143337
915.197859	2554.824002
915.503475	2579.021540
915.809050	2600.159098
916.114585	2613.477827
916.420081	2621.160545
916.725536	2619.272633
917.030952	2616.250461
917.336328	2610.564040
917.641665	2601.406784
917.946961	2591.500917
918.252218	2584.748291
918.557435	2571.535427
918.862612	2568.069633
919.167750	2560.754919
919.472848	2555.426420
919.777906	2545.263453
920.082925	2540.681045
920.387904	2533.777184
920.692843	2528.478932
920.997743	2519.886285
921.302603	2513.058042
921.607423	2513.451252
921.912204	2508.992352
922.216946	2508.689882
922.521647	2507.565705
922.826310	2504.934223
923.130932	2503.759634
923.435516	2500.651763
923.740059	2498.703357
924.044564	2495.295537
924.349028	2495.209837
924.653454	2495.136740
924.957840	2493.082470
925.262186	2494.002481
925.566493	2492.477532
925.870761	2488.447129
926.174989	2487.761532
926.479178	2489.099958
926.783328	2486.236583
927.087438	2485.583754
927.391509	2485.437560
927.695541	2484.280615
927.999533	2485.636686
928.303486	2483.287508
928.607400	2482.818681
928.911275	2480.305666
929.215110	2483.123671
929.518906	2483.660553
929.822663	2485.445122
930.126381	2480.724081
930.430060	2481.301293
930.733699	2482.249030
931.037299	2483.239617
931.340861	2481.011427
931.644383	2482.904380
931.947866	2480.109061
932.251309	2483.436222
932.554714	2481.505460
932.858080	2480.010758
933.161407	2478.997486
933.464694	2481.051756
933.767943	2478.634523
934.071153	2479.171406
934.374323	2480.933289
934.677455	2482.281798
934.980548	2479.993114
935.283602	2481.739874
935.586617	2480.335912
935.889593	2479.277270
936.192530	2479.526807
936.495428	2479.942703
936.798287	2481.255923
937.101108	2481.926397
937.403890	2482.501088
937.706632	2481.835656
938.009336	2482.675008
938.312002	2487.048209
938.614628	2488.328662
938.917216	2491.837305
939.219765	2490.367809
939.522275	2489.893940
939.824747	2493.906699
940.127179	2491.368478
940.429573	2491.383601
940.731929	2495.484580
941.034246	2490.433344
941.336524	2492.268324
941.638763	2491.010556
941.940964	2489.069712
942.243126	2492.633807
942.545250	2490.259424
942.847335	2489.881337
943.149381	2487.597695
943.451389	2487.010400
943.753359	2485.505616
944.055290	2487.292705
944.357182	2485.440081
944.659036	2484.086531
944.960851	2484.759525
945.262628	2482.254072
945.564367	2484.056284
945.866067	2485.734988
946.167729	2484.358753
946.469352	2487.534680
946.770937	2482.246510
947.072484	2484.509988
947.373992	2484.416727
947.675462	2482.826242
947.976893	2483.900008
948.278286	2478.137969
948.579641	2483.043012
948.880958	2479.705768
949.182236	2482.959833
949.483476	2483.141315
949.784678	2483.927735
950.085841	2483.637868
950.386967	2483.368167
950.688054	2483.869761
950.989103	2483.345481
951.290114	2485.351861
951.591087	2483.884885
951.892021	2486.987715
952.192917	2487.542242
952.493776	2486.445791
952.794596	2486.541573
953.095378	2487.093579
953.396122	2488.681543
953.696828	2482.894298
953.997496	2486.198774
954.298126	2487.325472
954.598718	2486.715493
954.899272	2485.956799
955.199788	2486.332365
955.500266	2482.672487
955.800706	2482.443115
956.101108	2484.419247
956.401472	2480.991262
956.701798	2480.421612
957.002087	2480.096458
957.302337	2478.727784
957.602550	2478.145531
957.902724	2477.699389
958.202861	2477.454893
958.502960	2476.131590
958.803022	2476.681076
959.103045	2477.107053
959.403031	2476.061014
959.702979	2474.329378
960.002889	2476.368524
960.302762	2474.568832
960.602596	2475.299800
960.902393	2474.309213
961.202153	2471.713019
961.501875	2473.507670
961.801559	2471.350056
962.101205	2474.465489
962.400814	2472.605303
962.700385	2473.505149
962.999918	2470.001547
963.299414	2469.797380
963.598873	2468.877370
963.898293	2468.159005
964.197677	2472.078502
964.497022	2472.391054
964.796331	2471.745786
965.095601	2470.273769
965.394835	2470.770323
965.694030	2468.093470
965.993189	2473.910962
966.292309	2469.401650
966.591393	2468.559777
966.890439	2470.185549
967.189447	2471.967597
967.488419	2469.189921
967.787353	2474.367186
968.086249	2471.236630
968.385108	2472.146558
968.683930	2469.913327
968.982714	2471.017340
969.281462	2471.246712
969.580172	2471.337453
969.878844	2471.077833
970.177480	2472.575056
970.476078	2474.316775
970.774639	2475.899697
971.073162	2471.803760
971.371649	2470.631691
971.670098	2473.048925
971.968510	2474.220993
972.266885	2473.444655
972.565223	2474.377269
972.863524	2472.587659
973.161788	2474.820890
973.460014	2470.145220
973.758204	2471.652525
974.056356	2472.292752
974.354471	2471.977679
974.652550	2471.859212
974.950591	2473.963894
975.248595	2472.839717
975.546563	2473.560602
975.844493	2471.488687
976.142386	2473.031281
976.440243	2474.314254
976.738062	2471.055148
977.035845	2472.368369
977.333590	2473.999182
977.631299	2472.958184
977.928971	2470.921558
978.226606	2465.343521
978.524204	2468.781588
978.821765	2466.666824
979.119290	2470.440127
979.416777	2473.119501
979.714228	2472.075982
980.011642	2470.495580
980.309020	2474.392392
980.606360	2471.680251
980.903664	2476.146714
981.200931	2474.399954
981.498162	2475.365335
981.795356	2477.162506
982.092513	2479.136118
982.389633	2481.533187
982.686717	2486.740698
982.983764	2486.844042
983.280775	2488.726913
983.577749	2488.089207
983.874686	2488.028713
984.171587	2487.877479
984.468451	2486.095431
984.765279	2487.567448
985.062070	2483.627786
985.358824	2484.850266
985.655543	2483.055615
985.952224	2481.697024
986.248869	2478.261478
986.545478	2475.856847
986.842050	2478.027064
987.138586	2475.612351
987.435086	2473.618575
987.731549	2473.888277
988.027975	2470.891311
988.324366	2467.995168
988.620719	2468.892493
988.917037	2471.937350
989.213318	2468.718573
989.509563	2468.400981
989.805772	2471.047587
990.101944	2469.220168
990.398080	2467.594396
990.694180	2469.447020
990.990244	2469.376444
991.286271	2467.410394
991.582262	2470.649335
991.878217	2468.421145
992.174136	2469.767133
992.470019	2465.986268
992.765865	2469.227730
993.061676	2463.742955
993.357450	2467.654890
993.653188	2465.852677
993.948890	2469.328553
994.244556	2469.827627
994.540186	2471.130766
994.835780	2471.539099
995.131337	2470.825776
995.426859	2473.323668
995.722345	2477.608648
996.017795	2476.665952
996.313208	2476.746611
996.608586	2476.368524
996.903928	2479.214256
997.199234	2483.652992
997.494504	2478.206025
997.789738	2478.480768
998.084936	2478.707620
998.380099	2477.674183
998.675225	2475.632516
998.970316	2475.645119
999.265371	2476.280304
999.560390	2474.223513
999.855373	2473.845427
1000.150320	2470.984572
1000.445232	2468.305199
1000.740108	2469.857874
1001.034948	2470.856023
1001.329752	2467.959880
1001.624521	2465.759416
1001.919254	2466.666824
1002.213951	2470.861064
1002.508613	2465.782101
1002.803239	2468.758903
1003.097829	2467.024746
1003.392384	2470.036835
1003.686903	2464.035342
1003.981386	2468.958028
1004.275834	2466.422328
1004.570246	2465.865280
1004.864623	2466.276134
1005.158964	2466.530713
1005.453270	2464.970476
1005.747540	2468.680765
1006.041775	2463.695064
1006.335974	2466.167750
1006.630138	2466.301340
1006.924266	2468.254787
1007.218359	2464.887297
1007.512416	2466.729838
1007.806438	2459.243725
1008.100425	2462.124744
1008.394376	2460.874538
1008.688292	2464.627677
1008.982172	2465.469550
1009.276017	2465.527523
1009.569827	2462.175156
1009.863602	2462.301185
1010.157341	2467.886783
1010.451045	2466.286217
1010.744714	2465.255301
1011.038347	2465.824951
1011.331945	2464.922585
1011.625508	2465.076340
1011.919036	2463.952163
1012.212528	2466.606330
1012.505986	2460.856894
1012.799408	2464.375619
1013.092795	2464.700774
1013.386147	2467.173460
1013.679464	2464.998202
1013.972745	2463.536267
1014.265992	2462.132306
1014.559204	2464.620115
1014.852380	2463.206072
1015.145521	2466.228243
1015.438628	2461.991154
1015.731699	2466.671865
1016.024736	2465.277986
1016.317737	2464.874694
1016.610703	2463.238839
1016.903635	2467.455764
1017.196531	2466.137503
1017.489393	2462.694395
1017.782219	2464.577266
1018.075011	2464.410908
1018.367768	2464.335290
1018.660490	2466.732359
1018.953177	2466.732359
1019.245829	2466.732359
