Dividing Wavelength (nm)	Counts (n)	Blue Motor Position (mm): 0.000000	Red Motor Position (mm): 20.500000	
326.493990	2054.912939
326.888308	2054.912939
327.282561	2054.912939
327.676750	2026.732889
328.070874	2028.088960
328.464933	2035.617923
328.858929	2043.386341
329.252859	2053.536704
329.646726	2064.024825
330.040528	2082.856055
330.434265	2098.055134
330.827938	2120.868876
331.221547	2139.841258
331.615091	2163.433858
332.008571	2184.049657
332.401986	2201.897862
332.795338	2220.918136
333.188625	2240.497977
333.581847	2259.639238
333.975006	2278.016765
334.368100	2293.664506
334.761129	2310.842238
335.154095	2325.688436
335.546996	2343.428256
335.939833	2361.107583
336.332606	2372.583770
336.725315	2386.938455
337.117960	2395.392470
337.510540	2404.890004
337.903056	2410.896539
338.295508	2419.955492
338.687896	2428.774991
339.080220	2432.573500
339.472480	2438.446445
339.864676	2440.926692
340.256807	2445.569595
340.648875	2444.223607
341.040879	2447.283587
341.432818	2450.126798
341.824694	2451.838270
342.216506	2448.654781
342.608253	2448.909359
342.999937	2450.023454
343.391557	2446.174533
343.783113	2445.466251
344.174605	2445.254523
344.566033	2443.865685
344.957397	2440.878801
345.348697	2441.934923
345.739934	2434.589962
346.131106	2438.338060
346.522215	2434.854623
346.913260	2435.716660
347.304241	2432.145002
347.695159	2432.114755
348.086012	2431.751792
348.476802	2425.548653
348.867528	2424.532860
349.258191	2422.138312
349.648789	2420.545307
350.039324	2418.221335
350.429796	2423.834660
350.820203	2420.056315
351.210548	2419.277457
351.600828	2418.644792
351.991045	2419.552200
352.381198	2420.187385
352.771288	2419.365677
353.161314	2421.508168
353.551276	2418.115471
353.941175	2418.748136
354.331010	2419.617735
354.720782	2418.886768
355.110490	2420.038671
355.500135	2418.763259
355.889717	2421.520771
356.279235	2421.198137
356.668689	2420.482293
357.058080	2423.144022
357.447408	2423.428847
357.836672	2421.669485
358.225873	2420.275606
358.615010	2423.312901
359.004084	2424.278282
359.393095	2425.435227
359.782043	2423.920360
360.170927	2425.956986
360.559748	2424.210226
360.948505	2422.271902
361.337199	2429.226174
361.725830	2428.328849
362.114398	2427.239960
362.502903	2425.997315
362.891344	2428.066709
363.279722	2430.471339
363.668037	2430.254570
364.056289	2428.417069
364.444478	2433.795980
364.832603	2431.071237
365.220665	2433.556525
365.608665	2429.291709
365.996601	2433.629622
366.384474	2434.511824
366.772284	2436.253543
367.160031	2432.306319
367.547715	2435.832606
367.935336	2434.915116
368.322893	2432.833120
368.710388	2427.552511
369.097820	2435.598193
369.485189	2433.919488
369.872495	2438.383430
370.259738	2434.973090
370.646918	2438.922834
371.034035	2438.867381
371.421090	2440.644388
371.808081	2442.716302
372.195010	2442.461724
372.581875	2442.875098
372.968678	2447.402054
373.355418	2444.626899
373.742096	2449.756273
374.128710	2450.179730
374.515262	2450.406582
374.901751	2454.484876
375.288177	2459.649538
375.674540	2462.908644
376.060841	2465.991309
376.447079	2471.564305
376.833254	2474.089923
377.219367	2478.682414
377.605417	2487.297746
377.991404	2489.445277
378.377329	2497.400218
378.763191	2506.028153
379.148991	2512.362363
379.534727	2521.428878
379.920402	2531.612009
380.306013	2537.613502
380.691563	2555.123950
381.077049	2562.073181
381.462474	2573.819069
381.847835	2587.263827
382.233134	2601.396702
382.618371	2614.186109
383.003545	2630.562297
383.388657	2643.959163
383.773706	2662.014056
384.158693	2679.050635
384.543618	2694.710980
384.928480	2708.488453
385.313280	2732.597772
385.698017	2748.767272
386.082692	2770.875253
386.467305	2788.257151
386.851856	2810.483598
387.236344	2840.425532
387.620770	2854.467666
388.005133	2876.883156
388.389435	2909.794329
388.773674	2924.675815
389.157851	2960.977164
389.541965	2985.207470
389.926018	3000.066271
390.310008	3030.325797
390.693936	3054.160372
391.077802	3085.355032
391.461606	3114.681945
391.845348	3129.991929
392.229027	3161.199192
392.612645	3203.580172
392.996200	3236.887076
393.379694	3270.327570
393.763125	3313.227789
394.146494	3339.225020
394.529801	3375.327243
394.913047	3420.311979
395.296230	3425.184254
395.679351	3451.136114
396.062410	3501.277951
396.445408	3482.628203
396.828343	3521.803009
397.211217	3555.646795
397.594028	3528.916077
397.976778	3579.236875
398.359466	3610.998665
398.742092	3621.300262
399.124656	3636.612767
399.507158	3695.289277
399.889598	3699.181048
400.271977	3766.969444
400.654294	3754.147269
401.036549	3813.206907
401.418742	3815.581291
401.800874	3884.922362
402.182944	3910.995209
402.564952	3993.720544
402.946898	3991.759535
403.328783	3984.255778
403.710606	4034.488355
404.092367	4106.060137
404.474067	4170.511289
404.855705	4155.120646
405.237282	4124.299032
405.618797	4220.958115
406.000250	4300.628511
406.381642	4383.747055
406.762972	4383.232858
407.144240	4351.120708
407.525447	4416.335594
407.906593	4435.103810
408.287677	4521.209238
408.668700	4540.907547
409.049661	4584.795832
409.430560	4615.080564
409.811399	4600.672947
410.192176	4651.339063
410.572891	4733.023400
410.953545	4839.462322
411.334138	4739.481118
411.714669	4847.369372
412.095139	4760.225466
412.475547	4870.881313
412.855894	4873.752250
413.236180	4981.534640
413.616405	4902.592692
413.996568	5004.348382
414.376670	5008.608157
414.756711	5003.753526
415.136691	5071.688115
415.516609	5159.363863
415.896466	5194.281415
416.276262	5272.822592
416.655997	5385.792329
417.035670	5477.017049
417.415283	5614.811948
417.794834	5683.926167
418.174324	5646.558614
418.553753	5646.354448
418.933121	5808.971988
419.312428	5817.315098
419.691674	5735.842490
420.070859	5961.005627
420.449983	5831.208518
420.829045	6023.500811
421.208047	5938.557369
421.586988	6089.176963
421.965867	6160.035422
422.344686	6230.286421
422.723444	6376.608432
423.102141	5987.665769
423.480777	6374.165993
423.859352	6171.365415
424.237866	6519.257963
424.616319	6495.146124
424.994712	6639.960830
425.373044	6536.670108
425.751314	6818.621843
426.129524	6536.591970
426.507673	6760.048676
426.885762	6782.822088
427.263789	6796.982690
427.641756	6848.188210
428.019662	6899.441621
428.397508	6903.706437
428.775292	6859.135075
429.153016	6980.889023
429.530679	6889.603809
429.908282	6901.548823
430.285824	6820.343397
430.663305	7026.151023
431.040726	6889.664303
431.418086	6857.746238
431.795385	6932.841786
432.172624	7051.709673
432.549802	6911.298415
432.926920	6981.259548
433.303977	6893.878708
433.680974	6876.098558
434.057910	6997.338308
434.434786	6992.987792
434.811601	6906.889926
435.188355	7120.949921
435.565050	6979.805175
435.941683	6937.419153
436.318257	7137.726881
436.694770	7047.182717
437.071222	7154.594582
437.447614	6932.531755
437.823946	6851.369178
438.200218	6901.911786
438.576429	6759.456340
438.952580	6808.852086
439.328670	6753.263283
439.704700	6745.167190
440.080670	6612.589885
440.456580	6722.421504
440.832429	6641.977291
441.208218	6413.328197
441.583947	6420.733652
441.959616	6426.772954
442.335224	6378.579523
442.710773	6363.524117
443.086261	6398.267750
443.461689	6171.811557
443.837057	6197.725608
444.212365	6247.875007
444.587612	6167.251833
444.962800	6040.227359
445.337927	6030.634044
445.712995	5732.593467
446.088002	5999.860320
446.462949	5955.034380
446.837837	5876.515888
447.212664	5808.886289
447.587431	6100.017965
447.962139	6464.067410
448.336786	6788.916843
448.711374	6620.759075
449.085901	6025.300503
449.460369	5897.540020
449.834776	5712.973296
450.209124	5972.358305
450.583412	5825.582590
450.957640	5861.321851
451.331808	5630.149659
451.705917	5342.771122
452.079965	5217.059868
452.453954	5201.749884
452.827883	5101.589719
453.201752	5011.297613
453.575562	4939.143578
453.949311	4962.164007
454.323001	4901.723092
454.696632	4798.601249
455.070202	4873.870718
455.443713	4811.594823
455.817164	4777.677940
456.190556	4767.182258
456.563888	4662.583357
456.937160	4637.972444
457.310373	4453.405719
457.683526	4376.603740
458.056619	4308.215447
458.429653	4241.344542
458.802628	4197.829302
459.175542	4136.102893
459.548398	4149.545130
459.921194	4168.404087
460.293930	4149.275428
460.666607	4206.855488
461.039224	4248.364348
461.411782	4213.207341
461.784280	4099.418417
462.156719	4011.964480
462.529099	3922.476437
462.901419	3775.199128
463.273680	3668.808096
463.645882	3620.680201
464.018024	3549.791495
464.390106	3520.890560
464.762130	3557.164183
465.134094	3629.469452
465.505999	3750.512597
465.877845	3852.767362
466.249631	3862.995863
466.621358	3754.968977
466.993026	3627.135398
467.364634	3517.175230
467.736184	3412.982142
468.107674	3330.322342
468.479105	3270.478805
468.850477	3212.654249
469.221790	3151.792399
469.593043	3086.390990
469.964238	3037.017929
470.335373	3004.200017
470.706449	2991.851711
471.077467	2986.876092
471.448425	3025.251876
471.819324	3046.694424
472.190164	3018.600073
472.560945	2954.388376
472.931667	2891.240363
473.302330	2856.965557
473.672934	2826.990857
474.043479	2812.883188
474.413965	2795.319808
474.784393	2774.217538
475.154761	2773.663011
475.525070	2759.968716
475.895321	2746.617220
476.265513	2746.072776
476.635645	2737.611199
477.005719	2729.691546
477.375734	2724.554611
477.745691	2723.866493
478.115588	2721.630741
478.485427	2726.737430
478.855207	2736.260170
479.224928	2748.177457
479.594591	2755.358581
479.964194	2743.925244
480.333739	2741.293762
480.703226	2737.875860
481.072653	2736.126579
481.442022	2736.716394
481.811333	2732.549881
482.180584	2721.958416
482.549777	2714.810060
482.918912	2705.620037
483.287988	2706.983669
483.657005	2699.605940
484.025964	2692.878520
484.394864	2689.349713
484.763706	2684.878209
485.132489	2678.246571
485.501213	2673.785150
485.869879	2671.788853
486.238487	2671.902279
486.607036	2666.508245
486.975527	2659.478356
487.343959	2661.895589
487.712333	2662.941628
488.080648	2659.866524
488.448905	2656.625062
488.817104	2654.132212
489.185244	2656.113385
489.553326	2660.060609
489.921350	2668.381033
490.289315	2678.917045
490.657222	2679.889987
491.025070	2683.023065
491.392861	2678.256654
491.760593	2672.229954
492.128267	2665.981444
492.495883	2657.121616
492.863440	2650.394196
493.230939	2643.911272
493.598380	2642.207362
493.965763	2639.485139
494.333088	2634.338121
494.700354	2630.431227
495.067563	2629.586834
495.434713	2627.777060
495.801805	2629.937194
496.168839	2623.819754
496.535815	2622.420834
496.902733	2625.566514
497.269593	2622.587192
497.636395	2622.375463
498.003139	2624.160032
498.369825	2621.200874
498.736453	2622.909826
499.103023	2619.194495
499.469535	2622.443519
499.835989	2620.132150
500.202385	2617.752725
500.568723	2615.746346
500.935003	2619.663322
501.301226	2614.357508
501.667390	2619.013014
502.033497	2619.484362
502.399546	2621.268930
502.765537	2617.619135
503.131470	2620.263220
503.497345	2619.547376
503.863163	2617.362036
504.228923	2619.383538
504.594625	2618.745832
504.960269	2617.019237
505.325856	2621.155504
505.691385	2617.760287
506.056856	2618.526542
506.422270	2620.472428
506.787625	2616.157200
507.152924	2623.476955
507.518164	2621.931842
507.883347	2617.210801
508.248472	2618.390431
508.613540	2621.704990
508.978550	2623.093828
509.343503	2619.900257
509.708398	2623.708848
510.073236	2621.780607
510.438016	2622.009980
510.802738	2620.943776
511.167403	2624.306225
511.532010	2625.178345
511.896561	2628.805455
512.261053	2628.737399
512.625488	2627.323356
512.989866	2625.039713
513.354186	2627.956021
513.718449	2625.642131
514.082655	2627.973665
514.446803	2629.347379
514.810894	2631.431896
515.174927	2631.084057
515.538904	2628.984416
515.902822	2628.003912
516.266684	2626.753705
516.630488	2630.620270
516.994235	2629.400311
517.357925	2632.871146
517.721558	2633.718059
518.085133	2637.201497
518.448651	2630.068264
518.812112	2627.013325
519.175516	2629.561628
519.538863	2628.434930
519.902152	2632.825775
520.265385	2633.034983
520.628560	2634.045734
520.991678	2635.873153
521.354739	2631.653707
521.717743	2634.902731
522.080690	2631.855353
522.443580	2631.794859
522.806413	2637.559419
523.169189	2635.570683
523.531908	2633.770992
523.894569	2634.325518
524.257174	2635.369037
524.619722	2634.554891
524.982213	2633.816362
525.344647	2635.653862
525.707025	2634.595220
526.069345	2634.776702
526.431608	2633.589510
526.793815	2633.004736
527.155964	2633.087915
527.518057	2631.719242
527.880093	2631.951135
528.242072	2630.726135
528.603995	2631.497431
528.965860	2629.559107
529.327669	2627.993829
529.689421	2629.848974
530.051117	2629.319653
530.412755	2629.057513
530.774337	2627.454426
531.135862	2626.526853
531.497331	2625.493417
531.858743	2627.451905
532.220098	2624.827985
532.581396	2621.397479
532.942638	2623.819754
533.303824	2622.229270
533.664953	2622.710700
534.026025	2620.651389
534.387040	2623.343365
534.747999	2622.688015
535.108902	2621.878910
535.469748	2620.628703
535.830537	2620.694238
536.191270	2619.713734
536.551947	2615.945472
536.912567	2614.188629
537.273131	2616.953702
537.633638	2613.339195
537.994089	2618.181223
538.354483	2614.927158
538.714821	2616.111830
539.075103	2619.726337
539.435328	2617.573764
539.795497	2614.213835
540.155609	2618.103085
540.515665	2617.692231
540.875665	2613.694596
541.235609	2612.651077
541.595496	2615.181737
541.955328	2614.758280
542.315102	2614.246603
542.674821	2612.056221
543.034483	2614.239041
543.394090	2613.805502
543.753640	2612.076386
544.113134	2614.954885
544.472571	2612.693927
544.831953	2614.803650
545.191278	2612.479678
545.550548	2610.198556
545.909761	2610.788371
546.268918	2612.673763
546.628019	2615.148969
546.987064	2611.007661
547.346053	2610.531272
547.704986	2613.674432
548.063863	2613.016561
548.422684	2612.046139
548.781449	2610.823659
549.140158	2611.380707
549.498811	2613.455142
549.857408	2607.173864
550.215949	2610.700151
550.574434	2610.314503
550.932864	2611.665532
551.291237	2614.551592
551.649555	2609.875922
552.007817	2610.102774
552.366022	2610.921962
552.724173	2610.536313
553.082267	2612.794750
553.440305	2616.283229
553.798288	2613.634102
554.156215	2611.990686
554.514086	2608.252671
554.871902	2608.058586
555.229661	2608.600510
555.587365	2605.976590
555.945014	2609.530603
556.302606	2611.637806
556.660143	2612.646036
557.017625	2611.133690
557.375050	2611.239554
557.732421	2610.848865
558.089735	2609.936416
558.446994	2611.292487
558.804197	2613.193002
559.161345	2611.821808
559.518437	2610.127980
559.875474	2611.201746
560.232455	2612.094030
560.589381	2608.751745
560.946251	2610.077568
561.303065	2609.722167
561.659825	2611.849534
562.016528	2610.190994
562.373177	2609.119749
562.729770	2611.645367
563.086307	2609.197887
563.442789	2610.690069
563.799216	2613.918928
564.155587	2608.446755
564.511904	2610.707713
564.868164	2611.841972
565.224370	2613.228290
565.580520	2611.506736
565.936615	2612.328444
566.292654	2609.722167
566.648638	2607.602362
567.004567	2609.029008
567.360441	2610.153186
567.716260	2608.953391
568.072023	2610.838783
568.427732	2611.554627
568.783385	2609.921293
569.138982	2609.641509
569.494525	2610.982456
569.850013	2610.160747
570.205445	2610.296859
570.560823	2610.856427
570.916145	2608.217383
571.271412	2610.367435
571.626625	2609.916252
571.981782	2608.726539
572.336884	2609.989348
572.691931	2605.948863
573.046923	2606.727722
573.401860	2604.348297
573.756743	2608.522372
574.111570	2606.354676
574.466342	2606.682351
574.821059	2608.053545
575.175722	2604.116404
575.530330	2604.870057
575.884882	2605.948863
576.239380	2605.187649
576.593823	2605.888370
576.948211	2605.411981
577.302544	2604.771754
577.656823	2605.195211
578.011047	2602.379727
578.365216	2603.030035
578.719330	2601.747062
579.073389	2601.043821
579.427394	2600.108687
579.781344	2600.096084
580.135239	2598.724890
580.489080	2599.702874
580.842866	2599.493666
581.196597	2601.976434
581.550273	2600.441403
581.903895	2597.242791
582.257463	2599.889397
582.610975	2598.069540
582.964434	2602.087340
583.317837	2596.332862
583.671186	2598.787904
584.024481	2599.811259
584.377721	2597.459560
584.730906	2595.748089
585.084037	2601.747062
585.437113	2598.500559
585.790135	2595.370002
586.143103	2595.803541
586.496016	2595.548963
586.848874	2596.365630
587.201679	2596.836978
587.554428	2595.158274
587.907124	2595.367482
588.259765	2595.647266
588.612352	2594.366812
588.964884	2594.697008
589.317362	2597.139447
589.669786	2595.289344
590.022155	2593.174580
590.374470	2591.165680
590.726731	2594.460074
591.078937	2587.727613
591.431090	2591.689960
591.783188	2591.085021
592.135232	2590.303642
592.487222	2592.090732
592.839157	2592.161308
593.191038	2589.144177
593.542866	2591.430340
593.894639	2586.711820
594.246358	2589.285329
594.598022	2586.563106
594.949633	2588.758529
595.301190	2588.756008
595.652692	2588.400607
596.004141	2588.733323
596.355535	2583.465317
596.706876	2586.323652
597.058162	2587.039495
597.409395	2586.605956
597.760573	2586.671491
598.111698	2584.120667
598.462768	2585.983374
598.813785	2584.319793
599.164748	2583.283836
599.515657	2585.469176
599.866511	2583.999680
600.217312	2583.649319
600.568060	2579.349215
600.918753	2586.288363
601.269392	2582.648650
601.619978	2582.250399
601.970510	2583.949268
602.320988	2580.811150
602.671412	2584.292067
603.021783	2581.534555
603.372100	2581.693352
603.722363	2581.761407
604.072572	2581.148907
604.422728	2583.349371
604.772830	2580.743094
605.122878	2581.554720
605.472872	2583.253589
605.822813	2583.964392
606.172701	2580.241499
606.522534	2579.802919
606.872314	2583.540935
607.222041	2580.506160
607.571714	2580.256623
607.921333	2577.277301
608.270899	2580.380131
608.620411	2578.030953
608.969870	2580.927096
609.319276	2580.594380
609.668627	2580.758218
610.017926	2581.763928
610.367171	2581.448856
610.716362	2582.215111
611.065500	2583.934145
611.414585	2581.312745
611.763616	2578.991293
612.112594	2580.705286
612.461518	2583.798033
612.810389	2582.721747
613.159207	2584.186202
613.507971	2583.309042
613.856682	2584.637386
614.205340	2581.441294
614.553945	2582.709144
614.902496	2581.915163
615.250994	2587.352047
615.599439	2583.009093
615.947830	2582.315934
616.296169	2580.735532
616.644454	2582.845255
616.992686	2583.185533
617.340864	2584.886923
617.688990	2583.379618
618.037063	2587.042016
618.385082	2584.942375
618.733048	2585.524629
619.080961	2585.985894
619.428821	2583.810636
619.776628	2584.072776
620.124382	2584.095462
620.472083	2586.142170
620.819731	2582.817529
621.167326	2584.740729
621.514868	2583.919021
621.862357	2583.145204
622.209793	2581.106057
622.557176	2580.738053
622.904506	2579.132446
623.251783	2579.364339
623.599007	2579.374421
623.946179	2578.310737
624.293297	2573.274625
624.640363	2574.998699
624.987376	2573.199007
625.334336	2569.173646
625.681243	2570.933009
626.028097	2569.143399
626.374899	2572.659604
626.721647	2573.587176
627.068343	2570.693554
627.414987	2570.948132
627.761577	2569.889490
628.108115	2570.834706
628.454600	2567.459654
628.801032	2570.887638
629.147412	2566.723645
629.493739	2566.869839
629.840014	2569.002247
630.186236	2568.462843
630.532405	2565.609550
630.878521	2570.723801
631.224585	2567.240364
631.570597	2567.499983
631.916556	2565.977555
632.262462	2567.747000
632.608316	2567.726835
632.954117	2563.726679
633.299866	2567.336146
633.645562	2566.937894
633.991206	2565.314643
634.336797	2561.695094
634.682336	2562.980589
635.027823	2561.533778
635.373257	2563.590568
635.718639	2560.664178
636.063968	2559.877758
636.409245	2557.538663
636.754470	2560.661658
637.099642	2559.212326
637.444762	2557.795762
637.789829	2559.892882
638.134845	2556.626214
638.479808	2557.974723
638.824719	2555.484393
639.169577	2554.226625
639.514383	2556.411965
639.859137	2554.541697
640.203839	2551.897612
640.548489	2554.778631
640.893086	2553.029351
641.237632	2552.883157
641.582125	2554.176213
641.926566	2551.574978
642.270955	2550.818805
642.615292	2549.432488
642.959576	2550.097920
643.303809	2546.571633
643.647990	2553.140256
643.992118	2550.972560
644.336195	2553.014228
644.680219	2553.223435
645.024192	2552.749567
645.368112	2554.950031
645.711981	2552.694114
646.055797	2554.466080
646.399562	2553.271326
646.743274	2558.461194
647.086935	2556.903478
647.430544	2554.413148
647.774101	2559.318190
648.117606	2559.781977
648.461059	2555.562531
648.804460	2558.937583
649.147810	2555.539846
649.491108	2554.445915
649.834354	2554.188816
650.177548	2553.525905
650.520690	2551.267468
650.863781	2553.936759
651.206820	2552.772252
651.549807	2550.105482
651.892742	2548.071376
652.235626	2546.284287
652.578458	2548.381407
652.921238	2550.869217
653.263967	2547.748742
653.606644	2548.063814
653.949269	2546.997610
654.291843	2546.806047
654.634365	2546.964843
654.976836	2546.818649
655.319255	2545.626417
655.661622	2545.661705
656.003938	2548.671273
656.346203	2543.894780
656.688416	2546.107847
657.030577	2545.023999
657.372687	2542.374872
657.714746	2546.112888
658.056753	2546.238917
658.398708	2543.015099
658.740612	2548.330996
659.082465	2542.347146
659.424266	2540.214738
659.766016	2540.197094
660.107715	2540.050900
660.449362	2540.771785
660.790958	2546.848896
661.132503	2543.030222
661.473996	2543.302445
661.815438	2545.611293
662.156829	2543.378062
662.498168	2541.369162
662.839456	2544.446787
663.180693	2542.311858
663.521879	2547.206818
663.863013	2545.129863
664.204097	2541.646426
664.545129	2546.682538
664.886110	2544.247661
665.227040	2547.612631
665.567918	2544.290511
665.908746	2545.525593
666.249522	2544.920655
666.590248	2546.856458
666.930922	2545.447456
667.271545	2547.363094
667.612118	2547.176571
667.952639	2547.267312
668.293109	2544.988711
668.633528	2545.802857
668.973896	2545.460058
669.314213	2543.859492
669.654480	2543.589790
669.994695	2545.069369
670.334859	2544.673638
670.674973	2545.361756
671.015035	2546.155738
671.355047	2546.082641
671.695008	2543.675490
672.034918	2544.935778
672.374777	2547.264792
672.714585	2544.761859
673.054342	2543.405788
673.394049	2542.437887
673.733705	2546.080120
674.073310	2543.065510
674.412864	2546.077600
674.752368	2542.790767
675.091820	2543.551982
675.431223	2541.800181
675.770574	2541.477547
676.109875	2539.907227
676.449125	2539.766075
676.788324	2538.261291
677.127473	2535.871784
677.466571	2534.392205
677.805619	2537.527803
678.144616	2539.105684
678.483562	2540.411343
678.822458	2537.915972
679.161303	2540.164326
679.500098	2535.453368
679.838842	2537.285828
680.177535	2534.351876
680.516179	2540.789429
680.854771	2538.949408
681.193314	2541.767413
681.531805	2539.997968
681.870247	2543.090716
682.208638	2543.879657
682.546978	2544.242620
682.885268	2543.788916
683.223508	2545.669266
683.561697	2542.758000
683.899836	2544.388813
684.237925	2544.855120
684.575963	2544.696324
684.913951	2543.342774
685.251889	2539.554347
685.589776	2539.609799
685.927614	2543.307486
686.265401	2541.558205
686.603137	2542.082485
686.940824	2543.284801
687.278460	2545.122301
687.616046	2542.057280
687.953582	2545.689431
688.291068	2546.518701
688.628504	2546.705223
688.965889	2546.906870
689.303224	2545.180274
689.640510	2546.559030
689.977745	2545.051725
690.314930	2542.538710
690.652065	2544.345963
690.989150	2540.870088
691.326185	2536.461599
691.663170	2536.257432
692.000105	2535.375230
692.336990	2533.489839
692.673825	2531.871628
693.010610	2531.526309
693.347345	2527.916843
693.684030	2523.437778
694.020665	2526.618746
694.357251	2521.012983
694.693786	2528.582275
695.030272	2524.478776
695.366707	2526.016328
695.703093	2523.808303
696.039429	2523.031965
696.375716	2522.177489
696.711952	2522.847963
697.048139	2523.334434
697.384276	2523.894002
697.720363	2526.112110
698.056400	2524.675381
698.392388	2521.743950
698.728326	2524.551873
699.064214	2522.343848
699.400053	2521.469207
699.735842	2521.985926
700.071581	2523.737727
700.407270	2520.508867
700.742910	2517.126253
701.078501	2519.624145
701.414042	2519.954341
701.749533	2516.869154
702.084974	2518.547859
702.420366	2517.837056
702.755709	2514.484689
703.091002	2514.734226
703.426246	2514.245234
703.761440	2517.756398
704.096584	2516.354957
704.431679	2515.898732
704.766725	2517.322858
705.101721	2511.858247
705.436668	2516.236490
705.771565	2514.207425
706.106413	2515.613907
706.441212	2517.216994
706.775961	2516.390245
707.110661	2519.064577
707.445311	2520.786131
707.779913	2518.023579
708.114465	2515.913856
708.448967	2520.002232
708.783421	2518.247910
709.117825	2520.581964
709.452180	2524.582120
709.786485	2521.000380
710.120742	2523.163035
710.454949	2518.225225
710.789107	2522.545494
711.123216	2522.255627
711.457275	2528.857018
711.791286	2525.986081
712.125247	2531.652338
712.459159	2529.030938
712.793023	2529.308202
713.126837	2526.853160
713.460602	2530.684437
713.794318	2530.923891
714.127985	2527.402645
714.461602	2527.722759
714.795171	2524.982892
715.128691	2520.622293
715.462162	2524.267048
715.795584	2522.263189
716.128957	2520.206398
716.462281	2517.970647
716.795556	2520.599608
717.128782	2519.286388
717.461960	2516.508712
717.795088	2517.769000
718.128167	2514.272960
718.461198	2512.218690
718.794180	2514.119205
719.127113	2511.868330
719.459997	2512.138032
719.792833	2512.090141
720.125619	2511.134842
720.458357	2508.326919
720.791046	2512.889163
721.123686	2510.088802
721.456278	2510.262722
721.788821	2507.265756
722.121315	2509.811539
722.453761	2507.127125
722.786158	2509.483864
723.118506	2507.679131
723.450805	2509.327588
723.783056	2509.199039
724.115259	2511.220542
724.447412	2507.961436
724.779518	2510.156858
725.111574	2511.838083
725.443582	2510.376148
725.775542	2508.790705
726.107453	2510.413957
726.439315	2511.679287
726.771129	2514.507374
727.102895	2505.571929
727.434612	2510.275325
727.766281	2509.128463
728.097901	2514.862775
728.429473	2513.390758
728.760996	2516.619617
729.092471	2516.405368
729.423897	2513.912518
729.755276	2513.332785
730.086606	2515.676922
730.417887	2516.634741
730.749120	2516.541479
731.080305	2518.068949
731.411442	2520.957530
731.742530	2517.542148
732.073570	2519.533404
732.404562	2522.913498
732.735506	2521.610360
733.066401	2520.118178
733.397249	2519.238497
733.728048	2517.953003
734.058798	2514.305728
734.389501	2512.816067
734.720156	2513.602487
735.050762	2513.463855
735.381320	2508.659635
735.711831	2510.434122
736.042293	2510.429080
736.372707	2508.523524
736.703073	2511.046622
737.033391	2511.170130
737.363661	2507.285921
737.693883	2510.792043
738.024056	2506.897752
738.354182	2510.729029
738.684260	2509.262053
739.014290	2512.125429
739.344272	2513.582322
739.674207	2512.440501
740.004093	2513.010151
740.333931	2513.584843
740.663722	2514.905625
740.993464	2513.899915
741.323159	2516.407889
741.652806	2513.680625
741.982405	2512.178361
742.311956	2510.676097
742.641460	2512.160717
742.970915	2512.175840
743.300323	2508.881446
743.629683	2505.362721
743.958996	2505.728204
744.288260	2505.367762
744.617477	2507.699296
744.946647	2508.001765
745.275768	2504.225941
745.604842	2505.947495
745.933869	2503.590755
746.262847	2505.609737
746.591778	2505.493791
746.920662	2502.406084
747.249498	2505.067813
747.578286	2506.318019
747.907027	2504.213338
748.235720	2507.825324
748.564365	2506.547392
748.892963	2506.733915
749.221514	2506.978411
749.550017	2507.948833
749.878473	2506.116373
750.206881	2506.000427
750.535242	2505.115704
750.863555	2500.959273
751.191821	2503.946157
751.520039	2507.590911
751.848210	2505.491270
752.176334	2507.918586
752.504411	2502.426249
752.832440	2503.837772
753.160421	2501.113028
753.488356	2508.087464
753.816243	2504.677124
754.144082	2502.887514
754.471875	2503.389109
754.799620	2503.515138
755.127318	2502.370796
755.454969	2504.551095
755.782572	2503.747031
756.110129	2501.294510
756.437638	2504.218379
756.765100	2500.356855
757.092515	2505.975221
757.419882	2501.107987
757.747203	2502.297699
758.074477	2501.143275
758.401703	2502.527072
758.728882	2502.766527
759.056014	2503.028667
759.383099	2503.250477
759.710138	2504.331805
760.037129	2500.669407
760.364073	2503.784840
760.690970	2498.627739
761.017820	2503.328615
761.344623	2506.502022
761.671379	2507.706857
761.998088	2507.880777
762.324751	2512.528721
762.651366	2520.539114
762.977935	2531.672503
763.304456	2541.666590
763.630931	2548.711603
763.957359	2544.318237
764.283740	2540.749100
764.610074	2536.920344
764.936362	2527.503468
765.262602	2523.089938
765.588796	2515.744977
765.914943	2515.611387
766.241044	2510.721467
766.567097	2508.006806
766.893104	2506.781806
767.219064	2501.778460
767.544978	2502.217041
767.870845	2499.890548
768.196665	2500.041783
768.522438	2498.990702
768.848165	2497.730414
769.173846	2495.971051
769.499479	2497.138078
769.825066	2498.680671
770.150607	2496.835609
770.476101	2497.619508
770.801548	2494.622543
771.126949	2494.007522
771.452303	2495.421565
771.777611	2493.969713
772.102872	2493.634476
772.428087	2495.320742
772.753256	2492.001142
773.078378	2489.689773
773.403453	2492.475011
773.728482	2490.924856
774.053465	2492.354023
774.378401	2489.694815
774.703291	2491.350834
775.028135	2488.913436
775.352932	2489.767911
775.677683	2487.879999
776.002388	2487.857314
776.327046	2487.116264
776.651658	2486.944865
776.976224	2484.136943
777.300743	2487.111223
777.625216	2488.769763
777.949643	2490.093066
778.274024	2488.419403
778.598359	2486.796151
778.922647	2485.462766
779.246889	2490.067860
779.571086	2486.614670
779.895236	2485.931593
780.219339	2487.055771
780.543397	2489.289002
780.867409	2489.036944
781.191374	2490.514002
781.515294	2487.630462
781.839167	2490.393014
782.162995	2487.716162
782.486776	2487.605256
782.810511	2488.426964
783.134201	2488.104331
783.457844	2489.906543
783.781441	2487.156594
784.104993	2485.929073
784.428498	2484.935965
784.751958	2489.039465
785.075372	2486.208857
785.398739	2487.010400
785.722061	2486.007211
786.045337	2488.149701
786.368568	2488.051398
786.691752	2487.708600
787.014891	2490.294712
787.337983	2490.367809
787.661030	2490.332521
787.984031	2492.674137
788.306987	2494.357882
788.629897	2496.616319
788.952760	2496.913747
789.275579	2496.026504
789.598351	2493.833602
789.921078	2493.470639
790.243759	2490.420741
790.566395	2490.312356
790.888984	2490.450988
791.211529	2485.855976
791.534027	2491.307984
791.856480	2487.872438
792.178888	2484.010914
792.501249	2483.012765
792.823566	2485.629124
793.145836	2482.037302
793.468062	2489.374701
793.790241	2486.380256
794.112375	2487.237252
794.434464	2486.975112
794.756507	2489.672129
795.078505	2486.609628
795.400457	2488.643734
795.722364	2491.300422
796.044226	2493.763026
796.366042	2491.645741
796.687812	2490.103148
797.009538	2491.897799
797.331218	2493.510968
797.652852	2492.868221
797.974442	2493.768067
798.295986	2492.742192
798.617484	2491.285299
798.938938	2491.547439
799.260346	2490.803868
799.581709	2489.384784
799.903026	2491.247490
800.224299	2490.050216
800.545526	2490.808910
800.866708	2488.358909
801.187845	2488.855462
801.508936	2487.078456
801.829983	2487.627942
802.150984	2485.608959
802.471940	2488.016110
802.792851	2488.212715
803.113717	2484.658702
803.434538	2487.569968
803.755314	2485.891264
804.076045	2486.937303
804.396731	2485.485451
804.717372	2485.422437
805.037967	2486.428147
805.358518	2485.966881
805.679024	2487.753970
805.999485	2486.808754
806.319901	2488.976450
806.640272	2487.007880
806.960598	2486.097951
807.280879	2488.028713
807.601115	2489.238590
807.921306	2488.691625
808.241453	2483.171562
808.561554	2480.313227
808.881611	2485.233393
809.201623	2483.055615
809.521590	2487.839670
809.841513	2485.818167
810.161390	2486.768425
810.481223	2488.648775
810.801011	2486.672643
811.120755	2485.999649
811.440453	2486.854124
811.760107	2484.431850
812.079716	2486.942345
812.399281	2485.024186
812.718801	2487.196923
813.038276	2486.496203
813.357707	2484.628455
813.677093	2483.312714
813.996434	2485.782879
814.315731	2484.573002
814.634983	2484.988897
814.954191	2484.262971
815.273354	2485.397231
815.592473	2488.487458
815.911547	2489.770432
816.230577	2490.647593
816.549562	2486.433188
816.868502	2487.743888
817.187399	2489.646924
817.506250	2488.789927
817.825058	2490.292191
818.143821	2490.735813
818.462539	2492.336379
818.781213	2491.774291
819.099843	2497.090187
819.418429	2498.466422
819.736970	2503.263080
820.055466	2507.240551
820.373919	2512.044770
820.692327	2525.509692
821.010691	2537.588297
821.329011	2569.677762
821.647286	2621.200874
821.965517	2687.734023
822.283704	2735.917371
822.601847	2764.921650
822.919945	2743.232086
823.237999	2718.782489
823.556010	2688.006245
823.873976	2655.468118
824.191897	2627.618263
824.509775	2601.878132
824.827609	2586.638724
825.145398	2565.811197
825.463144	2562.683161
825.780845	2562.499158
826.098502	2564.961762
826.416116	2579.558423
826.733685	2593.789600
827.051210	2602.488111
827.368692	2599.871752
827.686129	2583.692169
828.003522	2571.507700
828.320872	2552.545400
828.638177	2540.479398
828.955439	2529.459436
829.272656	2518.895698
829.589830	2513.320182
829.906960	2509.965294
830.224046	2502.554798
830.541088	2502.063286
830.858086	2497.990033
831.175041	2495.688747
831.491952	2495.411483
831.808819	2493.770588
832.125642	2498.226968
832.442421	2497.483397
832.759157	2504.407422
833.075849	2518.396624
833.392497	2530.167718
833.709101	2540.786909
834.025662	2544.436704
834.342179	2538.818338
834.658653	2531.657379
834.975083	2521.985926
835.291469	2515.127436
835.607811	2505.861795
835.924110	2503.759634
836.240366	2497.685043
836.556578	2497.581700
836.872746	2494.690598
837.188871	2490.478714
837.504952	2489.568786
837.820990	2486.566779
838.136984	2486.654999
838.452935	2486.581902
838.768842	2485.157776
839.084706	2487.932931
839.400526	2491.161790
839.716303	2497.397698
840.032037	2500.356855
840.347727	2502.612771
840.663373	2500.379540
840.978977	2494.350320
841.294537	2493.294198
841.610054	2489.266317
841.925527	2486.808754
842.240957	2487.141470
842.556344	2483.277426
842.871687	2481.455049
843.186987	2482.375059
843.502244	2476.791981
843.817458	2480.474544
844.132629	2475.672845
844.447756	2478.299286
844.762840	2476.544965
845.077881	2477.190232
845.392879	2474.906590
845.707833	2476.852475
846.022745	2475.763586
846.337613	2478.359780
846.652438	2471.944912
846.967221	2477.845583
847.281960	2477.684266
847.596656	2476.267701
847.911309	2475.037660
848.225919	2477.280973
848.540485	2473.565643
848.855009	2474.243678
849.169490	2474.699903
849.483928	2472.912813
849.798323	2474.702423
850.112675	2472.300313
850.426984	2474.110088
850.741251	2472.738894
851.055474	2472.512042
851.369654	2475.236785
851.683792	2473.157309
851.997887	2473.946250
852.311938	2474.984728
852.625947	2472.973307
852.939914	2474.878863
853.253837	2473.613534
853.567718	2477.724595
853.881555	2475.125880
854.195350	2474.999851
854.509103	2477.265850
854.822812	2472.428863
855.136479	2474.868781
855.450103	2472.489357
855.763685	2472.995992
856.077224	2467.624643
856.390720	2473.530355
856.704173	2470.447689
857.017584	2473.316106
857.330953	2474.407516
857.644278	2474.251240
857.957561	2477.974132
858.270802	2476.413895
858.584000	2474.717547
858.897155	2475.325006
859.210268	2472.257463
859.523339	2474.412557
859.836367	2474.420118
860.149352	2473.684110
860.462295	2475.380458
860.775195	2472.902731
861.088054	2475.095633
861.400869	2476.038329
861.713642	2473.830303
862.026373	2474.924234
862.339062	2474.447845
862.651708	2476.156796
862.964312	2472.101188
863.276873	2476.620582
863.589392	2475.163689
863.901869	2476.300469
864.214303	2475.559419
864.526696	2476.514718
864.839045	2478.931951
865.151353	2474.168061
865.463619	2475.884574
865.775842	2478.994966
866.088023	2477.447331
866.400162	2479.171406
866.712258	2476.020685
867.024313	2480.454380
867.336325	2474.193267
867.648296	2475.907259
867.960224	2476.718885
868.272110	2478.284163
868.583954	2478.206025
868.895755	2478.135449
869.207515	2477.850624
869.519233	2475.330047
869.830909	2477.696868
870.142542	2477.414564
870.454134	2477.369193
870.765684	2474.893987
871.077191	2477.280973
871.388657	2476.885243
871.700081	2473.714357
872.011463	2477.994297
872.322803	2473.406847
872.634101	2478.127887
872.945357	2480.335913
873.256571	2478.639564
873.567744	2478.236272
873.878874	2480.204843
874.189963	2480.426653
874.501010	2477.205356
874.812015	2482.622076
875.122979	2478.334574
875.433900	2483.242138
875.744780	2479.476396
876.055618	2479.516725
876.366415	2480.764411
876.677169	2483.398413
876.987882	2480.477065
877.298554	2482.044864
877.609183	2484.043681
877.919771	2484.313383
878.230317	2485.742550
878.540822	2487.426295
878.851285	2490.161121
879.161707	2488.187510
879.472087	2497.546412
879.782425	2500.389622
880.092722	2513.756242
880.402977	2536.126362
880.713191	2558.073025
881.023363	2588.060329
881.333494	2607.539347
881.643583	2618.826491
881.953631	2620.159876
882.263637	2614.949844
882.573602	2603.024994
882.883526	2593.736668
883.193408	2585.010431
883.503248	2572.924265
883.813048	2564.598799
884.122806	2554.282078
884.432522	2541.467465
884.742197	2534.112421
885.051831	2524.652696
885.361424	2519.407375
885.670975	2514.038547
885.980485	2506.623009
886.289954	2503.570591
886.599382	2500.593789
886.908768	2492.865700
887.218113	2489.336893
887.527417	2489.228508
887.836680	2484.167189
888.145901	2487.809423
888.455082	2487.746409
888.764221	2485.311531
889.073319	2484.129381
889.382376	2483.305152
889.691392	2484.464618
890.000366	2486.206336
890.309300	2482.087713
890.618193	2484.199957
890.927044	2482.281798
891.235855	2483.796665
891.544625	2483.088382
891.853353	2484.590646
892.162041	2484.043681
892.470687	2485.999649
892.779293	2486.959989
893.087858	2488.159783
893.396381	2492.815289
893.704864	2494.539363
894.013306	2503.590755
894.321707	2516.052488
894.630068	2520.337468
894.938387	2522.225380
895.246665	2523.258817
895.554903	2519.014165
895.863100	2511.321365
896.171256	2511.588546
896.479371	2506.134017
896.787446	2504.858605
897.095480	2501.196207
897.403473	2498.075733
897.711425	2497.153202
898.019336	2491.186996
898.327207	2491.139105
898.635038	2491.297902
898.942827	2489.442757
899.250576	2486.551655
899.558284	2486.770945
899.865952	2483.068218
900.173579	2481.175265
900.481165	2484.646099
900.788711	2484.114257
901.096216	2481.722230
901.403681	2479.362970
901.711105	2481.974288
902.018489	2481.253403
902.325832	2478.747949
902.633135	2477.903556
902.940397	2484.220122
903.247619	2484.799854
903.554800	2497.765702
903.861941	2511.913700
904.169041	2522.873169
904.476101	2530.515558
904.783121	2533.550333
905.090100	2525.789476
905.397039	2520.513909
905.703938	2513.625172
906.010796	2508.720129
906.317614	2504.031856
906.624391	2499.189828
906.931129	2499.865343
907.237826	2495.056082
907.544483	2492.737151
907.851099	2490.317397
908.157675	2484.507467
908.464211	2483.763897
908.770707	2479.189050
909.077163	2477.328864
909.383578	2477.245685
909.689954	2476.373566
909.996289	2475.824080
910.302584	2475.080510
910.608839	2473.681589
910.915054	2474.019347
911.221229	2474.306693
911.527363	2475.776189
911.833458	2477.023874
912.139513	2478.387507
912.445527	2474.795684
912.751502	2474.611682
913.057436	2476.479430
913.363331	2479.120994
913.669186	2480.391365
913.975000	2478.889101
914.280775	2482.218783
914.586510	2486.060143
914.892205	2493.533653
915.197859	2500.356855
915.503475	2511.505367
915.809050	2519.382170
916.114585	2526.691843
916.420081	2528.967924
916.725536	2530.722245
917.030952	2528.398273
917.336328	2525.749147
917.641665	2520.334948
917.946961	2516.375121
918.252218	2512.231293
918.557435	2506.128976
918.862612	2506.696106
919.167750	2503.363903
919.472848	2501.579335
919.777906	2497.793428
920.082925	2494.912409
920.387904	2492.096924
920.692843	2486.826398
920.997743	2491.708756
921.302603	2483.108547
921.607423	2482.138125
921.912204	2481.230717
922.216946	2482.559061
922.521647	2479.110912
922.826310	2476.376086
923.130932	2477.535552
923.435516	2477.941364
923.740059	2476.338277
924.044564	2477.159986
924.349028	2474.478092
924.653454	2473.633698
924.957840	2473.893318
925.262186	2474.616723
925.566493	2476.708802
925.870761	2472.575056
926.174989	2472.542289
926.479178	2473.447176
926.783328	2472.748976
927.087438	2472.696044
927.391509	2472.577577
927.695541	2472.189408
927.999533	2472.575056
928.303486	2470.634212
928.607400	2469.547843
928.911275	2466.384519
929.215110	2471.700416
929.518906	2468.027935
929.822663	2469.225209
930.126381	2468.511886
930.430060	2470.666979
930.733699	2469.613378
931.037299	2466.823100
931.340861	2470.147741
931.644383	2468.466516
931.947866	2471.166054
932.251309	2468.869808
932.554714	2466.618933
932.858080	2467.586834
933.161407	2466.883593
933.464694	2468.373254
933.767943	2463.528706
934.071153	2470.500621
934.374323	2467.130610
934.677455	2470.987093
934.980548	2468.060703
935.283602	2470.477936
935.586617	2469.923409
935.889593	2470.772844
936.192530	2468.085909
936.495428	2469.154633
936.798287	2472.280149
937.101108	2468.453913
937.403890	2469.953656
937.706632	2470.946763
938.009336	2470.316619
938.312002	2474.357104
938.614628	2473.323667
938.917216	2470.435086
939.219765	2473.474902
939.522275	2473.033801
939.824747	2473.230406
940.127179	2472.978348
940.429573	2472.640591
940.731929	2474.447845
941.034246	2475.677886
941.336524	2471.584469
941.638763	2475.075468
941.940964	2471.334932
942.243126	2473.598410
942.545250	2474.107567
942.847335	2472.290231
943.149381	2472.290231
943.451389	2472.524645
943.753359	2471.899542
944.055290	2468.675724
944.357182	2468.408543
944.659036	2471.302165
944.960851	2472.355766
945.262628	2472.663276
945.564367	2471.680251
945.866067	2471.334932
946.167729	2471.619757
946.469352	2469.124386
946.770937	2470.319140
947.072484	2470.669500
947.373992	2471.675210
947.675462	2467.717904
947.976893	2467.783439
948.278286	2465.272945
948.579641	2468.101032
948.880958	2466.266052
949.182236	2469.857874
949.483476	2469.729325
949.784678	2466.578604
950.085841	2469.036166
950.386967	2471.352576
950.688054	2470.750158
950.989103	2471.660087
951.290114	2468.811835
951.591087	2472.141517
951.892021	2474.092443
952.192917	2470.987093
952.493776	2471.055148
952.794596	2470.573718
953.095378	2473.280818
953.396122	2470.944243
953.696828	2470.767803
953.997496	2471.380303
954.298126	2471.057669
954.598718	2472.527165
954.899272	2472.055817
955.199788	2471.435755
955.500266	2470.588842
955.800706	2466.502986
956.101108	2471.007257
956.401472	2467.443162
956.701798	2468.849643
957.002087	2468.970631
957.302337	2468.443831
957.602550	2468.353090
957.902724	2466.566001
958.202861	2465.018367
958.502960	2465.333439
958.803022	2467.496094
959.103045	2465.267904
959.403031	2465.361165
959.702979	2464.191617
960.002889	2467.261680
960.302762	2466.664303
960.602596	2468.340487
960.902393	2462.157512
961.202153	2469.273100
961.501875	2465.416618
961.801559	2464.045424
962.101205	2466.618933
962.400814	2465.338480
962.700385	2465.436782
962.999918	2463.858901
963.299414	2458.583334
963.598873	2465.678758
963.898293	2461.502162
964.197677	2463.715228
964.497022	2464.816720
964.796331	2465.414097
965.095601	2463.732872
965.394835	2466.361834
965.694030	2468.272431
965.993189	2464.058027
966.292309	2465.051134
966.591393	2463.750516
966.890439	2463.755558
967.189447	2464.604992
967.488419	2464.365537
967.787353	2463.251442
968.086249	2463.974848
968.385108	2464.264714
968.683930	2466.119859
968.982714	2464.899899
969.281462	2463.949642
969.580172	2465.232616
969.878844	2463.702625
970.177480	2467.307050
970.476078	2463.972327
970.774639	2464.186576
971.073162	2461.933180
971.371649	2463.107769
971.670098	2465.182204
971.968510	2465.741772
972.266885	2464.408387
972.565223	2465.898048
972.863524	2463.742955
973.161788	2465.078860
973.460014	2463.097687
973.758204	2466.276134
974.056356	2466.187914
974.354471	2463.652214
974.652550	2463.768160
974.950591	2465.870322
975.248595	2462.855712
975.546563	2466.306381
975.844493	2465.686319
976.142386	2464.821762
976.440243	2465.696402
976.738062	2463.405197
977.035845	2467.165898
977.333590	2465.683799
977.631299	2465.411577
977.928971	2461.638273
978.226606	2459.082408
978.524204	2463.195989
978.821765	2461.348407
979.119290	2463.682461
979.416777	2464.995681
979.714228	2463.606843
980.011642	2464.189097
980.309020	2462.117182
980.606360	2466.122379
980.903664	2463.742955
981.200931	2467.067596
981.498162	2464.423510
981.795356	2467.196145
982.092513	2470.863584
982.389633	2469.149592
982.686717	2471.965077
982.983764	2468.436269
983.280775	2474.321816
983.577749	2472.191928
983.874686	2472.083544
984.171587	2471.960035
984.468451	2471.382823
984.765279	2470.621609
985.062070	2470.989613
985.358824	2471.539099
985.655543	2467.420476
985.952224	2469.353759
986.248869	2468.229582
986.545478	2467.773357
986.842050	2466.303861
987.138586	2466.450054
987.435086	2467.460806
987.731549	2462.855712
988.027975	2466.485342
988.324366	2462.966617
988.620719	2461.650876
988.917037	2463.886628
989.213318	2463.455609
989.509563	2466.276134
989.805772	2463.495938
990.101944	2469.368882
990.398080	2461.562656
990.694180	2461.461832
990.990244	2463.458129
991.286271	2461.081225
991.582262	2462.132306
991.878217	2463.047275
992.174136	2463.944601
992.470019	2464.920064
992.765865	2460.811524
993.061676	2460.304888
993.357450	2462.341514
993.653188	2457.829681
993.948890	2465.240177
994.244556	2462.825465
994.540186	2461.590382
994.835780	2467.778398
995.131337	2465.819910
995.426859	2461.955866
995.722345	2464.589868
996.017795	2468.590024
996.313208	2468.237143
996.608586	2466.999540
996.903928	2469.101701
997.199234	2471.231589
997.494504	2468.721094
997.789738	2466.109776
998.084936	2468.274952
998.380099	2466.724797
998.675225	2466.707153
998.970316	2465.683799
999.265371	2466.119859
999.560390	2467.231433
999.855373	2468.101032
1000.150320	2466.906279
1000.445232	2462.265897
1000.740108	2463.062399
1001.034948	2465.013325
1001.329752	2461.855043
1001.624521	2463.627008
1001.919254	2464.627677
1002.213951	2462.999384
1002.508613	2464.783953
1002.803239	2463.470732
1003.097829	2462.578448
1003.392384	2463.563994
1003.686903	2462.341514
1003.981386	2463.488376
1004.275834	2462.071812
1004.570246	2462.016359
1004.864623	2464.408387
1005.158964	2464.310084
1005.453270	2463.964765
1005.747540	2462.800259
1006.041775	2462.265897
1006.335974	2462.328911
1006.630138	2461.570217
1006.924266	2464.368058
1007.218359	2460.670371
1007.512416	2461.774384
1007.806438	2461.048458
1008.100425	2460.864456
1008.394376	2460.720783
1008.688292	2461.479477
1008.982172	2461.875207
1009.276017	2462.167594
1009.569827	2461.930660
1009.863602	2461.842440
1010.157341	2459.901595
1010.451045	2462.732203
1010.744714	2461.555094
1011.038347	2460.821606
1011.331945	2461.829837
1011.625508	2462.568366
1011.919036	2463.241360
1012.212528	2461.106431
1012.505986	2462.056689
1012.799408	2459.717593
1013.092795	2462.916205
1013.386147	2461.610547
1013.679464	2461.353448
1013.972745	2461.103911
1014.265992	2459.914198
1014.559204	2461.098869
1014.852380	2460.738427
1015.145521	2462.530557
1015.438628	2463.236319
1015.731699	2464.947790
1016.024736	2460.262038
1016.317737	2463.150619
1016.610703	2462.081894
1016.903635	2459.992336
1017.196531	2461.257666
1017.489393	2460.791359
1017.782219	2461.933180
1018.075011	2462.492748
1018.367768	2462.437296
1018.660490	2463.735393
1018.953177	2463.735393
1019.245829	2463.735393
