Dividing Wavelength (nm)	Counts (n)	Blue Motor Position (mm): 0.000000	Red Motor Position (mm): 14.500000	
326.493990	2054.149205
326.888308	2054.149205
327.282561	2054.149205
327.676750	2026.760616
328.070874	2032.686492
328.464933	2033.709846
328.858929	2043.038502
329.252859	2053.055274
329.646726	2068.163612
330.040528	2083.776066
330.434265	2099.350711
330.827938	2122.484566
331.221547	2141.056176
331.615091	2161.258600
332.008571	2179.946158
332.401986	2202.419622
332.795338	2221.449977
333.188625	2241.538975
333.581847	2259.966913
333.975006	2279.410644
334.368100	2295.123920
334.761129	2311.411888
335.154095	2328.677840
335.546996	2342.369614
335.939833	2356.598271
336.332606	2370.723584
336.725315	2382.623227
337.117960	2394.764847
337.510540	2403.707853
337.903056	2412.991138
338.295508	2418.365008
338.687896	2425.767943
339.080220	2431.517379
339.472480	2434.809252
339.864676	2440.132711
340.256807	2442.779316
340.648875	2445.436004
341.040879	2444.034564
341.432818	2447.666715
341.824694	2450.484720
342.216506	2448.022116
342.608253	2447.946499
342.999937	2444.745366
343.391557	2447.681838
343.783113	2443.951385
344.174605	2442.988524
344.566033	2441.710592
344.957397	2442.083637
345.348697	2438.930395
345.739934	2438.587597
346.131106	2438.703543
346.522215	2433.450661
346.913260	2433.503593
347.304241	2433.415373
347.695159	2427.345824
348.086012	2430.022677
348.476802	2425.856163
348.867528	2421.467838
349.258191	2418.599422
349.648789	2423.227201
350.039324	2416.449370
350.429796	2418.717889
350.820203	2417.510533
351.210548	2419.474062
351.600828	2418.576737
351.991045	2417.482806
352.381198	2418.183527
352.771288	2416.585481
353.161314	2417.613876
353.551276	2419.595050
353.941175	2413.810326
354.331010	2419.937848
354.720782	2416.630851
355.110490	2415.771335
355.500135	2418.738054
355.889717	2416.320820
356.279235	2418.327200
356.668689	2417.200502
357.058080	2421.596388
357.447408	2419.592529
357.836672	2418.549010
358.225873	2420.961203
358.615010	2421.752664
359.004084	2422.609660
359.393095	2421.024217
359.782043	2421.573703
360.170927	2422.828950
360.559748	2424.106882
360.948505	2425.213416
361.337199	2427.653334
361.725830	2427.497058
362.114398	2425.687284
362.502903	2425.049578
362.891344	2424.648807
363.279722	2428.107038
363.668037	2429.654672
364.056289	2428.711977
364.444478	2429.193407
364.832603	2428.943870
365.220665	2432.296237
365.608665	2432.686926
365.996601	2428.233067
366.384474	2429.677357
366.772284	2430.632656
367.160031	2432.994437
367.547715	2434.809252
367.935336	2429.692481
368.322893	2432.565939
368.710388	2429.284148
369.097820	2434.163984
369.485189	2430.420928
369.872495	2434.897472
370.259738	2435.686413
370.646918	2435.149530
371.034035	2434.395878
371.421090	2438.310333
371.808081	2439.429470
372.195010	2438.746393
372.581875	2441.143462
372.968678	2441.256888
373.355418	2441.758483
373.742096	2442.963318
374.128710	2445.504060
374.515262	2447.923814
374.901751	2450.845162
375.288177	2455.609053
375.674540	2455.614094
376.060841	2459.831019
376.447079	2465.968624
376.833254	2471.339973
377.219367	2474.596559
377.605417	2484.431850
377.991404	2487.590133
378.377329	2493.997439
378.763191	2502.852226
379.148991	2509.743483
379.534727	2516.642303
379.920402	2526.472553
380.306013	2533.830117
380.691563	2548.237734
381.077049	2559.192162
381.462474	2570.582649
381.847835	2581.743763
382.233134	2596.501741
382.618371	2612.363732
383.003545	2626.279837
383.388657	2640.357259
383.773706	2658.707059
384.158693	2673.175171
384.543618	2689.926925
384.928480	2705.763710
385.313280	2727.922101
385.698017	2744.535224
386.082692	2769.587238
386.467305	2782.880761
386.851856	2809.457724
387.236344	2837.983093
387.620770	2851.536235
388.005133	2874.728063
388.389435	2907.513207
388.773674	2917.537542
389.157851	2954.511884
389.541965	2981.068683
389.926018	2991.725682
390.310008	3026.479397
390.693936	3052.821946
391.077802	3076.953950
391.461606	3108.055348
391.845348	3128.003194
392.229027	3155.595950
392.612645	3198.503731
392.996200	3227.755026
393.379694	3263.867331
393.763125	3303.931902
394.146494	3332.910974
394.529801	3368.002446
394.913047	3412.785537
395.296230	3417.637647
395.679351	3441.073971
396.062410	3495.047085
396.445408	3473.206286
396.828343	3512.360928
397.211217	3544.382337
397.594028	3517.397041
397.976778	3565.043506
398.359466	3592.984101
398.742092	3606.668313
399.124656	3616.647277
399.507158	3675.785053
399.889598	3678.373686
400.271977	3733.652458
400.654294	3720.724419
401.036549	3776.035959
401.418742	3765.527674
401.800874	3826.737364
402.182944	3844.961135
402.564952	3921.344698
402.946898	3907.872215
403.328783	3891.226325
403.710606	3930.890123
404.092367	3982.950119
404.474067	4034.717728
404.855705	4005.413500
405.237282	3962.357005
405.618797	4038.612019
406.000250	4086.712188
406.381642	4144.909789
406.762972	4129.546873
407.144240	4078.900921
407.525447	4116.018936
407.906593	4106.912092
408.287677	4157.318589
408.668700	4153.729288
409.049661	4165.518026
409.430560	4166.745547
409.811399	4129.647696
410.192176	4143.629336
410.572891	4177.571425
410.953545	4227.672932
411.334138	4121.347436
411.714669	4172.202596
412.095139	4079.057196
412.475547	4127.696769
412.855894	4095.680401
413.236180	4130.580309
413.616405	4046.856826
413.996568	4078.487546
414.376670	4048.303637
414.756711	4005.093387
415.136691	4014.227958
415.516609	4026.089793
415.896466	4011.548585
416.276262	4014.043956
416.655997	4035.859549
417.035670	4043.627967
417.415283	4072.453285
417.794834	4066.073705
418.174324	4001.189013
418.553753	3955.959781
418.933121	3989.682580
419.312428	3946.184984
419.691674	3869.226729
420.070859	3919.517280
420.449983	3823.379956
420.829045	3855.224924
421.208047	3777.959159
421.586988	3789.795789
421.965867	3766.861059
422.344686	3750.535283
422.723444	3752.957557
423.102141	3588.159717
423.480777	3660.341478
423.859352	3563.725244
424.237866	3617.842031
424.616319	3570.334197
424.994712	3568.526943
425.373044	3499.077488
425.751314	3523.007845
426.129524	3409.682706
426.507673	3425.895057
426.885762	3388.797206
427.263789	3356.236393
427.641756	3328.240345
428.019662	3301.875111
428.397508	3267.053341
428.775292	3223.391907
429.153016	3207.789536
429.530679	3164.123061
429.908282	3132.245325
430.285824	3089.614807
430.663305	3085.755804
431.040726	3041.219731
431.418086	3007.212107
431.795385	2986.755104
432.172624	2976.082982
432.549802	2936.381375
432.926920	2917.398910
433.303977	2885.317007
433.680974	2863.526619
434.057910	2851.427850
434.434786	2830.756599
434.811601	2804.928247
435.188355	2797.885755
435.565050	2769.836775
435.941683	2752.023858
436.318257	2747.915317
436.694770	2727.309601
437.071222	2715.772921
437.447614	2690.738551
437.823946	2676.560305
438.200218	2664.660662
438.576429	2648.818836
438.952580	2641.012609
439.328670	2627.346041
439.704700	2616.489916
440.080670	2606.178236
440.456580	2601.260590
440.832429	2591.190886
441.208218	2577.249575
441.583947	2573.105746
441.959616	2566.093501
442.335224	2559.774415
442.710773	2556.888354
443.086261	2551.544731
443.461689	2544.819832
443.837057	2541.233051
444.212365	2541.187681
444.587612	2534.180477
444.962800	2526.853160
445.337927	2527.327028
445.712995	2518.247910
446.088002	2525.597912
446.462949	2524.715710
446.837837	2526.643952
447.212664	2520.226563
447.587431	2524.791328
447.962139	2531.259128
448.336786	2536.426311
448.711374	2529.401463
449.085901	2523.901564
449.460369	2522.081708
449.834776	2520.642458
450.209124	2525.726462
450.583412	2520.241686
450.957640	2521.499454
451.331808	2519.588857
451.705917	2514.661129
452.079965	2512.226252
452.453954	2512.533762
452.827883	2511.369256
453.201752	2512.654750
453.575562	2514.146931
453.949311	2509.766169
454.323001	2509.682990
454.696632	2510.696262
455.070202	2511.263391
455.443713	2512.735408
455.817164	2510.907990
456.190556	2511.051663
456.563888	2513.249606
456.937160	2513.118536
457.310373	2511.273474
457.683526	2508.299193
458.056619	2509.645181
458.429653	2508.584018
458.802628	2511.255830
459.175542	2509.320027
459.548398	2510.698782
459.921194	2511.452435
460.293930	2512.654750
460.666607	2517.791686
461.039224	2518.857890
461.411782	2518.192457
461.784280	2515.127436
462.156719	2520.687828
462.529099	2521.738909
462.901419	2516.521315
463.273680	2511.220542
463.645882	2509.816580
464.018024	2509.930006
464.390106	2512.465707
464.762130	2515.747498
465.134094	2524.788807
465.505999	2528.904909
465.877845	2538.694830
466.249631	2545.243289
466.621358	2539.740869
466.993026	2539.312371
467.364634	2539.841692
467.736184	2532.128727
468.107674	2526.263345
468.479105	2528.327697
468.850477	2526.384332
469.221790	2527.044723
469.593043	2521.300329
469.964238	2520.251769
470.335373	2520.279495
470.706449	2521.708662
471.077467	2523.851152
471.448425	2532.312729
471.819324	2538.125180
472.190164	2539.191384
472.560945	2533.063861
472.931667	2525.897861
473.302330	2526.331400
473.672934	2525.184538
474.043479	2521.751512
474.413965	2524.864424
474.784393	2523.412572
475.154761	2525.771832
475.525070	2522.943745
475.895321	2522.477438
476.265513	2525.691174
476.635645	2524.766122
477.005719	2526.845598
477.375734	2527.790814
477.745691	2529.323325
478.115588	2527.959693
478.485427	2532.842050
478.855207	2538.372196
479.224928	2542.294214
479.594591	2545.298742
479.964194	2546.314534
480.333739	2543.317568
480.703226	2548.630944
481.072653	2549.319062
481.442022	2551.136398
481.811333	2548.585574
482.180584	2545.709596
482.549777	2548.454504
482.918912	2540.003009
483.287988	2547.746222
483.657005	2547.824360
484.025964	2545.301262
484.394864	2545.313865
484.763706	2544.923176
485.132489	2545.039122
485.501213	2546.511139
485.869879	2543.403268
486.238487	2543.040305
486.607036	2546.246478
486.975527	2544.371169
487.343959	2547.378217
487.712333	2545.389482
488.080648	2544.993752
488.448905	2544.426622
488.817104	2547.179092
489.185244	2546.801005
489.553326	2552.830225
489.921350	2557.160577
490.289315	2561.571586
490.657222	2566.562328
491.025070	2567.956207
491.392861	2564.137533
491.760593	2562.151319
492.128267	2561.869014
492.495883	2560.586041
492.863440	2555.625545
493.230939	2553.314176
493.598380	2556.603529
493.965763	2551.441387
494.333088	2547.831921
494.700354	2549.142621
495.067563	2548.479710
495.434713	2548.169679
495.801805	2551.781665
496.168839	2545.245809
496.535815	2548.270502
496.902733	2549.170348
497.269593	2549.954247
497.636395	2549.276212
498.003139	2548.212528
498.369825	2548.378887
498.736453	2547.098433
499.103023	2547.736139
499.469535	2551.832077
499.835989	2549.346788
500.202385	2545.180274
500.568723	2544.892929
500.935003	2548.154555
501.301226	2545.510470
501.667390	2548.555327
502.033497	2553.631769
502.399546	2547.635316
502.765537	2549.014072
503.131470	2551.728733
503.497345	2550.435677
503.863163	2550.488609
504.228923	2548.078938
504.594625	2550.037426
504.960269	2549.109854
505.325856	2551.297715
505.691385	2552.293343
506.056856	2553.087324
506.422270	2551.325441
506.787625	2549.044319
507.152924	2550.987684
507.518164	2551.922818
507.883347	2549.845862
508.248472	2548.923331
508.613540	2551.345606
508.978550	2551.431305
509.343503	2549.999618
509.708398	2552.550441
510.073236	2553.951882
510.438016	2551.960626
510.802738	2553.626728
511.167403	2553.064639
511.532010	2551.975750
511.896561	2552.005997
512.261053	2552.658826
512.625488	2553.137736
512.989866	2554.496327
513.354186	2554.309804
513.718449	2551.244782
514.082655	2554.241748
514.446803	2549.233362
514.810894	2556.472459
515.174927	2553.084804
515.538904	2553.382232
515.902822	2554.362736
516.266684	2548.966181
516.630488	2554.592109
516.994235	2551.486758
517.357925	2550.402910
517.721558	2555.013045
518.085133	2553.314176
518.448651	2551.958106
518.812112	2547.791592
519.175516	2549.069525
519.538863	2545.923845
519.902152	2554.148487
520.265385	2553.891388
520.628560	2550.811243
520.991678	2554.680329
521.354739	2549.818136
521.717743	2554.481203
522.080690	2551.552293
522.443580	2549.931562
522.806413	2551.569937
523.169189	2552.903322
523.531908	2552.331151
523.894569	2550.423074
524.257174	2551.171686
524.619722	2551.716130
524.982213	2553.115051
525.344647	2552.840308
525.707025	2549.203115
526.069345	2551.345606
526.431608	2551.149001
526.793815	2551.562375
527.155964	2549.961809
527.518057	2546.165820
527.880093	2551.060780
528.242072	2549.611449
528.603995	2546.501057
528.965860	2545.336550
529.327669	2549.276212
529.689421	2547.637837
530.051117	2549.959288
530.412755	2549.949206
530.774337	2545.790254
531.135862	2547.481561
531.497331	2544.542568
531.858743	2548.325954
532.220098	2549.762683
532.581396	2546.433001
532.942638	2547.511808
533.303824	2546.932075
533.664953	2544.540048
534.026025	2547.607590
534.387040	2547.327806
534.747999	2547.713454
535.108902	2548.109185
535.469748	2545.336550
535.830537	2546.309493
536.191270	2547.569781
536.551947	2544.217414
536.912567	2541.661549
537.273131	2544.650953
537.633638	2538.465458
537.994089	2543.614996
538.354483	2544.751776
538.714821	2544.635830
539.075103	2544.192208
539.435328	2543.451159
539.795497	2545.157589
540.155609	2543.304965
540.515665	2545.465100
540.875665	2543.622558
541.235609	2543.793957
541.595496	2546.869061
541.955328	2545.525593
542.315102	2544.383772
542.674821	2541.893442
543.034483	2542.987373
543.394090	2542.889070
543.753640	2543.320089
544.113134	2544.310675
544.472571	2542.006868
544.831953	2546.685059
545.191278	2545.843186
545.550548	2541.069213
545.909761	2541.500232
546.268918	2544.073741
546.628019	2543.085675
546.987064	2539.836651
547.346053	2540.388658
547.704986	2543.264636
548.063863	2543.055428
548.422684	2542.130376
548.781449	2545.684390
549.140158	2540.615510
549.498811	2544.348484
549.857408	2538.626774
550.215949	2541.583411
550.574434	2543.060469
550.932864	2543.390665
551.291237	2543.385624
551.649555	2543.126004
552.007817	2545.376879
552.366022	2542.258926
552.724173	2541.525438
553.082267	2541.764893
553.440305	2544.834955
553.798288	2541.041487
554.156215	2542.631971
554.514086	2540.449152
554.871902	2538.281455
555.229661	2541.099460
555.587365	2539.342618
555.945014	2539.705581
556.302606	2540.572660
556.660143	2544.129194
557.017625	2542.163144
557.375050	2540.776827
557.732421	2540.590304
558.089735	2540.696168
558.446994	2541.913607
558.804197	2542.974770
559.161345	2540.935623
559.518437	2542.021992
559.875474	2540.791950
560.232455	2543.577187
560.589381	2541.303627
560.946251	2543.637681
561.303065	2544.154400
561.659825	2541.563247
562.016528	2545.157589
562.373177	2542.006868
562.729770	2542.034594
563.086307	2542.430325
563.442789	2540.476878
563.799216	2543.950233
564.155587	2540.950746
564.511904	2539.947557
564.868164	2543.178936
565.224370	2539.574511
565.580520	2540.615510
565.936615	2541.739687
566.292654	2541.621220
566.648638	2543.388144
567.004567	2540.975952
567.360441	2543.395706
567.716260	2540.615510
568.072023	2539.234233
568.427732	2541.858154
568.783385	2539.640046
569.138982	2540.844882
569.494525	2542.125335
569.850013	2540.527289
570.205445	2542.556354
570.560823	2540.582742
570.916145	2541.442259
571.271412	2539.040149
571.626625	2539.163657
571.981782	2540.421425
572.336884	2536.527134
572.691931	2536.083512
573.046923	2538.427649
573.401860	2535.980169
573.756743	2539.614841
574.111570	2537.797505
574.466342	2537.111908
574.821059	2539.302289
575.175722	2538.402443
575.530330	2539.148534
575.884882	2538.702392
576.239380	2539.057793
576.593823	2538.500746
576.948211	2538.586445
577.302544	2537.989068
577.656823	2536.486805
578.011047	2537.074099
578.365216	2537.943698
578.719330	2536.630477
579.073389	2538.616692
579.427394	2537.285828
579.781344	2531.977492
580.135239	2538.077289
580.489080	2536.360776
580.842866	2536.232226
581.196597	2535.763399
581.550273	2534.125024
581.903895	2535.221475
582.257463	2535.440765
582.610975	2539.234233
582.964434	2535.276928
583.317837	2537.540406
583.671186	2534.586290
584.024481	2533.028573
584.377721	2536.146527
584.730906	2533.179808
585.084037	2535.176105
585.437113	2536.176774
585.790135	2536.512010
586.143103	2535.372710
586.496016	2535.944881
586.848874	2535.957483
587.201679	2531.493542
587.554428	2534.112421
587.907124	2533.537730
588.259765	2532.083357
588.612352	2533.003367
588.964884	2533.396577
589.317362	2535.057638
589.669786	2531.700229
590.022155	2533.063861
590.374470	2530.888603
590.726731	2532.670651
591.078937	2529.159487
591.431090	2532.141330
591.783188	2533.663758
592.135232	2530.404653
592.487222	2533.174767
592.839157	2532.302647
593.191038	2535.029911
593.542866	2529.146885
593.894639	2533.194931
594.246358	2531.617050
594.598022	2532.136289
594.949633	2531.498583
595.301190	2530.434899
595.652692	2530.311391
596.004141	2531.808614
596.355535	2528.738551
596.706876	2529.812317
597.058162	2530.467667
597.409395	2529.265352
597.760573	2531.657379
598.111698	2528.567152
598.462768	2529.754344
598.813785	2528.594878
599.164748	2527.223684
599.515657	2528.229395
599.866511	2528.269724
600.217312	2528.335259
600.568060	2530.870959
600.918753	2529.945907
601.269392	2528.899868
601.619978	2524.922398
601.970510	2527.231246
602.320988	2529.600588
602.671412	2530.702081
603.021783	2528.383150
603.372100	2528.446164
603.722363	2530.470188
604.072572	2529.139323
604.422728	2526.606143
604.772830	2524.882068
605.122878	2528.045393
605.472872	2529.096473
605.822813	2528.178983
606.172701	2529.010773
606.522534	2527.616894
606.872314	2528.857018
607.222041	2525.842408
607.571714	2525.791997
607.921333	2522.671523
608.270899	2524.463653
608.620411	2519.959382
608.969870	2525.789476
609.319276	2526.560773
609.668627	2527.944569
610.017926	2528.597399
610.367171	2529.275434
610.716362	2528.408356
611.065500	2528.955321
611.414585	2528.143695
611.763616	2528.748633
612.112594	2527.911802
612.461518	2527.198479
612.810389	2530.886083
613.159207	2529.610671
613.507971	2526.470032
613.856682	2530.414735
614.205340	2529.784591
614.553945	2528.831813
614.902496	2530.676875
615.250994	2531.042358
615.599439	2530.981865
615.947830	2530.883562
616.296169	2527.957172
616.644454	2529.784591
616.992686	2529.842564
617.340864	2530.513037
617.688990	2528.395753
618.037063	2528.786442
618.385082	2529.882893
618.733048	2530.220650
619.080961	2532.693336
619.428821	2531.221319
619.776628	2530.492873
620.124382	2532.577390
620.472083	2530.830630
620.819731	2530.185362
621.167326	2529.275434
621.514868	2529.940866
621.862357	2530.172759
622.209793	2530.268541
622.557176	2527.725279
622.904506	2528.236956
623.251783	2526.039013
623.599007	2525.945752
623.946179	2527.947090
624.293297	2530.349200
624.640363	2525.812161
624.987376	2523.152953
625.334336	2521.058353
625.681243	2520.634896
626.028097	2521.595236
626.374899	2524.685463
626.721647	2526.732172
627.068343	2521.683456
627.414987	2526.127233
627.761577	2523.783097
628.108115	2524.289733
628.454600	2522.805113
628.801032	2524.992974
629.147412	2526.245701
629.493739	2524.768643
629.840014	2522.255627
630.186236	2523.921729
630.532405	2522.789990
630.878521	2519.881244
631.224585	2519.619104
631.570597	2521.411234
631.916556	2519.326717
632.262462	2521.643127
632.608316	2519.326717
632.954117	2521.872500
633.299866	2521.101203
633.645562	2520.395442
633.991206	2520.513909
634.336797	2519.188085
634.682336	2521.451563
635.027823	2520.113137
635.373257	2521.287726
635.718639	2518.968795
636.063968	2518.010976
636.409245	2517.809330
636.754470	2517.920235
637.099642	2515.220697
637.444762	2519.881244
637.789829	2518.373939
638.134845	2514.706499
638.479808	2516.382683
638.824719	2516.526356
639.169577	2515.215656
639.514383	2516.997704
639.859137	2515.482837
640.203839	2515.603825
640.548489	2515.606345
640.893086	2516.576768
641.237632	2517.637930
641.582125	2516.027282
641.926566	2517.116171
642.270955	2510.169461
642.615292	2513.834380
642.959576	2511.182733
643.303809	2511.117198
643.647990	2514.976201
643.992118	2512.969822
644.336195	2514.260357
644.680219	2512.861437
645.024192	2515.056860
645.368112	2514.769514
645.711981	2516.453259
646.055797	2517.713548
646.399562	2517.060718
646.743274	2515.727333
647.086935	2519.523322
647.430544	2516.004597
647.774101	2516.881757
648.117606	2516.579288
648.461059	2519.296470
648.804460	2521.607839
649.147810	2518.568023
649.491108	2515.233300
649.834354	2517.146418
650.177548	2516.216325
650.520690	2516.579288
650.863781	2513.317662
651.206820	2515.301356
651.549807	2513.063083
651.892742	2513.516787
652.235626	2514.615759
652.578458	2512.470748
652.921238	2511.034019
653.263967	2512.498474
653.606644	2516.382683
653.949269	2514.066273
654.291843	2509.103257
654.634365	2513.519308
654.976836	2513.163906
655.319255	2512.314472
655.661622	2511.598628
656.003938	2511.669204
656.346203	2510.557630
656.688416	2513.930162
657.030577	2509.940088
657.372687	2513.821777
657.714746	2510.723988
658.056753	2511.492764
658.398708	2509.746004
658.740612	2510.663494
659.082465	2511.046622
659.424266	2509.937568
659.766016	2506.013030
660.107715	2510.416477
660.449362	2508.147958
660.790958	2510.459327
661.132503	2511.064266
661.473996	2510.643329
661.815438	2509.670387
662.156829	2509.980418
662.498168	2511.270953
662.839456	2510.429080
663.180693	2511.452435
663.521879	2510.431601
663.863013	2509.660304
664.204097	2511.162568
664.545129	2511.563340
664.886110	2513.652898
665.227040	2511.215500
665.567918	2510.902949
665.908746	2511.510408
666.249522	2509.930006
666.590248	2511.011334
666.930922	2513.756242
667.271545	2509.846827
667.612118	2511.376817
667.952639	2513.761283
668.293109	2511.699451
668.633528	2512.780779
668.973896	2508.347084
669.314213	2509.892198
669.654480	2513.973012
669.994695	2510.270284
670.334859	2508.964625
670.674973	2512.768176
671.015035	2510.542506
671.355047	2511.046622
671.695008	2511.066786
672.034918	2508.868843
672.374777	2512.808505
672.714585	2511.646519
673.054342	2511.936385
673.394049	2510.787002
673.733705	2510.424039
674.073310	2512.992507
674.412864	2512.962260
674.752368	2514.620800
675.091820	2510.350943
675.431223	2510.968484
675.770574	2510.315654
676.109875	2510.204749
676.449125	2508.614265
676.788324	2505.224089
677.127473	2508.117711
677.466571	2505.944974
677.805619	2507.359018
678.144616	2508.911693
678.483562	2507.454800
678.822458	2507.918586
679.161303	2506.549912
679.500098	2507.364059
679.838842	2506.146620
680.177535	2508.876405
680.516179	2508.359687
680.854771	2507.595952
681.193314	2510.492095
681.531805	2510.013185
681.870247	2509.201559
682.208638	2513.335306
682.546978	2508.337002
682.885268	2511.344050
683.223508	2511.306241
683.561697	2511.512928
683.899836	2513.841942
684.237925	2511.371776
684.575963	2511.180212
684.913951	2508.783144
685.251889	2509.877074
685.589776	2510.708864
685.927614	2509.791374
686.265401	2508.548730
686.603137	2509.806498
686.940824	2512.647188
687.278460	2511.550737
687.616046	2513.436129
687.953582	2512.664832
688.291068	2513.289935
688.628504	2512.362363
688.965889	2512.455624
689.303224	2512.533762
689.640510	2511.235665
689.977745	2512.357322
690.314930	2511.205418
690.652065	2510.567712
690.989150	2507.903462
691.326185	2506.423884
691.663170	2507.732063
692.000105	2507.006137
692.336990	2504.634274
692.673825	2504.266270
693.010610	2503.978924
693.347345	2503.179901
693.684030	2500.001454
694.020665	2501.551608
694.357251	2498.630260
694.693786	2501.372648
695.030272	2499.888028
695.366707	2501.291989
695.703093	2501.909530
696.039429	2500.815600
696.375716	2500.616474
696.711952	2499.681340
697.048139	2501.065137
697.384276	2498.776453
697.720363	2498.045486
698.056400	2498.690754
698.392388	2500.470281
698.728326	2500.682009
699.064214	2500.061948
699.400053	2498.239570
699.735842	2499.212513
700.071581	2498.534478
700.407270	2499.391474
700.742910	2498.665548
701.078501	2498.844509
701.414042	2497.753099
701.749533	2496.523058
702.084974	2496.767553
702.420366	2497.982472
702.755709	2495.769405
703.091002	2498.186638
703.426246	2492.492655
703.761440	2495.295537
704.096584	2496.288644
704.431679	2494.582213
704.766725	2497.528768
705.101721	2494.062974
705.436668	2497.347286
705.771565	2495.275372
706.106413	2494.645228
706.441212	2496.238232
706.775961	2497.062461
707.110661	2494.153715
707.445311	2495.895434
707.779913	2496.734786
708.114465	2497.864004
708.448967	2499.497338
708.783421	2496.686895
709.117825	2499.661176
709.452180	2500.901300
709.786485	2499.189828
710.120742	2498.816783
710.454949	2496.341576
710.789107	2498.980620
711.123216	2496.792759
711.457275	2502.118738
711.791286	2501.392812
712.125247	2504.546054
712.459159	2501.150837
712.793023	2504.321723
713.126837	2502.322905
713.460602	2500.934067
713.794318	2504.137720
714.127985	2505.027484
714.461602	2502.002792
714.795171	2502.413646
715.128691	2499.212513
715.462162	2497.382574
715.795584	2501.604541
716.128957	2499.371309
716.462281	2496.775115
716.795556	2498.579848
717.128782	2496.608757
717.461960	2495.308139
717.795088	2498.922647
718.128167	2496.906185
718.461198	2495.202275
718.794180	2494.922491
719.127113	2493.967193
719.459997	2495.779487
719.792833	2494.292347
720.125619	2493.294198
720.458357	2493.798314
720.791046	2495.784528
721.123686	2490.619866
721.456278	2491.769249
721.788821	2492.865700
722.121315	2492.981647
722.453761	2491.562562
722.786158	2492.716986
723.118506	2493.024497
723.450805	2493.357213
723.783056	2495.489621
724.115259	2490.960144
724.447412	2490.481235
724.779518	2491.494507
725.111574	2491.625577
725.443582	2494.645228
725.775542	2490.854280
726.107453	2494.849394
726.439315	2493.203458
726.771129	2495.303098
727.102895	2491.383601
727.434612	2492.414517
727.766281	2489.654485
728.097901	2494.902327
728.429473	2495.393839
728.760996	2495.998778
729.092471	2498.048007
729.423897	2495.403921
729.755276	2497.443068
730.086606	2497.990033
730.417887	2496.971720
730.749120	2500.256032
731.080305	2497.669920
731.411442	2498.761330
731.742530	2498.272338
732.073570	2497.158243
732.404562	2497.826196
732.735506	2499.015908
733.066401	2497.291833
733.397249	2499.819972
733.728048	2498.380723
734.058798	2497.848881
734.389501	2494.849394
734.720156	2495.575321
735.050762	2494.068016
735.381320	2493.636997
735.711831	2494.811586
736.042293	2492.681698
736.372707	2490.627428
736.703073	2491.081132
737.033391	2493.669764
737.363661	2490.539208
737.693883	2494.826709
738.024056	2492.956441
738.354182	2492.651451
738.684260	2492.714466
739.014290	2495.751761
739.344272	2492.646410
739.674207	2496.180259
740.004093	2495.308139
740.333931	2497.032214
740.663722	2494.113386
740.993464	2495.814775
741.323159	2494.491473
741.652806	2494.312512
741.982405	2497.490959
742.311956	2493.531133
742.641460	2495.837461
742.970915	2492.772439
743.300323	2491.323107
743.629683	2493.203458
743.958996	2486.912098
744.288260	2486.967550
744.617477	2492.389311
744.946647	2490.466111
745.275768	2492.701863
745.604842	2490.556852
745.933869	2492.164980
746.262847	2491.744044
746.591778	2489.099958
746.920662	2490.438385
747.249498	2492.835453
747.578286	2492.825371
747.907027	2490.990391
748.235720	2490.816471
748.564365	2490.975268
748.892963	2489.067191
749.221514	2493.891575
749.550017	2488.043837
749.878473	2491.658344
750.206881	2492.991729
750.535242	2491.050885
750.863555	2489.440236
751.191821	2491.113899
751.520039	2491.716317
751.848210	2489.309166
752.176334	2492.240597
752.504411	2489.808241
752.832440	2488.810092
753.160421	2490.108189
753.488356	2489.851090
753.816243	2490.360247
754.144082	2488.300936
754.471875	2488.598364
754.799620	2490.133395
755.127318	2488.552993
755.454969	2489.248672
755.782572	2490.652634
756.110129	2488.346306
756.437638	2492.200268
756.765100	2490.514002
757.092515	2486.302118
757.419882	2485.815647
757.747203	2490.640031
758.074477	2491.418889
758.401703	2490.277068
758.728882	2489.785555
759.056014	2492.144815
759.383099	2488.900833
759.710138	2488.245483
760.037129	2487.406131
760.364073	2490.934938
760.690970	2482.821201
761.017820	2489.969558
761.344623	2490.665237
761.671379	2492.631287
761.998088	2493.183293
762.324751	2494.957779
762.651366	2498.773933
762.977935	2505.377844
763.304456	2511.230624
763.630931	2513.541993
763.957359	2515.014010
764.283740	2510.945799
764.610074	2505.944974
764.936362	2501.349962
765.262602	2500.266114
765.588796	2497.503562
765.914943	2494.194044
766.241044	2491.731441
766.567097	2490.360247
766.893104	2490.226656
767.219064	2488.676502
767.544978	2486.254227
767.870845	2486.871768
768.196665	2488.245483
768.522438	2488.603405
768.848165	2485.016624
769.173846	2484.888074
769.499479	2485.195585
769.825066	2486.269351
770.150607	2488.288333
770.476101	2484.134422
770.801548	2484.303301
771.126949	2485.498054
771.452303	2483.022847
771.777611	2483.806747
772.102872	2482.266674
772.428087	2484.252889
772.753256	2481.661736
773.078378	2483.753815
773.403453	2481.160141
773.728482	2484.794813
774.053465	2482.097796
774.378401	2480.842548
774.703291	2481.102168
775.028135	2481.202991
775.352932	2481.253403
775.677683	2480.333392
776.002388	2477.419605
776.327046	2476.628144
776.651658	2480.953454
776.976224	2474.604121
777.300743	2478.495891
777.625216	2481.308855
777.949643	2482.727940
778.274024	2481.329020
778.598359	2479.998155
778.922647	2480.093937
779.246889	2481.145018
779.571086	2479.622589
779.895236	2479.715851
780.219339	2477.308700
780.543397	2482.564103
780.867409	2480.315748
781.191374	2482.317086
781.515294	2481.049236
781.839167	2478.611838
782.162995	2477.245685
782.486776	2480.285501
782.810511	2477.699389
783.134201	2479.070583
783.457844	2481.102168
783.781441	2480.293063
784.104993	2482.599391
784.428498	2480.724081
784.751958	2480.955974
785.075372	2479.897332
785.398739	2477.338947
785.722061	2477.308700
786.045337	2479.252064
786.368568	2482.780872
786.691752	2477.865747
787.014891	2480.656026
787.337983	2479.662918
787.661030	2482.100316
787.984031	2482.284318
788.306987	2484.227683
788.629897	2483.320276
788.952760	2484.099134
789.275579	2484.956130
789.598351	2488.699187
789.921078	2484.870430
790.243759	2483.640389
790.566395	2482.465800
790.888984	2482.070069
791.211529	2482.485965
791.534027	2482.884216
791.856480	2480.260295
792.178888	2479.914976
792.501249	2477.013792
792.823566	2477.265850
793.145836	2475.166209
793.468062	2478.984883
793.790241	2481.087044
794.112375	2481.949082
794.434464	2482.039822
794.756507	2480.217445
795.078505	2480.449338
795.400457	2482.307004
795.722364	2481.029071
796.044226	2483.877323
796.366042	2481.938999
796.687812	2482.223825
797.009538	2481.079483
797.331218	2483.393372
797.652852	2483.012765
797.974442	2482.559061
798.295986	2481.971767
798.617484	2480.056128
798.938938	2481.664257
799.260346	2483.297590
799.581709	2480.955974
799.903026	2483.373208
800.224299	2480.091417
800.545526	2478.730305
800.866708	2480.474544
801.187845	2480.240131
801.508936	2480.393886
801.829983	2478.838690
802.150984	2479.080665
802.471940	2481.669298
802.792851	2480.771972
803.113717	2479.380614
803.434538	2479.108392
803.755314	2479.829277
804.076045	2479.254585
804.396731	2477.427167
804.717372	2479.544451
805.037967	2480.351036
805.358518	2479.299955
805.679024	2478.117805
805.999485	2479.685604
806.319901	2480.953454
806.640272	2478.838690
806.960598	2480.923207
807.280879	2477.349029
807.601115	2479.478916
807.921306	2477.752321
808.241453	2476.670994
808.561554	2476.461786
808.881611	2477.840541
809.201623	2474.702423
809.521590	2478.548823
809.841513	2481.576036
810.161390	2479.433546
810.481223	2480.267857
810.801011	2477.762403
811.120755	2480.857672
811.440453	2477.427167
811.760107	2477.346508
812.079716	2478.465644
812.399281	2481.560913
812.718801	2478.170737
813.038276	2478.720223
813.357707	2478.337095
813.677093	2478.135449
813.996434	2478.682414
814.315731	2477.157465
814.634983	2477.918679
814.954191	2477.908597
815.273354	2478.344657
815.592473	2478.632002
815.911547	2479.362970
816.230577	2479.645274
816.549562	2479.783906
816.868502	2480.056128
817.187399	2480.174596
817.506250	2478.836169
817.825058	2480.280460
818.143821	2480.719040
818.462539	2482.488485
818.781213	2483.416057
819.099843	2485.825729
819.418429	2487.819505
819.736970	2488.991574
820.055466	2491.774291
820.373919	2496.150012
820.692327	2501.390292
821.010691	2508.344563
821.329011	2525.134126
821.647286	2558.562017
821.965517	2596.479056
822.283704	2626.025259
822.601847	2643.180305
822.919945	2631.878038
823.237999	2616.096706
823.556010	2596.857142
823.873976	2577.806622
824.191897	2560.351627
824.509775	2543.413350
824.827609	2533.736855
825.145398	2524.382994
825.463144	2522.716893
825.780845	2519.961902
826.098502	2526.323838
826.416116	2531.130579
826.733685	2540.802032
827.051210	2544.673638
827.368692	2546.082641
827.686129	2536.554860
828.003522	2527.286699
828.320872	2515.286232
828.638177	2510.832373
828.955439	2504.036897
829.272656	2501.251660
829.589830	2493.458036
829.906960	2489.977119
830.224046	2487.922849
830.541088	2487.693477
830.858086	2487.264978
831.175041	2485.556027
831.491952	2484.585605
831.808819	2484.744402
832.125642	2483.116109
832.442421	2481.399596
832.759157	2489.868734
833.075849	2496.197903
833.392497	2504.167967
833.709101	2511.558299
834.025662	2510.792043
834.342179	2507.686693
834.658653	2507.109481
834.975083	2500.830723
835.291469	2498.713439
835.607811	2493.417707
835.924110	2489.583909
836.240366	2487.935452
836.556578	2485.987046
836.872746	2481.906232
837.188871	2480.953454
837.504952	2479.887250
837.820990	2482.738022
838.136984	2474.871302
838.452935	2477.210397
838.768842	2479.073103
839.084706	2479.632672
839.400526	2481.644092
839.716303	2485.059474
840.032037	2487.199443
840.347727	2483.884885
840.663373	2486.244145
840.978977	2481.392034
841.294537	2482.964874
841.610054	2481.495378
841.925527	2479.713330
842.240957	2477.278453
842.556344	2479.204173
842.871687	2476.854996
843.186987	2477.137300
843.502244	2472.640591
843.817458	2475.917341
844.132629	2473.008595
844.447756	2475.423308
844.762840	2475.161168
845.077881	2472.375931
845.392879	2472.943060
845.707833	2472.791826
846.022745	2473.026239
846.337613	2470.414922
846.652438	2471.458441
846.967221	2473.815180
847.281960	2471.498770
847.596656	2474.122690
847.911309	2471.339973
848.225919	2474.972125
848.540485	2473.381641
848.855009	2470.493060
849.169490	2472.696044
849.483928	2472.723770
849.798323	2472.040694
850.112675	2469.051290
850.426984	2471.652525
850.741251	2471.874336
851.055474	2473.547999
851.369654	2471.944912
851.683792	2470.750158
851.997887	2472.915334
852.311938	2472.302834
852.625947	2472.136476
852.939914	2470.498101
853.253837	2473.399285
853.567718	2473.147227
853.881555	2471.307206
854.195350	2474.999851
854.509103	2471.765951
854.822812	2469.938533
855.136479	2474.974645
855.450103	2470.230920
855.763685	2472.171764
856.077224	2467.470888
856.390720	2472.693523
856.704173	2466.752523
857.017584	2470.427525
857.330953	2473.192598
857.644278	2472.902731
857.957561	2476.285345
858.270802	2470.442648
858.584000	2470.558595
858.897155	2472.259984
859.210268	2472.005406
859.523339	2473.583287
859.836367	2470.576239
860.149352	2471.997844
860.462295	2469.900724
860.775195	2472.305354
861.088054	2473.852989
861.400869	2471.329891
861.713642	2469.991465
862.026373	2470.412401
862.339062	2473.943729
862.651708	2474.324337
862.964312	2467.864098
863.276873	2475.572022
863.589392	2473.028760
863.901869	2472.592700
864.214303	2474.213431
864.526696	2472.806949
864.839045	2475.609831
865.151353	2471.831486
865.463619	2472.418780
865.775842	2472.824593
866.088023	2472.227217
866.400162	2474.299131
866.712258	2476.124028
867.024313	2475.314923
867.336325	2471.791157
867.648296	2472.222175
867.960224	2472.428863
868.272110	2472.088585
868.583954	2474.515900
868.895755	2472.461630
869.207515	2473.434573
869.519233	2473.384161
869.830909	2471.685292
870.142542	2472.151599
870.454134	2472.000365
870.765684	2474.616723
871.077191	2474.785602
871.388657	2471.032463
871.700081	2470.798049
872.011463	2471.629840
872.322803	2469.888121
872.634101	2474.553709
872.945357	2474.236116
873.256571	2474.853658
873.567744	2473.288379
873.878874	2474.331898
874.189963	2475.546816
874.501010	2474.626806
874.812015	2474.730149
875.122979	2475.821559
875.433900	2474.047073
875.744780	2477.795171
876.055618	2474.021867
876.366415	2476.000520
876.677169	2476.144193
876.987882	2475.027577
877.298554	2476.338278
877.609183	2475.425829
877.919771	2478.097640
878.230317	2478.079996
878.540822	2479.922538
878.851285	2481.649133
879.161707	2477.157465
879.472087	2484.547797
879.782425	2488.600884
880.092722	2493.662203
880.402977	2507.298524
880.713191	2520.677746
881.023363	2541.953936
881.333494	2551.925338
881.643583	2556.616132
881.953631	2558.156204
882.263637	2553.541028
882.573602	2550.274360
882.883526	2542.097609
883.193408	2534.422452
883.503248	2528.191586
883.813048	2521.542304
884.122806	2516.791017
884.432522	2512.684997
884.742197	2506.038235
885.051831	2502.154026
885.361424	2496.918788
885.670975	2490.725731
885.980485	2491.181955
886.289954	2488.482417
886.599382	2485.994608
886.908768	2480.167034
887.218113	2478.337095
887.527417	2481.346664
887.836680	2476.176961
888.145901	2478.374904
888.455082	2477.081848
888.764221	2476.557568
889.073319	2476.827269
889.382376	2476.981025
889.691392	2477.901035
890.000366	2477.286014
890.309300	2474.639409
890.618193	2477.901035
890.927044	2474.936837
891.235855	2477.575881
891.544625	2477.003710
891.853353	2477.734677
892.162041	2477.956488
892.470687	2475.924903
892.779293	2479.151241
893.087858	2481.253403
893.396381	2480.895481
893.704864	2487.128867
894.013306	2488.472335
894.321707	2494.176400
894.630068	2497.743017
894.938387	2498.761330
895.246665	2496.298726
895.554903	2499.850219
895.863100	2495.552635
896.171256	2492.028869
896.479371	2489.036944
896.787446	2489.926708
897.095480	2488.532829
897.403473	2486.160966
897.711425	2484.804895
898.019336	2483.864720
898.327207	2482.097796
898.635038	2482.077631
898.942827	2481.409678
899.250576	2480.540079
899.558284	2477.091930
899.865952	2477.454893
900.173579	2478.619400
900.481165	2477.013792
900.788711	2469.741928
901.096216	2478.178299
901.403681	2475.955150
901.711105	2475.312403
902.018489	2472.983390
902.325832	2473.472382
902.633135	2471.201342
902.940397	2475.035139
903.247619	2474.042032
903.554800	2486.292036
903.861941	2492.076760
904.169041	2499.880466
904.476101	2503.512617
904.783121	2505.317350
905.090100	2501.249139
905.397039	2498.436175
905.703938	2494.403252
906.010796	2490.985350
906.317614	2489.583909
906.624391	2488.658858
906.931129	2483.610142
907.237826	2483.405975
907.544483	2482.354895
907.851099	2480.018320
908.157675	2478.901704
908.464211	2475.549337
908.770707	2476.207207
909.077163	2472.416260
909.383578	2474.336939
909.689954	2471.980200
909.996289	2473.603452
910.302584	2473.333750
910.608839	2472.532206
910.915054	2472.693523
911.221229	2473.048925
911.527363	2469.396609
911.833458	2471.186218
912.139513	2469.943574
912.445527	2472.776702
912.751502	2472.801908
913.057436	2471.889459
913.363331	2473.177474
913.669186	2471.970118
913.975000	2475.057824
914.280775	2475.037660
914.586510	2479.776344
914.892205	2481.560913
915.197859	2486.004690
915.503475	2490.698004
915.809050	2497.470794
916.114585	2500.515651
916.420081	2501.261742
916.725536	2502.738800
917.030952	2504.077227
917.336328	2501.357524
917.641665	2496.497852
917.946961	2493.306801
918.252218	2492.139774
918.557435	2487.900164
918.862612	2491.650782
919.167750	2490.589619
919.472848	2485.951758
919.777906	2483.383290
920.082925	2478.868937
920.387904	2479.476396
920.692843	2480.391365
920.997743	2478.921869
921.302603	2476.005561
921.607423	2476.134111
921.912204	2477.941364
922.216946	2474.528503
922.521647	2472.398616
922.826310	2475.713174
923.130932	2474.291569
923.435516	2474.369707
923.740059	2472.249902
924.044564	2471.576908
924.349028	2472.635550
924.653454	2469.230251
924.957840	2470.908955
925.262186	2469.830148
925.566493	2470.677062
925.870761	2471.377782
926.174989	2468.383337
926.479178	2470.271249
926.783328	2469.908286
927.087438	2469.174798
927.391509	2473.011116
927.695541	2467.612040
927.999533	2468.711012
928.303486	2468.771506
928.607400	2468.287555
928.911275	2467.125569
929.215110	2468.048100
929.518906	2466.586165
929.822663	2468.133800
930.126381	2468.627833
930.430060	2467.307050
930.733699	2467.188583
931.037299	2466.293778
931.340861	2467.065075
931.644383	2467.687657
931.947866	2467.959880
932.251309	2470.094808
932.554714	2468.355610
932.858080	2465.456947
933.161407	2465.388891
933.464694	2465.726649
933.767943	2464.801597
934.071153	2466.795373
934.374323	2471.075313
934.677455	2470.533389
934.980548	2468.285034
935.283602	2469.893162
935.586617	2469.507514
935.889593	2467.556588
936.192530	2468.963069
936.495428	2467.710343
936.798287	2467.382668
937.101108	2469.736887
937.403890	2469.079016
937.706632	2467.468367
938.009336	2467.735548
938.312002	2470.251084
938.614628	2469.568008
938.917216	2468.653038
939.219765	2468.751341
939.522275	2467.087760
939.824747	2470.515745
940.127179	2471.806280
940.429573	2470.750158
940.731929	2470.210755
941.034246	2470.009109
941.336524	2471.501290
941.638763	2470.717391
941.940964	2469.068934
942.243126	2469.870477
942.545250	2470.929119
942.847335	2469.502473
943.149381	2469.356279
943.451389	2466.714715
943.753359	2471.362659
944.055290	2467.561629
944.357182	2467.886783
944.659036	2469.162195
944.960851	2469.346197
945.262628	2469.154633
945.564367	2471.551702
945.866067	2466.548357
946.167729	2468.910137
946.469352	2468.504324
946.770937	2467.312092
947.072484	2467.501135
947.373992	2470.435086
947.675462	2467.707822
947.976893	2468.743779
948.278286	2464.466360
948.579641	2465.479632
948.880958	2462.238170
949.182236	2469.147072
949.483476	2468.148923
949.784678	2469.207565
950.085841	2466.646659
950.386967	2466.389560
950.688054	2469.681434
950.989103	2467.879221
951.290114	2466.760085
951.591087	2468.274952
951.892021	2470.727473
952.192917	2469.212607
952.493776	2471.138327
952.794596	2468.211938
953.095378	2468.685806
953.396122	2468.842082
953.696828	2465.837554
953.997496	2467.256639
954.298126	2469.578090
954.598718	2467.183542
954.899272	2469.343677
955.199788	2470.482977
955.500266	2468.791670
955.800706	2465.817389
956.101108	2468.700929
956.401472	2469.023563
956.701798	2465.940898
957.002087	2466.182873
957.302337	2465.492235
957.602550	2470.934161
957.902724	2465.232616
958.202861	2465.729169
958.502960	2465.285548
958.803022	2466.981896
959.103045	2465.154478
959.403031	2467.155816
959.702979	2466.538274
960.002889	2466.099694
960.302762	2465.819910
960.602596	2465.378809
960.902393	2462.059209
961.202153	2463.616926
961.501875	2462.744806
961.801559	2465.267904
962.101205	2464.191617
962.400814	2466.548357
962.700385	2463.443006
962.999918	2463.349745
963.299414	2461.870166
963.598873	2463.160701
963.898293	2461.098869
964.197677	2465.036011
964.497022	2463.140537
964.796331	2466.384519
965.095601	2466.366875
965.394835	2465.038531
965.694030	2465.346042
965.993189	2465.169601
966.292309	2463.203551
966.591393	2466.124900
966.890439	2464.100877
967.189447	2461.197172
967.488419	2462.696915
967.787353	2463.551391
968.086249	2465.610702
968.385108	2464.819241
968.683930	2464.287399
968.982714	2466.039200
969.281462	2465.330918
969.580172	2465.618264
969.878844	2464.786473
970.177480	2465.361165
970.476078	2465.802266
970.774639	2465.109107
971.073162	2466.329067
971.371649	2462.495269
971.670098	2467.629684
971.968510	2465.076340
972.266885	2466.117338
972.565223	2466.991978
972.863524	2466.828141
973.161788	2466.008953
973.460014	2464.252111
973.758204	2463.884107
974.056356	2462.785135
974.354471	2465.678758
974.652550	2466.593727
974.950591	2464.302523
975.248595	2466.243367
975.546563	2462.583489
975.844493	2463.145578
976.142386	2466.903758
976.440243	2463.836216
976.738062	2464.620115
977.035845	2464.632718
977.333590	2467.594396
977.631299	2467.675055
977.928971	2460.919908
978.226606	2461.363530
978.524204	2464.315126
978.821765	2459.445371
979.119290	2464.229426
979.416777	2463.533747
979.714228	2464.834364
980.011642	2464.763788
980.309020	2464.277317
980.606360	2463.301854
980.903664	2465.497276
981.200931	2463.931998
981.498162	2466.863429
981.795356	2465.482153
982.092513	2467.218830
982.389633	2465.812348
982.686717	2465.421659
982.983764	2468.211938
983.280775	2469.804942
983.577749	2468.872329
983.874686	2467.450723
984.171587	2469.318471
984.468451	2467.904427
984.765279	2471.818883
985.062070	2468.196814
985.358824	2468.539613
985.655543	2466.397122
985.952224	2469.913327
986.248869	2467.130610
986.545478	2468.078347
986.842050	2463.977368
987.138586	2465.295630
987.435086	2464.824282
987.731549	2463.992492
988.027975	2464.214303
988.324366	2463.304374
988.620719	2463.798407
988.917037	2464.224385
989.213318	2464.594910
989.509563	2462.517954
989.805772	2465.225054
990.101944	2461.764302
990.398080	2463.163222
990.694180	2460.892182
990.990244	2463.677420
991.286271	2460.584672
991.582262	2465.651031
991.878217	2464.720938
992.174136	2461.229939
992.470019	2464.234467
992.765865	2459.984774
993.061676	2459.778087
993.357450	2461.749178
993.653188	2457.622994
993.948890	2463.604323
994.244556	2463.294292
994.540186	2464.683130
994.835780	2465.398974
995.131337	2464.597430
995.426859	2464.141206
995.722345	2466.661783
996.017795	2463.889148
996.313208	2468.070785
996.608586	2466.689509
996.903928	2466.414766
997.199234	2465.968624
997.494504	2466.356793
997.789738	2467.445682
998.084936	2464.549539
998.380099	2465.638428
998.675225	2465.623305
998.970316	2466.031638
999.265371	2464.940229
999.560390	2466.818058
999.855373	2462.941411
1000.150320	2463.024590
1000.445232	2466.868470
1000.740108	2464.279838
1001.034948	2465.545167
1001.329752	2465.104066
1001.624521	2463.251442
1001.919254	2465.252780
1002.213951	2463.498459
1002.508613	2463.372430
1002.803239	2461.532409
1003.097829	2462.994343
1003.392384	2463.480815
1003.686903	2463.480815
1003.981386	2464.166412
1004.275834	2462.470063
1004.570246	2466.286217
1004.864623	2462.313787
1005.158964	2464.133644
1005.453270	2463.874025
1005.747540	2465.025928
1006.041775	2463.390074
1006.335974	2465.356124
1006.630138	2462.356637
1006.924266	2464.191617
1007.218359	2464.400825
1007.512416	2457.577623
1007.806438	2459.342027
1008.100425	2460.662810
1008.394376	2459.599126
1008.688292	2463.836216
1008.982172	2463.571555
1009.276017	2463.521144
1009.569827	2463.344703
1009.863602	2461.376133
1010.157341	2463.211113
1010.451045	2466.351752
1010.744714	2462.515434
1011.038347	2464.027780
1011.331945	2463.443006
1011.625508	2461.388736
1011.919036	2464.562142
1012.212528	2463.274127
1012.505986	2459.888992
1012.799408	2462.265897
1013.092795	2459.289095
1013.386147	2463.894189
1013.679464	2463.443006
1013.972745	2463.823613
1014.265992	2462.583489
1014.559204	2461.734055
1014.852380	2463.894189
1015.145521	2460.549384
1015.438628	2463.616926
1015.731699	2463.122893
1016.024736	2462.122224
1016.317737	2464.073150
1016.610703	2466.089612
1016.903635	2462.722121
1017.196531	2463.233798
1017.489393	2462.260855
1017.782219	2461.792028
1018.075011	2463.306895
1018.367768	2461.615588
1018.660490	2463.725311
1018.953177	2463.725311
1019.245829	2463.725311
