Dividing Wavelength (nm)	Counts (n)	Blue Motor Position (mm): 0.000000	Red Motor Position (mm): 47.000000	
326.493990	2053.687939
326.888308	2053.687939
327.282561	2053.687939
327.676750	2026.669875
328.070874	2030.599454
328.464933	2037.079858
328.858929	2042.630168
329.252859	2055.033927
329.646726	2067.621688
330.040528	2084.900243
330.434265	2100.268201
330.827938	2122.436675
331.221547	2139.679941
331.615091	2161.500576
332.008571	2185.201561
332.401986	2203.710157
332.795338	2223.950390
333.188625	2245.314800
333.581847	2262.646287
333.975006	2278.344440
334.368100	2296.250618
334.761129	2314.807105
335.154095	2330.583396
335.546996	2380.768083
335.939833	2488.699187
336.332606	2497.662358
336.725315	2512.155676
337.117960	2521.990967
337.510540	2533.290713
337.903056	2542.752959
338.295508	2548.184802
338.687896	2556.464897
339.080220	2560.099569
339.472480	2568.344376
339.864676	2571.353945
340.256807	2571.449727
340.648875	2574.671024
341.040879	2575.452403
341.432818	2579.019020
341.824694	2579.782754
342.216506	2577.178998
342.608253	2577.814184
342.999937	2578.136818
343.391557	2574.960891
343.783113	2574.156827
344.174605	2571.469892
344.566033	2569.796229
344.957397	2569.839078
345.348697	2567.026115
345.739934	2565.019735
346.131106	2565.773388
346.522215	2566.630384
346.913260	2565.392781
347.304241	2563.255332
347.695159	2559.025803
348.086012	2558.446071
348.476802	2555.005483
348.867528	2554.198899
349.258191	2548.086500
349.648789	2550.355019
350.039324	2544.953423
350.429796	2551.126315
350.820203	2548.804864
351.210548	2550.894422
351.600828	2549.475338
351.991045	2548.494833
352.381198	2546.390151
352.771288	2544.726571
353.161314	2545.276056
353.551276	2544.928217
353.941175	2544.918134
354.331010	2545.613814
354.720782	2550.125646
355.110490	2550.367622
355.500135	2547.552137
355.889717	2544.353525
356.279235	2544.388813
356.668689	2547.138763
357.058080	2548.915769
357.447408	2549.253527
357.836672	2546.801005
358.225873	2549.747560
358.615010	2552.805020
359.004084	2551.756460
359.393095	2552.681511
359.782043	2553.740154
360.170927	2552.394166
360.559748	2550.201264
360.948505	2554.037582
361.337199	2554.786193
361.725830	2554.718137
362.114398	2555.169321
362.502903	2555.048333
362.891344	2557.669733
363.279722	2557.815927
363.668037	2562.352965
364.056289	2556.532953
364.444478	2561.198541
364.832603	2559.807182
365.220665	2561.062430
365.608665	2562.846998
365.996601	2561.223747
366.384474	2560.689384
366.772284	2560.684343
367.160031	2561.246432
367.547715	2566.214489
367.935336	2560.830537
368.322893	2559.169476
368.710388	2559.940773
369.097820	2560.487738
369.485189	2563.557801
369.872495	2564.477811
370.259738	2565.927143
370.646918	2568.621640
371.034035	2567.802452
371.421090	2567.915878
371.808081	2568.735066
372.195010	2570.973338
372.581875	2572.180694
372.968678	2571.633729
373.355418	2576.836200
373.742096	2578.744277
374.128710	2578.671180
374.515262	2579.760069
374.901751	2585.033116
375.288177	2589.353385
375.674540	2593.383787
376.060841	2597.172215
376.447079	2599.652462
376.833254	2604.461723
377.219367	2610.967332
377.605417	2616.973867
377.991404	2619.738940
378.377329	2630.272431
378.763191	2634.088584
379.148991	2640.921868
379.534727	2650.600884
379.920402	2659.957265
380.306013	2670.977227
380.691563	2681.767817
381.077049	2688.200330
381.462474	2699.956300
381.847835	2714.116902
382.233134	2724.486555
382.618371	2735.360324
383.003545	2752.711975
383.388657	2768.815941
383.773706	2785.701286
384.158693	2800.580252
384.543618	2819.028354
384.928480	2834.963442
385.313280	2853.497244
385.698017	2875.809391
386.082692	2899.263359
386.467305	2913.466810
386.851856	2938.591921
387.236344	2965.630149
387.620770	2982.901142
388.005133	3003.975686
388.389435	3037.862322
388.773674	3051.642316
389.157851	3082.179106
389.541965	3111.967284
389.926018	3125.638893
390.310008	3157.103255
390.693936	3178.755010
391.077802	3209.314485
391.461606	3244.249681
391.845348	3258.906836
392.229027	3285.420785
392.612645	3328.308401
392.996200	3356.992566
393.379694	3396.961355
393.763125	3440.562294
394.146494	3466.007518
394.529801	3500.390708
394.913047	3548.342163
395.296230	3551.961712
395.679351	3576.093715
396.062410	3627.122795
396.445408	3604.561111
396.828343	3643.945126
397.211217	3683.384593
397.594028	3657.195798
397.976778	3702.062068
398.359466	3735.542891
398.742092	3749.068307
399.124656	3762.558434
399.507158	3825.164524
399.889598	3828.428671
400.271977	3889.817322
400.654294	3884.869430
401.036549	3944.544088
401.418742	3942.141978
401.800874	4012.839120
402.182944	4035.552039
402.564952	4124.016727
402.946898	4120.498002
403.328783	4118.542034
403.710606	4164.555166
404.092367	4238.299685
404.474067	4302.667657
404.855705	4287.450935
405.237282	4254.776696
405.618797	4353.966439
406.000250	4432.873100
406.381642	4516.866284
406.762972	4517.153630
407.144240	4483.942509
407.525447	4549.159916
407.906593	4565.883944
408.287677	4647.800173
408.668700	4678.442827
409.049661	4716.551429
409.430560	4748.845061
409.811399	4735.294439
410.192176	4785.320330
410.572891	4866.124985
410.953545	4977.237057
411.334138	4872.436509
411.714669	4981.171677
412.095139	4894.675559
412.475547	5008.855173
412.855894	5008.202344
413.236180	5110.704125
413.616405	5036.478176
413.996568	5142.929701
414.376670	5149.054703
414.756711	5141.200585
415.136691	5213.188262
415.516609	5299.601201
415.896466	5329.780068
416.276262	5410.456174
416.655997	5524.998751
417.035670	5621.005006
417.415283	5763.220997
417.794834	5839.591957
418.174324	5796.285925
418.553753	5799.628210
418.933121	5962.149969
419.312428	5976.239994
419.691674	5899.385083
420.070859	6125.977386
420.449983	6007.721999
420.829045	6205.060487
421.208047	6128.087109
421.586988	6288.829341
421.965867	6362.190732
422.344686	6442.944976
422.723444	6611.899247
423.102141	6230.535958
423.480777	6621.434589
423.859352	6434.556496
424.237866	6807.861500
424.616319	6798.316075
424.994712	6963.222299
425.373044	6872.456324
425.751314	7191.105138
426.129524	6906.557210
426.507673	7181.169024
426.885762	7223.156795
427.263789	7267.702951
427.641756	7351.373502
428.019662	7430.708660
428.397508	7478.708007
428.775292	7451.586599
429.153016	7630.592931
429.530679	7555.759523
429.908282	7613.873944
430.285824	7552.407155
430.663305	7836.682862
431.040726	7717.535191
431.418086	7727.801500
431.795385	7857.568362
432.172624	8048.282774
432.549802	7935.040814
432.926920	8067.693737
433.303977	8011.270622
433.680974	8047.670274
434.057910	8257.387315
434.434786	8306.271384
434.811601	8265.644725
435.188355	8611.485523
435.565050	8488.740988
435.941683	8501.638780
436.318257	8839.665790
436.694770	8788.619066
437.071222	9022.299232
437.447614	8800.339749
437.823946	8762.868852
438.200218	8914.022809
438.576429	8796.604254
438.952580	8958.458060
439.328670	8966.725552
439.704700	9045.052480
440.080670	8936.695398
440.456580	9208.658087
440.832429	9186.668574
441.208218	8924.021938
441.583947	9035.895224
441.959616	9159.852156
442.335224	9190.451960
442.710773	9273.643601
443.086261	9457.859965
443.461689	9175.104167
443.837057	9344.232358
444.212365	9558.131036
444.587612	9541.666627
444.962800	9436.561090
445.337927	9563.371315
445.712995	9108.165205
446.088002	9795.052664
446.462949	9846.293472
446.837837	9832.256379
447.212664	9850.654070
447.587431	10687.087357
447.962139	11700.901205
448.336786	12660.116835
448.711374	12438.873196
449.085901	11221.608462
449.460369	11143.536112
449.834776	10908.288147
450.209124	11833.506236
450.583412	11653.479070
450.957640	11977.058133
451.331808	11569.664847
451.705917	10996.941879
452.079965	10868.906653
452.453954	11071.994577
452.827883	11016.539364
453.201752	10983.776905
453.575562	10988.795374
453.949311	11343.395177
454.323001	11403.337017
454.696632	11328.750625
455.070202	11916.617219
455.443713	11964.208232
455.817164	12143.443936
456.190556	12472.293525
456.563888	12333.024088
456.937160	12616.712500
457.310373	12085.379926
457.683526	12096.425094
458.056619	12115.737755
458.429653	12185.489680
458.802628	12320.917757
459.175542	12373.819626
459.548398	12926.897217
459.921194	13506.816432
460.293930	13782.383545
460.666607	14648.300021
461.039224	15455.928155
461.411782	15814.666745
461.784280	15495.710421
462.156719	15445.326609
462.529099	15361.459453
462.901419	14718.445156
463.273680	14304.498370
463.645882	14524.595147
464.018024	14403.526796
464.390106	14763.059368
464.762130	15834.551577
465.134094	17370.928911
465.505999	19660.444547
465.877845	21954.494702
466.249631	23250.426642
466.621358	22798.701448
466.993026	22002.620077
467.364634	21265.875607
467.736184	20447.081317
468.107674	19819.581171
468.479105	19687.495379
468.850477	19407.539941
469.221790	18964.099884
469.593043	18297.046846
469.964238	17906.584274
470.335373	17957.658725
470.706449	18685.649231
471.077467	19520.905409
471.448425	22018.978621
471.819324	23916.491614
472.190164	23858.402398
472.560945	22083.754927
472.931667	20493.880869
473.302330	20148.319855
473.672934	19586.712631
474.043479	20017.209526
474.413965	19786.599422
474.784393	19604.449931
475.154761	20291.423089
475.525070	20417.852707
475.895321	20249.788199
476.265513	20776.619023
476.635645	21379.367103
477.005719	21438.772060
477.375734	21814.915234
477.745691	22437.412034
478.115588	23087.972938
478.485427	24287.134889
478.855207	26100.009429
479.224928	27928.191433
479.594591	29390.052952
479.964194	29041.099242
480.333739	29522.965494
480.703226	29749.691388
481.072653	30193.829645
481.442022	30709.620342
481.811333	31132.666411
482.180584	30691.094101
482.549777	30467.869288
482.918912	30232.875902
483.287988	30163.370993
483.657005	30030.864264
484.025964	29653.937191
484.394864	29853.249291
484.763706	29794.424067
485.132489	29261.299362
485.501213	29315.464040
485.869879	29497.059004
486.238487	29426.558467
486.607036	29702.415447
486.975527	29381.273782
487.343959	29736.728061
487.712333	30099.464286
488.080648	30051.180114
488.448905	30498.476654
488.817104	30379.810413
489.185244	31234.762379
489.553326	32171.224761
489.921350	34074.404011
490.289315	36620.771477
490.657222	37562.688388
491.025070	38155.454984
491.392861	37904.738238
491.760593	37133.076216
492.128267	36133.818701
492.495883	35156.059186
492.863440	34238.594392
493.230939	33252.809360
493.598380	32675.781247
493.965763	32500.180214
494.333088	31997.151198
494.700354	31808.952322
495.067563	31766.649480
495.434713	31649.117499
495.801805	31941.479216
496.168839	31778.604576
496.535815	31624.206637
496.902733	31749.597777
497.269593	31560.224312
497.636395	31727.406618
498.003139	32008.849196
498.369825	31752.922418
498.736453	32170.087981
499.103023	32010.086799
499.469535	32108.863168
499.835989	32231.141395
500.202385	32089.401793
500.568723	32136.629843
500.935003	32449.783799
501.301226	32310.342963
501.667390	33057.033630
502.033497	33277.067393
502.399546	33067.002512
502.765537	32668.988292
503.131470	33166.136802
503.497345	33597.054633
503.863163	32522.187372
504.228923	33315.717919
504.594625	33702.329049
504.960269	33171.467822
505.325856	33847.841954
505.691385	33510.301416
506.056856	33839.899617
506.422270	34345.834858
506.787625	33847.292469
507.152924	34330.194678
507.518164	34514.779047
507.883347	34080.680248
508.248472	34219.768203
508.613540	34913.171353
508.978550	35144.416641
509.343503	35001.131926
509.708398	35351.660997
510.073236	35953.519313
510.438016	36049.505403
510.802738	35723.504066
511.167403	36268.450276
511.532010	36518.713318
511.896561	37051.283495
512.261053	37826.746547
512.625488	37608.303269
512.989866	37508.569081
513.354186	37574.456962
513.718449	37537.192753
514.082655	38434.664331
514.446803	38110.954198
514.810894	38751.969677
515.174927	38744.415508
515.538904	38753.502188
515.902822	39410.503166
516.266684	39087.266902
516.630488	39443.066499
516.994235	39442.670769
517.357925	40029.695490
517.721558	40293.640223
518.085133	40683.046672
518.448651	40864.586184
518.812112	40752.165933
519.175516	40912.462022
519.538863	41372.474872
519.902152	41435.698503
520.265385	41982.381391
520.628560	42003.594567
520.991678	41957.399953
521.354739	42177.932790
521.717743	42561.393198
522.080690	42443.682256
522.443580	43152.506296
522.806413	43150.941017
523.169189	43290.623829
523.531908	43522.476576
523.894569	43362.465312
524.257174	43552.970516
524.619722	43930.938587
524.982213	44070.533178
525.344647	44110.771668
525.707025	44247.114715
526.069345	44673.369479
526.431608	44587.221201
526.793815	44981.951109
527.155964	44521.905491
527.518057	44769.980672
527.880093	44616.578360
528.242072	45261.384787
528.603995	44986.654505
528.965860	44888.346964
529.327669	45123.791534
529.689421	45182.647005
530.051117	45155.749929
530.412755	45418.560402
530.774337	45479.152551
531.135862	45411.477581
531.497331	45566.445171
531.858743	45566.009111
532.220098	45982.819273
532.581396	45688.473861
532.942638	45458.491382
533.303824	45702.271499
533.664953	45769.371778
534.026025	45428.539366
534.387040	46015.264139
534.747999	46066.338589
535.108902	46410.094870
535.469748	45721.377472
535.830537	45994.983577
536.191270	46248.576301
536.551947	45998.779566
536.912567	46253.554440
537.273131	46393.118784
537.633638	46021.643719
537.994089	46193.005141
538.354483	45950.886084
538.714821	46611.083153
539.075103	46899.764828
539.435328	46760.676873
539.795497	46508.054571
540.155609	46646.761919
540.515665	47240.196468
540.875665	46524.082920
541.235609	46789.814742
541.595496	46946.579503
541.955328	47537.982467
542.315102	46951.908003
542.674821	46851.306737
543.034483	46731.569251
543.394090	46747.832013
543.753640	46733.363901
544.113134	47817.915219
544.472571	46911.175480
544.831953	48057.243998
545.191278	47302.782393
545.550548	47003.529418
545.909761	47624.082854
546.268918	47765.434287
546.628019	48188.775264
546.987064	47630.621230
547.346053	46918.396933
547.704986	47866.242241
548.063863	47484.067326
548.422684	47705.915904
548.781449	47259.902338
549.140158	47793.067372
549.498811	47543.590750
549.857408	46921.111594
550.215949	47789.730128
550.574434	47627.959501
550.932864	47572.859690
551.291237	48298.337181
551.649555	48037.462510
552.007817	48214.495231
552.366022	47911.675640
552.724173	47986.342690
553.082267	48377.233759
553.440305	48754.309546
553.798288	47992.722270
554.156215	48388.962003
554.514086	48588.742930
554.871902	48167.010082
555.229661	48346.119757
555.587365	48030.530924
555.945014	48152.690684
556.302606	48185.546405
556.660143	48276.821536
557.017625	48501.291514
557.375050	48194.005461
557.732421	48590.346017
558.089735	48670.434828
558.446994	48512.964306
558.804197	49012.822436
559.161345	48882.485924
559.518437	48203.029126
559.875474	48451.026169
560.232455	48676.877423
560.589381	48716.765553
560.946251	48544.743740
561.303065	49210.609587
561.659825	48878.929390
562.016528	48669.882822
562.373177	48257.634905
562.729770	48908.271426
563.086307	48404.072862
563.442789	48971.653853
563.799216	48808.887598
564.155587	48716.074915
564.511904	48658.794804
564.868164	48719.218074
565.224370	49053.476821
565.580520	48776.435170
565.936615	48962.809149
566.292654	48612.658164
566.648638	48974.363473
567.004567	48900.951670
567.360441	48976.765583
567.716260	48690.796049
568.072023	49089.581565
568.427732	48998.661835
568.783385	48522.852529
569.138982	48968.447679
569.494525	49095.817472
569.850013	48691.670689
570.205445	48818.705245
570.560823	48574.050488
570.916145	48474.318820
571.271412	48709.589470
571.626625	48338.260599
571.981782	48437.377245
572.336884	48026.820635
572.691931	48349.215026
573.046923	47993.894338
573.401860	47830.220676
573.756743	47848.905713
574.111570	47985.987288
574.466342	47900.365811
574.821059	48059.636026
575.175722	47534.496509
575.530330	47631.158113
575.884882	47288.881411
576.239380	47165.012699
576.593823	47264.293183
576.948211	47207.159266
577.302544	46737.215343
577.656823	46733.678973
578.011047	47019.391409
578.365216	46834.318048
578.719330	46527.367232
579.073389	46516.430448
579.427394	46573.753409
579.781344	46460.700493
580.135239	46219.834162
580.489080	46297.609083
580.842866	45778.050124
581.196597	46263.233455
581.550273	46254.366066
581.903895	46174.456216
582.257463	46621.460368
582.610975	46059.646457
582.964434	46373.554066
583.317837	45876.193828
583.671186	45831.637589
584.024481	46099.937879
584.377721	45643.166491
584.730906	45847.625609
585.084037	46024.595315
585.437113	45734.111427
585.790135	45868.874072
586.143103	45403.010963
586.496016	45552.140897
586.848874	45685.688624
587.201679	45695.970057
587.554428	45192.121854
587.907124	45456.588346
588.259765	45222.028499
588.612352	45397.458132
588.964884	44833.748747
589.317362	45128.212626
589.669786	45148.352035
590.022155	45012.308937
590.374470	45520.006062
590.726731	45077.491056
591.078937	44396.652983
591.431090	44758.421306
591.783188	44271.632367
592.135232	44069.262808
592.487222	44338.956977
592.839157	44503.449827
593.191038	44142.004137
593.542866	43943.576760
593.894639	43315.257427
594.246358	43626.261331
594.598022	43610.956388
594.949633	43164.297554
595.301190	43161.663552
595.652692	43099.611989
596.004141	43630.826096
596.355535	42506.006041
596.706876	42496.175791
597.058162	42216.129613
597.409395	42727.143816
597.760573	42952.821151
598.111698	42542.695559
598.462768	42447.904223
598.813785	42467.925165
599.164748	42069.404309
599.515657	42354.020294
599.866511	41852.932122
600.217312	42555.515213
600.568060	41475.992446
600.918753	42316.027638
601.269392	42215.275137
601.619978	41938.006634
601.970510	42155.325736
602.320988	42277.787965
602.671412	42548.812999
603.021783	42407.597677
603.372100	41979.296205
603.722363	42071.957654
604.072572	42115.714869
604.422728	42119.883903
604.772830	41902.577405
605.122878	42078.947214
605.472872	41917.746237
605.822813	42180.942359
606.172701	41909.284660
606.522534	42233.826583
606.872314	42442.898357
607.222041	42295.913434
607.571714	42612.266002
607.921333	42092.739811
608.270899	42293.496201
608.620411	42677.606918
608.969870	42430.507201
609.319276	42449.991260
609.668627	42480.835560
610.017926	42875.323493
610.367171	43020.596943
610.716362	43044.035788
611.065500	42964.700630
611.414585	43182.415461
611.763616	43345.458980
612.112594	43235.289603
612.461518	43355.221174
612.810389	43755.695477
613.159207	43526.630487
613.507971	43483.967202
613.856682	44021.833112
614.205340	43837.571377
614.553945	44546.133276
614.902496	43854.466804
615.250994	44286.047547
615.599439	44374.539961
615.947830	44488.759904
616.296169	44460.020286
616.644454	44485.460469
616.992686	44648.130942
617.340864	45080.735039
617.688990	44583.208442
618.037063	45278.950688
618.385082	45080.858547
618.733048	45419.593839
619.080961	45290.384024
619.428821	45334.428586
619.776628	45366.623915
620.124382	45198.773656
620.472083	45328.172514
620.819731	45455.723788
621.167326	45025.373087
621.514868	45026.845104
621.862357	44462.964320
622.209793	44579.467906
622.557176	44141.628571
622.904506	43913.007203
623.251783	43555.259200
623.599007	43220.574475
623.946179	43157.920495
624.293297	42879.459759
624.640363	42325.179853
624.987376	42170.464321
625.334336	41986.469767
625.681243	41571.113978
626.028097	41454.953191
626.374899	41283.402725
626.721647	41258.728798
627.068343	41002.018120
627.414987	40697.419002
627.761577	40447.891969
628.108115	40780.837495
628.454600	40016.409529
628.801032	40239.044527
629.147412	40115.044745
629.493739	40015.570177
629.840014	39556.048839
630.186236	39996.444039
630.532405	39386.214887
630.878521	39650.386472
631.224585	39414.044577
631.570597	39061.982995
631.916556	39256.763097
632.262462	39143.082557
632.608316	39080.027805
632.954117	38955.965009
633.299866	38904.404087
633.645562	38831.191410
633.991206	38302.553333
634.336797	37868.845223
634.682336	37766.492156
635.027823	37540.061169
635.373257	37420.966430
635.718639	37085.575944
636.063968	36992.425503
636.409245	36311.116082
636.754470	36270.116377
637.099642	36057.218368
637.444762	35463.514118
637.789829	35606.110716
638.134845	35209.997012
638.479808	35116.523937
638.824719	35085.125110
639.169577	34560.134308
639.514383	34660.362528
639.859137	34244.870628
640.203839	34431.441212
640.548489	34133.932476
640.893086	34110.488590
641.237632	33812.803415
641.582125	33911.733538
641.926566	33688.675083
642.270955	33730.317535
642.615292	33662.352699
642.959576	33529.472924
643.303809	33542.655542
643.647990	33630.600991
643.992118	33601.906743
644.336195	33402.491300
644.680219	33474.594924
645.024192	33668.089532
645.368112	34199.258268
645.711981	34213.086153
646.055797	34902.325310
646.399562	34685.066703
646.743274	35546.645266
647.086935	35942.461542
647.430544	35922.652328
647.774101	35967.808464
648.117606	36301.094268
648.461059	36463.205173
648.804460	36081.214261
649.147810	35590.379796
649.491108	35289.755627
649.834354	35209.936518
650.177548	34365.228177
650.520690	33847.917572
650.863781	33813.035308
651.206820	33631.868841
651.549807	33213.327043
651.892742	32608.658283
652.235626	32521.171579
652.578458	32368.469988
652.921238	31652.701759
653.263967	31956.073356
653.606644	31631.763327
653.949269	31527.373633
654.291843	31113.605808
654.634365	31472.044449
654.976836	30999.262356
655.319255	31100.092995
655.661622	30944.447370
656.003938	30822.406077
656.346203	30632.314247
656.688416	30880.754912
657.030577	30650.694294
657.372687	30461.136827
657.714746	30611.403541
658.056753	30822.968165
658.398708	30157.117442
658.740612	30235.865306
659.082465	30460.763782
659.424266	30354.360148
659.766016	30333.232672
660.107715	30174.320379
660.449362	30266.147517
660.790958	30238.287580
661.132503	30170.723516
661.473996	30255.543450
661.815438	30337.804998
662.156829	30451.185590
662.498168	30237.062580
662.839456	30202.316427
663.180693	30344.197182
663.521879	30408.943241
663.863013	30363.585459
664.204097	30332.957929
664.545129	30748.180127
664.886110	30685.538750
665.227040	30800.782047
665.567918	30776.846649
665.908746	30838.172285
666.249522	30918.341755
666.590248	30962.098970
666.930922	31044.819264
667.271545	31069.193242
667.612118	31136.495167
667.952639	30936.489909
668.293109	30982.724851
668.633528	30829.325060
668.973896	30791.123196
669.314213	30781.083738
669.654480	30582.490003
669.994695	30573.105895
670.334859	30480.583078
670.674973	30296.507866
671.015035	30483.678347
671.355047	30396.158875
671.695008	30314.880351
672.034918	30216.477028
672.374777	30316.879169
672.714585	30178.817088
673.054342	30315.525619
673.394049	30174.716110
673.733705	30391.427752
674.073310	30102.882188
674.412864	30153.036628
674.752368	29876.715862
675.091820	30131.750356
675.431223	29728.475692
675.770574	29525.813746
676.109875	29365.812564
676.449125	29149.806683
676.788324	29042.687205
677.127473	28550.952894
677.466571	28446.517831
677.805619	28168.936776
678.144616	28114.451986
678.483562	28046.567808
678.822458	27711.792343
679.161303	27647.867991
679.500098	27561.152583
679.838842	27473.681003
680.177535	27529.627728
680.516179	27730.495023
680.854771	27795.462894
681.193314	28464.981057
681.531805	29398.383459
681.870247	30129.915376
682.208638	30973.242441
682.546978	31340.669459
682.885268	31546.139328
683.223508	31144.568575
683.561697	30906.815157
683.899836	30742.725599
684.237925	30322.109366
684.575963	30148.557562
684.913951	29740.763504
685.251889	29883.831451
685.589776	29859.185249
685.927614	29829.439921
686.265401	29995.659366
686.603137	30086.306874
686.940824	30536.081141
687.278460	30862.747910
687.616046	31035.878777
687.953582	31730.272514
688.291068	31639.587197
688.628504	31994.310508
688.965889	32051.094065
689.303224	31831.942505
689.640510	31578.649730
689.977745	30976.932565
690.314930	30256.977658
690.652065	29884.663241
690.989150	29210.524861
691.326185	28372.576707
691.663170	27727.636689
692.000105	27007.409560
692.336990	26396.451961
692.673825	25969.211652
693.010610	25445.899553
693.347345	24927.449648
693.684030	24282.562562
694.020665	24077.954731
694.357251	23386.716756
694.693786	23393.403847
695.030272	23147.813955
695.366707	22635.287405
695.703093	22333.468483
696.039429	22386.561916
696.375716	22126.745888
696.711952	22123.461576
697.048139	21965.635652
697.384276	21795.174076
697.720363	21914.659504
698.056400	21809.102784
698.392388	21623.099330
698.728326	21645.603041
699.064214	21500.493428
699.400053	21507.840909
699.735842	21111.074375
700.071581	20934.429824
700.407270	20702.302333
700.742910	20525.642658
701.078501	20255.552759
701.414042	20060.180321
701.749533	19748.125336
702.084974	19434.600855
702.420366	19658.672582
702.755709	19252.257279
703.091002	18945.419889
703.426246	18995.982662
703.761440	18917.570034
704.096584	18684.767029
704.431679	18615.509137
704.766725	18562.834120
705.101721	18469.529924
705.436668	18584.385053
705.771565	18289.941339
706.106413	18593.282690
706.441212	18665.194749
706.775961	18751.854704
707.110661	18816.358788
707.445311	19174.278191
707.779913	19045.360764
708.114465	19325.391819
708.448967	19628.534043
708.783421	20233.185159
709.117825	20565.543391
709.452180	20771.731625
709.786485	21196.126202
710.120742	21921.124784
710.454949	22020.740504
710.789107	22538.373743
711.123216	23230.468713
711.457275	23458.399443
711.791286	24029.161403
712.125247	24215.686615
712.459159	23994.662266
712.793023	24795.086592
713.126837	23816.054185
713.460602	24112.501758
713.794318	23812.636283
714.127985	23556.568353
714.461602	22679.032018
714.795171	22696.915511
715.128691	21699.656813
715.462162	21188.516581
715.795584	20746.861092
716.128957	20483.561627
716.462281	20090.598643
716.795556	19807.071548
717.128782	19321.895778
717.461960	18711.749805
717.795088	18681.298715
718.128167	18339.465635
718.461198	17866.378552
718.794180	17745.584944
719.127113	17403.698931
719.459997	17204.217953
719.792833	16817.052297
720.125619	16861.724481
720.458357	16507.722055
720.791046	16368.160232
721.123686	16199.722679
721.456278	15965.966896
721.788821	15960.265351
722.121315	15692.988415
722.453761	15785.488547
722.786158	15665.559497
723.118506	15742.535395
723.450805	15624.312776
723.783056	15789.685307
724.115259	15666.885320
724.447412	15645.435211
724.779518	15853.891963
725.111574	15901.067081
725.443582	16147.506407
725.775542	16096.530260
726.107453	16595.700272
726.439315	16486.309754
726.771129	16882.854478
727.102895	17299.493240
727.434612	17563.561482
727.766281	17750.769771
728.097901	18100.013348
728.429473	18198.759469
728.760996	18238.574502
729.092471	18364.005972
729.423897	18241.064832
729.755276	18096.134180
730.086606	18177.891613
730.417887	18718.194920
730.749120	19246.036495
731.080305	19464.149578
731.411442	19898.349200
731.742530	20020.987870
732.073570	20163.534057
732.404562	20498.697691
732.735506	20420.648027
733.066401	20305.180398
733.397249	19890.802593
733.728048	19291.243042
734.058798	18471.518660
734.389501	17687.273917
734.720156	17147.174777
735.050762	16545.697067
735.381320	16134.878317
735.711831	15825.016234
736.042293	15436.368478
736.372707	15453.694924
736.703073	15212.432863
737.033391	15395.404062
737.363661	15361.444329
737.693883	15464.525843
738.024056	15625.278157
738.354182	15822.475492
738.684260	16164.232956
739.014290	16428.344047
739.344272	16656.673028
739.674207	17013.710229
740.004093	17195.761418
740.333931	17269.521060
740.663722	17370.780197
740.993464	17437.033561
741.323159	17320.666086
741.652806	17043.521092
741.982405	16895.870737
742.311956	16543.700770
742.641460	16449.232068
742.970915	16125.728623
743.300323	15786.698424
743.629683	15567.287244
743.958996	15267.913281
744.288260	14954.577843
744.617477	14626.038286
744.946647	14589.764663
745.275768	14273.601138
745.604842	14068.632864
745.933869	13881.719482
746.262847	13841.133152
746.591778	13743.513729
746.920662	13615.488586
747.249498	13604.796298
747.578286	13734.084250
747.907027	13886.548907
748.235720	14146.881654
748.564365	14233.523965
748.892963	14160.815403
749.221514	14283.106233
749.550017	14157.105114
749.878473	14136.537206
750.206881	13923.182972
750.535242	13846.519625
750.863555	13769.533644
751.191821	13659.099608
751.520039	13663.359383
751.848210	13593.703239
752.176334	13627.985606
752.504411	13549.595664
752.832440	13372.638561
753.160421	13489.195079
753.488356	13391.192528
753.816243	13297.979072
754.144082	13134.350780
754.471875	13071.290987
754.799620	13035.271943
755.127318	13011.865865
755.454969	12991.441630
755.782572	12955.697329
756.110129	12964.524389
756.437638	12876.067263
756.765100	12874.093651
757.092515	12892.287175
757.419882	12923.431424
757.747203	12916.298191
758.074477	12998.753824
758.401703	12976.194661
758.728882	13148.791165
759.056014	13199.858054
759.383099	13365.606151
759.710138	13483.528822
760.037129	13618.828350
760.364073	13685.268237
760.690970	13713.617166
761.017820	13709.443090
761.344623	13907.845262
761.671379	14223.847470
761.998088	14757.123409
762.324751	16126.373890
762.651366	18999.082971
762.977935	23276.428913
763.304456	26618.572761
763.630931	28333.500203
763.957359	27642.388257
764.283740	25656.783621
764.610074	23541.933883
764.936362	20911.779920
765.262602	19009.780300
765.588796	16985.963718
765.914943	15621.477127
766.241044	14459.498727
766.567097	13617.983957
766.893104	12866.915048
767.219064	12371.707382
767.544978	11866.666946
767.870845	11455.860798
768.196665	11221.800025
768.522438	10984.018881
768.848165	10778.017170
769.173846	10560.977853
769.499479	10438.225757
769.825066	10261.361915
770.150607	10027.941369
770.476101	9946.993041
770.801548	9828.576337
771.126949	9672.827368
771.452303	9560.923835
771.777611	9361.160552
772.102872	9354.801137
772.428087	9209.391575
772.753256	9054.960868
773.078378	8977.009506
773.403453	8788.792986
773.728482	8671.762599
774.053465	8593.276875
774.378401	8492.123603
774.703291	8368.597689
775.028135	8247.473886
775.352932	8212.367290
775.677683	8111.345088
776.002388	8004.500353
776.327046	8009.211311
776.651658	7907.369921
776.976224	7811.582957
777.300743	7803.242368
777.625216	7712.836835
777.949643	7673.233531
778.274024	7683.888009
778.598359	7589.121879
778.922647	7610.317410
779.246889	7553.906898
779.571086	7558.769091
779.895236	7565.173877
780.219339	7568.075061
780.543397	7569.337870
780.867409	7652.093452
781.191374	7658.218454
781.515294	7625.670244
781.839167	7722.563742
782.162995	7696.919392
782.486776	7645.366032
782.810511	7603.791636
783.134201	7522.198041
783.457844	7512.546752
783.781441	7457.363761
784.104993	7400.910400
784.428498	7370.734053
784.751958	7353.127823
785.075372	7321.358472
785.398739	7271.299814
785.722061	7303.154865
786.045337	7302.118908
786.368568	7438.726615
786.691752	7443.354395
787.014891	7725.265800
787.337983	8023.825616
787.661030	8565.346362
787.984031	9183.480044
788.306987	9623.101427
788.629897	9897.582171
788.952760	9909.597762
789.275579	9749.687320
789.598351	9382.056135
789.921078	9055.306187
790.243759	8642.765882
790.566395	8346.275460
790.888984	8099.700023
791.211529	7882.960654
791.534027	7648.741085
791.856480	7443.712317
792.178888	7358.484049
792.501249	7262.923937
792.823566	7096.326405
793.145836	7092.316167
793.468062	7055.084725
793.790241	7000.645305
794.112375	7053.786628
794.434464	7192.448606
794.756507	7206.342026
795.078505	7340.514856
795.400457	7612.117102
795.722364	7944.485416
796.044226	8234.432421
796.366042	8530.103656
796.687812	8507.806632
797.009538	8614.679094
797.331218	8532.304119
797.652852	8459.751833
797.974442	8316.114237
798.295986	8234.263542
798.617484	8055.345430
798.938938	7918.097496
799.260346	7816.006569
799.581709	7617.619521
799.903026	7535.153806
800.224299	7432.354597
800.545526	7259.364882
800.866708	7158.851836
801.187845	7095.615602
801.508936	6989.002760
801.829983	6952.000691
802.150984	6797.822042
802.471940	6751.145998
802.792851	6732.957515
803.113717	6696.956115
803.434538	6662.154509
803.755314	6601.917762
804.076045	6601.035560
804.396731	6543.707559
804.717372	6565.686989
805.037967	6565.031639
805.358518	6596.654798
805.679024	6676.640265
805.999485	6682.435071
806.319901	6717.319856
806.640272	6734.167392
806.960598	6817.724517
807.280879	6816.673437
807.601115	6896.011116
807.921306	6846.275092
808.241453	6863.107505
808.561554	6882.652058
808.881611	6854.580393
809.201623	6868.509101
809.521590	6817.001112
809.841513	6806.374359
810.161390	6843.555389
810.481223	6718.799435
810.801011	6705.566406
811.120755	6680.408528
811.440453	6602.056394
811.760107	6570.725623
812.079716	6542.238062
812.399281	6477.534853
812.718801	6471.886240
813.038276	6432.184633
813.357707	6369.507967
813.677093	6405.615231
813.996434	6308.958668
814.315731	6348.070460
814.634983	6339.732392
814.954191	6341.839594
815.273354	6441.062105
815.592473	6496.388768
815.911547	6607.710048
816.230577	6688.721390
816.549562	6829.397309
816.868502	6929.169305
817.187399	7024.237905
817.506250	7171.142169
817.825058	7199.317178
818.143821	7440.748118
818.462539	7676.064138
818.781213	7994.791090
819.099843	8466.811969
819.418429	9362.027631
819.736970	10245.941026
820.055466	11339.773108
820.373919	12703.511087
820.692327	14706.235482
821.010691	17965.356567
821.329011	25267.752738
821.647286	36716.644141
821.965517	50583.867785
822.283704	58213.018946
822.601847	61544.016803
822.919945	59526.211797
823.237999	55848.879109
823.556010	50066.612633
823.873976	43519.746792
824.191897	37036.568367
824.509775	32178.925124
824.827609	27501.044386
825.145398	24624.730880
825.463144	22895.020254
825.780845	22719.633471
826.098502	23868.509912
826.416116	27065.410555
826.733685	30689.574193
827.051210	32499.474453
827.368692	31635.675262
827.686129	28229.788544
828.003522	24282.582727
828.320872	20573.929351
828.638177	17687.528496
828.955439	15471.878366
829.272656	13631.022901
829.589830	12121.633384
829.906960	10814.144599
830.224046	9830.234877
830.541088	9038.725832
830.858086	8537.199080
831.175041	8122.589382
831.491952	7949.970192
831.808819	7931.431348
832.125642	8210.081127
832.442421	8892.902895
832.759157	10336.591054
833.075849	12845.941328
833.392497	15917.075265
833.709101	18410.266120
834.025662	18841.105813
834.342179	17580.988750
834.658653	15567.748509
834.975083	13655.046520
835.291469	12012.744461
835.607811	10669.105562
835.924110	9744.734387
836.240366	8879.017037
836.556578	8067.850012
836.872746	7404.623210
837.188871	6882.697428
837.504952	6449.642148
837.820990	6118.839112
838.136984	5882.643411
838.452935	5760.120687
838.768842	5729.324278
839.084706	6001.571792
839.400526	6939.516273
839.716303	8404.465499
840.032037	9653.189553
840.347727	9916.625130
840.663373	9160.951127
840.978977	8143.386662
841.294537	7301.854247
841.610054	6679.344844
841.925527	6236.545014
842.240957	5877.892123
842.556344	5546.310229
842.871687	5265.485192
843.186987	4979.087160
843.502244	4741.507662
843.817458	4569.778235
844.132629	4427.854631
844.447756	4330.903160
844.762840	4249.160851
845.077881	4173.041948
845.392879	4110.135910
845.707833	4058.224628
846.022745	4013.063451
846.337613	3984.712002
846.652438	3938.973613
846.967221	3923.623300
847.281960	3885.731467
847.596656	3872.155640
847.911309	3851.297866
848.225919	3827.445646
848.540485	3807.369251
848.855009	3797.027324
849.169490	3774.919344
849.483928	3766.664454
849.798323	3759.377466
850.112675	3737.513982
850.426984	3744.521186
850.741251	3725.556365
851.055474	3718.655026
851.369654	3726.080645
851.683792	3719.973287
851.997887	3723.555027
852.311938	3727.761870
852.625947	3729.806058
852.939914	3721.452866
853.253837	3731.245307
853.567718	3731.832602
853.881555	3719.081003
854.195350	3731.051223
854.509103	3729.982498
854.822812	3727.398907
855.136479	3715.824418
855.450103	3729.599371
855.763685	3709.449879
856.077224	3716.134449
856.390720	3727.401428
856.704173	3747.656784
857.017584	3759.763115
857.330953	3764.862242
857.644278	3791.119092
857.957561	3796.518167
858.270802	3796.800472
858.584000	3803.427069
858.897155	3796.664361
859.210268	3778.654839
859.523339	3763.289402
859.836367	3757.182044
860.149352	3750.769696
860.462295	3745.446238
860.775195	3733.435689
861.088054	3729.140626
861.400869	3724.278433
861.713642	3727.187178
862.026373	3733.380236
862.339062	3736.805700
862.651708	3754.275819
862.964312	3782.118111
863.276873	3797.405410
863.589392	3841.591124
863.901869	3883.520921
864.214303	3924.013989
864.526696	3956.128660
864.839045	4006.280579
865.151353	4031.952655
865.463619	4042.599572
865.775842	4050.355387
866.088023	4071.137544
866.400162	4061.985329
866.712258	4072.990168
867.024313	4077.282710
867.336325	4073.854726
867.648296	4078.452258
867.960224	4078.109459
868.272110	4087.533897
868.583954	4088.549689
868.895755	4103.922688
869.207515	4098.730299
869.519233	4134.469559
869.830909	4145.885252
870.142542	4169.392153
870.454134	4183.308258
870.765684	4210.422104
871.077191	4244.238164
871.388657	4266.714148
871.700081	4301.518274
872.011463	4339.226105
872.322803	4367.201988
872.634101	4399.868665
872.945357	4434.929890
873.256571	4486.301769
873.567744	4518.144217
873.878874	4540.461405
874.189963	4576.861056
874.501010	4585.733487
874.812015	4586.320782
875.122979	4632.802741
875.433900	4627.925424
875.744780	4639.325994
876.055618	4667.629552
876.366415	4669.111651
876.677169	4689.195608
876.987882	4727.044591
877.298554	4772.460346
877.609183	4842.003063
877.919771	4934.639307
878.230317	5060.748811
878.540822	5239.193054
878.851285	5519.642525
879.161707	5905.406741
879.472087	6542.422064
879.782425	7542.052625
880.092722	9332.826747
880.402977	12121.267900
880.713191	15587.993783
881.023363	19258.740203
881.333494	21735.597719
881.643583	23239.502461
881.953631	23493.395133
882.263637	22885.832751
882.573602	21628.402624
882.883526	20237.008874
883.193408	18698.415953
883.503248	17094.444307
883.813048	15633.656555
884.122806	14275.952836
884.432522	12844.063498
884.742197	11611.032555
885.051831	10521.296410
885.361424	9521.799440
885.670975	8686.389507
885.980485	7994.284454
886.289954	7404.663539
886.599382	6930.643843
886.908768	6549.462036
887.218113	6184.928639
887.527417	5892.153548
887.836680	5622.915603
888.145901	5404.074073
888.455082	5239.659361
888.764221	5082.108180
889.073319	4946.889310
889.382376	4869.268144
889.691392	4806.631807
890.000366	4771.741982
890.309300	4747.531840
890.618193	4752.827572
890.927044	4736.960541
891.235855	4753.513169
891.544625	4775.122075
891.853353	4820.552954
892.162041	4915.485442
892.470687	5072.698866
892.779293	5278.367861
893.087858	5594.216314
893.396381	6076.730354
893.704864	6748.327993
894.013306	7754.512054
894.321707	8864.700160
894.630068	9737.404549
894.938387	10095.702038
895.246665	9999.786524
895.554903	9497.430502
895.863100	8855.021144
896.171256	8347.815533
896.479371	7861.954166
896.787446	7380.609673
897.095480	6963.686086
897.403473	6649.690257
897.711425	6342.928483
898.019336	6085.799390
898.327207	5826.094268
898.635038	5598.634885
898.942827	5358.413822
899.250576	5164.508360
899.558284	4972.052230
899.865952	4849.458930
900.173579	4705.382753
900.481165	4597.507102
900.788711	4505.374974
901.096216	4430.755815
901.403681	4366.334910
901.711105	4336.957586
902.018489	4309.238802
902.325832	4359.171430
902.633135	4440.371816
902.940397	4693.702400
903.247619	5286.748779
903.554800	6449.556449
903.861941	8172.784150
904.169041	9748.177495
904.476101	10615.697057
904.783121	10519.128714
905.090100	9922.495554
905.397039	9149.343871
905.703938	8431.952390
906.010796	7766.820031
906.317614	7231.341108
906.624391	6722.645835
906.931129	6305.996990
907.237826	5923.353249
907.544483	5557.534358
907.851099	5198.745357
908.157675	4849.030432
908.464211	4522.925751
908.770707	4280.700830
909.077163	4070.348603
909.383578	3923.005758
909.689954	3798.131337
909.996289	3719.907752
910.302584	3652.999038
910.608839	3618.736836
910.915054	3583.652926
911.221229	3565.381263
911.527363	3569.847726
911.833458	3583.589911
912.139513	3602.032972
912.445527	3621.451497
912.751502	3693.469421
913.057436	3776.288017
913.363331	3897.726892
913.669186	4066.676122
913.975000	4286.024288
914.280775	4639.641066
914.586510	5129.426971
914.892205	5809.559283
915.197859	6720.092491
915.503475	7837.144127
915.809050	8867.535809
916.114585	9576.672400
916.420081	9937.747565
916.725536	10004.411783
917.030952	9656.126026
917.336328	9313.829159
917.641665	8948.282491
917.946961	8509.424843
918.252218	8128.008622
918.557435	7635.959239
918.862612	7227.434214
919.167750	6877.658795
919.472848	6477.602908
919.777906	6120.250636
920.082925	5773.094097
920.387904	5409.944497
920.692843	5144.290813
920.997743	4894.050456
921.302603	4665.396321
921.607423	4501.112679
921.912204	4340.753575
922.216946	4224.091193
922.521647	4103.053089
922.826310	3999.757326
923.130932	3910.327257
923.435516	3814.767144
923.740059	3744.826176
924.044564	3667.852798
924.349028	3616.027216
924.653454	3552.692679
924.957840	3484.758090
925.262186	3440.743776
925.566493	3380.900238
925.870761	3324.981239
926.174989	3292.085190
926.479178	3254.765528
926.783328	3214.106102
927.087438	3185.467307
927.391509	3151.691576
927.695541	3122.326855
927.999533	3096.977413
928.303486	3075.892787
928.607400	3062.188410
928.911275	3044.451110
929.215110	3028.488297
929.518906	3021.150897
929.822663	3020.203160
930.126381	3012.712006
930.430060	3015.865247
930.733699	3020.724920
931.037299	3026.933101
931.340861	3024.626773
931.644383	3037.406098
931.947866	3034.278062
932.251309	3026.733975
932.554714	3030.073739
932.858080	3023.749612
933.161407	3016.606297
933.464694	3013.294259
933.767943	3003.219513
934.071153	2999.040396
934.374323	2988.491782
934.677455	2985.025989
934.980548	2975.954432
935.283602	2971.283803
935.586617	2964.745427
935.889593	2975.709936
936.192530	2978.094402
936.495428	2987.155876
936.798287	3006.072806
937.101108	3032.301929
937.403890	3074.183836
937.706632	3123.811475
938.009336	3192.567772
938.312002	3262.387753
938.614628	3323.925118
938.917216	3378.959394
939.219765	3412.309148
939.522275	3446.548664
939.824747	3455.257258
940.127179	3455.773976
940.429573	3451.302472
940.731929	3455.315231
941.034246	3439.836368
941.336524	3431.664658
941.638763	3422.008328
941.940964	3412.515835
942.243126	3370.207951
942.545250	3353.292359
942.847335	3314.972028
943.149381	3285.609828
943.451389	3255.904829
943.753359	3221.619942
944.055290	3197.692105
944.357182	3170.933660
944.659036	3156.092503
944.960851	3143.943322
945.262628	3133.157774
945.564367	3133.798000
945.866067	3126.500930
946.167729	3121.404324
946.469352	3119.476082
946.770937	3114.560957
947.072484	3100.148298
947.373992	3106.855554
947.675462	3101.355655
947.976893	3079.986204
948.278286	3075.618044
948.579641	3066.924574
948.880958	3062.425344
949.182236	3064.598082
949.483476	3058.778069
949.784678	3055.934859
950.085841	3058.389901
950.386967	3064.835016
950.688054	3075.300451
950.989103	3091.762339
951.290114	3110.636419
951.591087	3137.714977
951.892021	3161.042916
952.192917	3188.764221
952.493776	3213.508725
952.794596	3222.131619
953.095378	3233.703587
953.396122	3229.935325
953.696828	3225.327710
953.997496	3214.055690
954.298126	3198.992722
954.598718	3180.486647
954.899272	3158.250117
955.199788	3136.908392
955.500266	3104.324894
955.800706	3072.109401
956.101108	3038.782333
956.401472	3009.480626
956.701798	2978.946357
957.002087	2939.388423
957.302337	2914.107036
957.602550	2887.845145
957.902724	2856.390866
958.202861	2833.037721
958.502960	2810.675162
958.803022	2790.833181
959.103045	2772.871550
959.403031	2756.220618
959.702979	2741.084554
960.002889	2729.711711
960.302762	2717.691080
960.602596	2706.103987
960.902393	2698.882535
961.202153	2689.122861
961.501875	2678.566685
961.801559	2674.717764
962.101205	2667.834068
962.400814	2663.783501
962.700385	2658.412152
962.999918	2649.312869
963.299414	2642.842548
963.598873	2640.165695
963.898293	2633.226547
964.197677	2639.621251
964.497022	2635.147227
964.796331	2631.993985
965.095601	2630.645476
965.394835	2625.218674
965.694030	2624.596092
965.993189	2623.381173
966.292309	2621.483179
966.591393	2622.844291
966.890439	2621.137860
967.189447	2622.418313
967.488419	2620.066615
967.787353	2620.311111
968.086249	2620.792541
968.385108	2624.472583
968.683930	2625.700104
968.982714	2627.749333
969.281462	2632.004067
969.580172	2638.116466
969.878844	2641.241982
970.177480	2650.111892
970.476078	2655.029537
970.774639	2661.895589
971.073162	2670.326919
971.371649	2675.720953
971.670098	2679.007786
971.968510	2685.289063
972.266885	2691.096472
972.565223	2694.516895
972.863524	2697.350024
973.161788	2701.677854
973.460014	2700.873790
973.758204	2707.661704
974.056356	2706.237578
974.354471	2710.406612
974.652550	2709.179091
974.950591	2710.814946
975.248595	2712.176057
975.546563	2707.659183
975.844493	2703.772454
976.142386	2696.891279
976.440243	2693.516226
976.738062	2693.327183
977.035845	2687.413910
977.333590	2680.759587
977.631299	2673.817918
977.928971	2668.547391
978.226606	2661.363747
978.524204	2660.232008
978.821765	2654.656492
979.119290	2656.151194
979.416777	2653.136584
979.714228	2657.676143
980.011642	2660.393325
980.309020	2666.767864
980.606360	2679.683300
980.903664	2698.912782
981.200931	2722.238200
981.498162	2766.645725
981.795356	2828.213337
982.092513	2903.061868
982.389633	3001.175325
982.686717	3093.216712
982.983764	3172.375430
983.280775	3230.401632
983.577749	3246.346801
983.874686	3242.785226
984.171587	3213.332285
984.468451	3184.917821
984.765279	3146.126142
985.062070	3103.661983
985.358824	3064.524985
985.655543	3010.476254
985.952224	2961.317442
986.248869	2901.395767
986.545478	2843.324195
986.842050	2790.036678
987.138586	2745.576222
987.435086	2706.605582
987.731549	2675.882270
988.027975	2650.237921
988.324366	2630.136320
988.620719	2615.433794
988.917037	2608.424070
989.213318	2594.374374
989.509563	2587.830957
989.805772	2583.868610
990.101944	2577.405850
990.398080	2576.140521
990.694180	2575.202866
990.990244	2575.497774
991.286271	2574.003072
991.582262	2574.890315
991.878217	2575.389389
992.174136	2580.221335
992.470019	2582.378949
992.765865	2583.447673
993.061676	2587.404979
993.357450	2597.572986
993.653188	2602.009202
993.948890	2618.750874
994.244556	2632.941722
994.540186	2649.711120
994.835780	2682.166068
995.131337	2713.451469
995.426859	2749.916656
995.722345	2795.329890
996.017795	2840.420491
996.313208	2881.503374
996.608586	2909.300296
996.903928	2924.544745
997.199234	2929.515323
997.494504	2929.185128
997.789738	2919.448139
998.084936	2900.427865
998.380099	2870.415356
998.675225	2844.125739
998.970316	2814.811429
999.265371	2781.776748
999.560390	2749.929258
999.855373	2721.492110
1000.150320	2690.816688
1000.445232	2663.549087
1000.740108	2644.256592
1001.034948	2627.603140
1001.329752	2611.446242
1001.624521	2599.075250
1001.919254	2587.657037
1002.213951	2579.628999
1002.508613	2569.629871
1002.803239	2563.993861
1003.097829	2556.963972
1003.392384	2553.936759
1003.686903	2550.360060
1003.981386	2548.290666
1004.275834	2542.450490
1004.570246	2542.445448
1004.864623	2535.851619
1005.158964	2538.087371
1005.453270	2535.899510
1005.747540	2531.899355
1006.041775	2533.378933
1006.335974	2531.317101
1006.630138	2527.253931
1006.924266	2529.656041
1007.218359	2522.144722
1007.512416	2526.220495
1007.806438	2519.969464
1008.100425	2522.822757
1008.394376	2517.456449
1008.688292	2521.622963
1008.982172	2525.759229
1009.276017	2524.564476
1009.569827	2523.006759
1009.863602	2521.796882
1010.157341	2521.769156
1010.451045	2519.631707
1010.744714	2519.702283
1011.038347	2518.721778
1011.331945	2517.398476
1011.625508	2515.240862
1011.919036	2517.726151
1012.212528	2512.092661
1012.505986	2516.367560
1012.799408	2512.934534
1013.092795	2511.611231
1013.386147	2509.579646
1013.679464	2513.032836
1013.972745	2512.314472
1014.265992	2514.293125
1014.559204	2512.004441
1014.852380	2510.295490
1015.145521	2510.499657
1015.438628	2508.092506
1015.731699	2512.521159
1016.024736	2510.865140
1016.317737	2510.444204
1016.610703	2511.868330
1016.903635	2516.123064
1017.196531	2516.299504
1017.489393	2518.270595
1017.782219	2516.675070
1018.075011	2520.148425
1018.367768	2520.105575
1018.660490	2522.248066
1018.953177	2522.248066
1019.245829	2522.248066
