Dividing Wavelength (nm)	Counts (n)	Blue Motor Position (mm): 0.000000	Red Motor Position (mm): 0.000000	
326.493990	2054.938145
326.888308	2054.938145
327.282561	2054.938145
327.676750	2029.689526
328.070874	2032.005936
328.464933	2039.119004
328.858929	2047.678884
329.252859	2057.584751
329.646726	2071.062276
330.040528	2086.888978
330.434265	2104.512852
330.827938	2125.484052
331.221547	2143.480971
331.615091	2163.809424
332.008571	2184.450429
332.401986	2204.660414
332.795338	2223.887375
333.188625	2241.793554
333.581847	2263.926740
333.975006	2282.707558
334.368100	2299.366051
334.761129	2314.539924
335.154095	2332.141113
335.546996	2347.015037
335.939833	2357.808148
336.332606	2371.885570
336.725315	2384.493496
337.117960	2395.377347
337.510540	2405.187432
337.903056	2413.311252
338.295508	2422.271902
338.687896	2429.705084
339.080220	2433.884200
339.472480	2435.182297
339.864676	2441.849223
340.256807	2442.688576
340.648875	2446.451797
341.040879	2447.616303
341.432818	2448.889195
341.824694	2452.642334
342.216506	2449.025306
342.608253	2450.888012
342.999937	2450.593105
343.391557	2447.858279
343.783113	2449.577312
344.174605	2446.018258
344.566033	2445.942640
344.957397	2441.002310
345.348697	2440.420056
345.739934	2439.658842
346.131106	2437.735642
346.522215	2434.905034
346.913260	2434.640373
347.304241	2432.712132
347.695159	2431.706422
348.086012	2429.453026
348.476802	2427.416400
348.867528	2426.173756
349.258191	2420.815009
349.648789	2420.807447
350.039324	2416.714030
350.429796	2421.740061
350.820203	2418.420461
351.210548	2421.697211
351.600828	2418.042374
351.991045	2419.156469
352.381198	2420.021027
352.771288	2415.058011
353.161314	2419.844587
353.551276	2417.596232
353.941175	2418.617066
354.331010	2418.773342
354.720782	2415.761252
355.110490	2419.254772
355.500135	2417.986922
355.889717	2418.753177
356.279235	2416.827456
356.668689	2422.355082
357.058080	2419.312745
357.447408	2420.502457
357.836672	2419.509350
358.225873	2422.980185
358.615010	2419.509350
359.004084	2424.621080
359.393095	2426.088056
359.782043	2423.557397
360.170927	2425.568817
360.559748	2422.692839
360.948505	2427.822213
361.337199	2426.317428
361.725830	2426.133426
362.114398	2428.031421
362.502903	2425.525967
362.891344	2425.639393
363.279722	2423.413724
363.668037	2428.422110
364.056289	2428.762388
364.444478	2431.013263
364.832603	2429.521082
365.220665	2429.662234
365.608665	2426.146029
365.996601	2430.204158
366.384474	2428.497727
366.772284	2432.500404
367.160031	2430.551998
367.547715	2431.091401
367.935336	2431.280444
368.322893	2428.848088
368.710388	2426.438416
369.097820	2428.855649
369.485189	2426.302305
369.872495	2431.426638
370.259738	2432.152564
370.646918	2434.506783
371.034035	2430.536874
371.421090	2434.978131
371.808081	2432.830599
372.195010	2434.617688
372.581875	2432.994437
372.968678	2432.661721
373.355418	2435.058789
373.742096	2436.372010
374.128710	2433.392688
374.515262	2435.600713
374.901751	2436.389654
375.288177	2434.385795
375.674540	2435.865374
376.060841	2435.101639
376.447079	2436.682041
376.833254	2436.510642
377.219367	2434.927719
377.605417	2438.708585
377.991404	2437.150868
378.377329	2438.887546
378.763191	2435.789757
379.148991	2435.716660
379.534727	2438.948039
379.920402	2437.153389
380.306013	2440.294028
380.691563	2438.060796
381.077049	2438.958122
381.462474	2439.794953
381.847835	2436.961825
382.233134	2440.634305
382.618371	2439.999120
383.003545	2439.668924
383.388657	2441.851744
383.773706	2439.666404
384.158693	2442.527259
384.543618	2443.570778
384.928480	2443.409461
385.313280	2439.721857
385.698017	2439.537854
386.082692	2442.050870
386.467305	2444.016920
386.851856	2441.564398
387.236344	2442.257557
387.620770	2440.223451
388.005133	2438.728749
388.389435	2440.611620
388.773674	2436.233378
389.157851	2443.538010
389.541965	2444.495829
389.926018	2443.553133
390.310008	2443.331323
390.693936	2444.962136
391.077802	2442.093719
391.461606	2444.062290
391.845348	2442.890222
392.229027	2445.922476
392.612645	2444.647064
392.996200	2445.272167
393.379694	2444.765531
393.763125	2444.236210
394.146494	2443.502722
394.529801	2445.940120
394.913047	2444.485747
395.296230	2447.177723
395.679351	2445.080603
396.062410	2446.897939
396.445408	2448.274174
396.828343	2448.037240
397.211217	2448.122939
397.594028	2448.538835
397.976778	2447.165120
398.359466	2449.617642
398.742092	2447.696962
399.124656	2446.797116
399.507158	2445.940120
399.889598	2451.064453
400.271977	2447.223093
400.654294	2449.302569
401.036549	2446.648402
401.418742	2451.107302
401.800874	2449.610080
402.182944	2449.020265
402.564952	2448.130501
402.946898	2451.654268
403.328783	2448.374997
403.710606	2449.310131
404.092367	2449.347940
404.474067	2449.665533
404.855705	2450.386418
405.237282	2448.405244
405.618797	2449.461366
406.000250	2450.976232
406.381642	2449.708382
406.762972	2448.964812
407.144240	2448.740481
407.525447	2450.222580
407.906593	2446.625717
408.287677	2448.755604
408.668700	2452.513784
409.049661	2451.936572
409.430560	2451.104782
409.811399	2453.330451
410.192176	2450.832560
410.572891	2454.071501
410.953545	2450.502364
411.334138	2456.763477
411.714669	2454.673919
412.095139	2456.458487
412.475547	2453.401028
412.855894	2457.007973
413.236180	2453.194340
413.616405	2456.226594
413.996568	2453.078394
414.376670	2454.865483
414.756711	2455.810699
415.136691	2454.121912
415.516609	2453.774073
415.896466	2455.863631
416.276262	2455.616615
416.655997	2458.081739
417.035670	2452.206274
417.415283	2456.788683
417.794834	2455.475462
418.174324	2456.014866
418.553753	2455.309104
418.933121	2454.011007
419.312428	2454.845318
419.691674	2456.667695
420.070859	2457.499486
420.449983	2457.302881
420.829045	2455.848508
421.208047	2458.167438
421.586988	2457.479321
421.965867	2456.264403
422.344686	2455.866152
422.723444	2457.171811
423.102141	2456.309773
423.480777	2457.098714
423.859352	2458.739609
424.237866	2457.242387
424.616319	2456.970164
424.994712	2458.013683
425.373044	2458.432099
425.751314	2457.665844
426.129524	2453.776593
426.507673	2458.195165
426.885762	2454.000925
427.263789	2460.796400
427.641756	2459.231122
428.019662	2461.078705
428.397508	2457.164249
428.775292	2459.773046
429.153016	2459.697429
429.530679	2459.652058
429.908282	2457.532253
430.285824	2461.305557
430.663305	2460.700618
431.040726	2459.553756
431.418086	2463.042234
431.795385	2461.537450
432.172624	2459.079887
432.549802	2459.316822
432.926920	2462.893520
433.303977	2461.872687
433.680974	2462.830506
434.057910	2461.434106
434.434786	2462.686833
434.811601	2461.066102
435.188355	2460.728345
435.565050	2459.309260
435.941683	2461.602985
436.318257	2463.637090
436.694770	2460.947635
437.071222	2463.195989
437.447614	2462.447378
437.823946	2461.628191
438.200218	2462.333952
438.576429	2464.368058
438.952580	2460.062912
439.328670	2462.084415
439.704700	2460.776236
440.080670	2463.379992
440.456580	2463.586679
440.832429	2461.650876
441.208218	2463.783284
441.583947	2463.405197
441.959616	2466.480301
442.335224	2462.389405
442.710773	2463.296813
443.086261	2463.243880
443.461689	2462.250773
443.837057	2466.918882
444.212365	2463.095166
444.587612	2460.577110
444.962800	2458.777418
445.337927	2460.178859
445.712995	2460.299847
446.088002	2462.467543
446.462949	2462.502831
446.837837	2462.361678
447.212664	2461.366051
447.587431	2464.627677
447.962139	2464.849488
448.336786	2465.361165
448.711374	2465.572893
449.085901	2467.551546
449.460369	2464.428552
449.834776	2464.594910
450.209124	2464.468881
450.583412	2465.807307
450.957640	2465.857719
451.331808	2464.463840
451.705917	2465.247739
452.079965	2464.718418
452.453954	2465.872842
452.827883	2465.729169
453.201752	2464.368058
453.575562	2465.096504
453.949311	2463.899230
454.323001	2468.562298
454.696632	2465.073819
455.070202	2464.781432
455.443713	2464.627677
455.817164	2469.300827
456.190556	2467.702781
456.563888	2468.247226
456.937160	2467.123048
457.310373	2465.068778
457.683526	2467.614561
458.056619	2465.860239
458.429653	2465.151957
458.802628	2467.606999
459.175542	2467.380147
459.548398	2469.504993
459.921194	2468.809314
460.293930	2466.318984
460.666607	2465.570373
461.039224	2467.153295
461.411782	2465.560291
461.784280	2465.335959
462.156719	2465.426700
462.529099	2469.378965
462.901419	2467.969962
463.273680	2466.419807
463.645882	2463.115331
464.018024	2464.678089
464.390106	2463.639611
464.762130	2468.562298
465.134094	2467.543985
465.505999	2468.277473
465.877845	2467.289406
466.249631	2467.859057
466.621358	2469.774695
466.993026	2468.206896
467.364634	2472.567494
467.736184	2468.055662
468.107674	2467.919551
468.479105	2468.721094
468.850477	2468.181691
469.221790	2469.593214
469.593043	2469.245374
469.964238	2467.717904
470.335373	2468.615230
470.706449	2472.068420
471.077467	2469.628502
471.448425	2469.066413
471.819324	2470.233440
472.190164	2468.542133
472.560945	2467.768316
472.931667	2468.262349
473.302330	2468.816876
473.672934	2470.417442
474.043479	2469.815024
474.413965	2472.728811
474.784393	2469.237812
475.154761	2470.059520
475.525070	2468.678244
475.895321	2472.141517
476.265513	2467.811166
476.635645	2472.121352
477.005719	2468.269911
477.375734	2472.817032
477.745691	2468.884932
478.115588	2468.995837
478.485427	2468.516927
478.855207	2469.968780
479.224928	2471.032463
479.594591	2468.403501
479.964194	2471.970118
480.333739	2469.855354
480.703226	2471.357617
481.072653	2472.368369
481.442022	2470.762761
481.811333	2471.836527
482.180584	2466.470219
482.549777	2467.821248
482.918912	2466.560960
483.287988	2471.508852
483.657005	2469.124386
484.025964	2472.358287
484.394864	2469.812504
484.763706	2471.299644
485.132489	2472.247381
485.501213	2472.141517
485.869879	2471.082875
486.238487	2470.961887
486.607036	2471.576908
486.975527	2469.136989
487.343959	2470.059520
487.712333	2470.107411
488.080648	2469.913327
488.448905	2473.122021
488.817104	2469.792339
489.185244	2472.242340
489.553326	2470.175467
489.921350	2472.786785
490.289315	2473.532875
490.657222	2471.382823
491.025070	2470.666979
491.392861	2472.320478
491.760593	2472.658235
492.128267	2470.916517
492.495883	2471.246712
492.863440	2473.232927
493.230939	2472.494398
493.598380	2471.607155
493.965763	2474.843575
494.333088	2472.338122
494.700354	2469.308388
495.067563	2474.949440
495.434713	2472.625468
495.801805	2472.098667
496.168839	2472.161682
496.535815	2471.569346
496.902733	2472.103708
497.269593	2471.234109
497.636395	2474.367186
498.003139	2470.548512
498.369825	2471.057669
498.736453	2473.001034
499.103023	2473.076651
499.469535	2473.333750
499.835989	2472.711167
500.202385	2469.724284
500.568723	2468.612709
500.935003	2472.902731
501.301226	2468.310240
501.667390	2471.110601
502.033497	2475.385499
502.399546	2472.917855
502.765537	2472.282669
503.131470	2469.872998
503.497345	2470.498101
503.863163	2473.338791
504.228923	2471.481126
504.594625	2473.132104
504.960269	2472.776702
505.325856	2471.324850
505.691385	2472.378451
506.056856	2474.220993
506.422270	2474.732670
506.787625	2471.949953
507.152924	2472.386013
507.518164	2473.076651
507.883347	2473.379120
508.248472	2471.949953
508.613540	2473.374079
508.978550	2474.354583
509.343503	2472.920375
509.708398	2474.205869
510.073236	2473.283338
510.438016	2472.615385
510.802738	2471.483646
511.167403	2472.451548
511.532010	2472.509521
511.896561	2471.902062
512.261053	2474.762917
512.625488	2473.101857
512.989866	2470.515745
513.354186	2475.418267
513.718449	2472.512042
514.082655	2472.441466
514.446803	2473.784933
514.810894	2474.697382
515.174927	2476.038329
515.538904	2476.998669
515.902822	2474.231075
516.266684	2473.636219
516.630488	2474.510859
516.994235	2472.184367
517.357925	2473.086733
517.721558	2473.709316
518.085133	2474.049594
518.448651	2472.718729
518.812112	2471.753348
519.175516	2472.948102
519.538863	2468.380816
519.902152	2475.372897
520.265385	2472.955663
520.628560	2473.948771
520.991678	2475.942547
521.354739	2476.053452
521.717743	2471.773513
522.080690	2473.941209
522.443580	2474.939357
522.806413	2473.847948
523.169189	2474.059676
523.531908	2476.368524
523.894569	2471.423153
524.257174	2476.232413
524.619722	2473.585808
524.982213	2473.981538
525.344647	2476.350880
525.707025	2475.246868
526.069345	2474.757876
526.431608	2475.670325
526.793815	2473.815180
527.155964	2474.528503
527.518057	2472.224696
527.880093	2474.762917
528.242072	2474.407516
528.603995	2475.758545
528.965860	2473.396764
529.327669	2476.555047
529.689421	2473.656384
530.051117	2475.246868
530.412755	2472.660756
530.774337	2476.766776
531.135862	2474.306693
531.497331	2476.207208
531.858743	2473.684110
532.220098	2475.065386
532.581396	2474.178143
532.942638	2477.437249
533.303824	2474.311734
533.664953	2476.469347
534.026025	2472.796867
534.387040	2475.831642
534.747999	2475.841724
535.108902	2479.236941
535.469748	2475.415746
535.830537	2475.937506
536.191270	2475.912300
536.551947	2471.889459
536.912567	2470.432566
537.273131	2473.951291
537.633638	2470.578759
537.994089	2472.806949
538.354483	2475.264512
538.714821	2474.178143
539.075103	2474.583956
539.435328	2475.466158
539.795497	2474.331898
540.155609	2474.911631
540.515665	2474.387351
540.875665	2476.771817
541.235609	2474.886425
541.595496	2475.118318
541.955328	2475.314923
542.315102	2473.253091
542.674821	2476.791981
543.034483	2476.081179
543.394090	2476.766776
543.753640	2475.251909
544.113134	2474.699902
544.472571	2476.368524
544.831953	2476.824749
545.191278	2477.691827
545.550548	2475.141003
545.909761	2474.929275
546.268918	2474.306692
546.628019	2476.199646
546.987064	2473.389203
547.346053	2471.849130
547.704986	2473.232927
548.063863	2478.286683
548.422684	2473.850468
548.781449	2479.340285
549.140158	2474.641929
549.498811	2474.299131
549.857408	2473.926085
550.215949	2477.495222
550.574434	2474.314254
550.932864	2475.146045
551.291237	2478.165696
551.649555	2480.053608
552.007817	2474.989769
552.366022	2474.677217
552.724173	2478.352218
553.082267	2476.232413
553.440305	2476.832311
553.798288	2475.574543
554.156215	2477.104533
554.514086	2473.805098
554.871902	2472.562453
555.229661	2473.308544
555.587365	2472.078503
555.945014	2478.405151
556.302606	2476.809625
556.660143	2478.405151
557.017625	2478.195943
557.375050	2474.863740
557.732421	2477.470017
558.089735	2474.410036
558.446994	2472.575056
558.804197	2473.311065
559.161345	2476.300469
559.518437	2475.224183
559.875474	2477.298617
560.232455	2477.364152
560.589381	2474.583956
560.946251	2474.468009
561.303065	2477.109574
561.659825	2477.374235
562.016528	2475.665283
562.373177	2475.370376
562.729770	2476.620582
563.086307	2478.558906
563.442789	2475.345170
563.799216	2477.313741
564.155587	2475.531693
564.511904	2477.923720
564.868164	2477.044039
565.224370	2477.454893
565.580520	2476.227372
565.936615	2476.774337
566.292654	2475.750983
566.648638	2477.157465
567.004567	2474.808287
567.360441	2477.069245
567.716260	2476.224852
568.072023	2475.529172
568.427732	2474.823411
568.783385	2475.335088
569.138982	2476.408854
569.494525	2476.923051
569.850013	2479.504122
570.205445	2474.662094
570.560823	2478.057311
570.916145	2479.400778
571.271412	2479.269708
571.626625	2475.002372
571.981782	2475.829121
572.336884	2476.146714
572.691931	2471.347535
573.046923	2471.932309
573.401860	2471.221506
573.756743	2477.669142
574.111570	2474.137814
574.466342	2476.943216
574.821059	2476.255098
575.175722	2477.432208
575.530330	2475.105715
575.884882	2476.159317
576.239380	2476.413895
576.593823	2476.726446
576.948211	2476.267701
577.302544	2476.287866
577.656823	2475.619913
578.011047	2475.385499
578.365216	2478.921869
578.719330	2474.654532
579.073389	2478.765593
579.427394	2473.986579
579.781344	2478.475727
580.135239	2476.358442
580.489080	2475.337608
580.842866	2476.562609
581.196597	2480.030923
581.550273	2477.711992
581.903895	2477.044039
582.257463	2477.243165
582.610975	2475.768627
582.964434	2476.429018
583.317837	2475.975314
583.671186	2477.212918
584.024481	2476.063535
584.377721	2475.496405
584.730906	2475.551858
585.084037	2476.290387
585.437113	2475.380458
585.790135	2476.834831
586.143103	2476.892804
586.496016	2477.391879
586.848874	2476.827269
587.201679	2475.181333
587.554428	2475.226703
587.907124	2476.514718
588.259765	2477.490181
588.612352	2476.418936
588.964884	2475.950109
589.317362	2475.589666
589.669786	2480.628299
590.022155	2471.612196
590.374470	2473.515231
590.726731	2474.183184
591.078937	2472.133955
591.431090	2475.193936
591.783188	2473.605972
592.135232	2476.663432
592.487222	2477.417084
592.839157	2477.011272
593.191038	2477.994297
593.542866	2475.950109
593.894639	2478.536221
594.246358	2476.708802
594.598022	2475.551858
594.949633	2475.763586
595.301190	2473.863071
595.652692	2475.357773
596.004141	2477.863227
596.355535	2476.681076
596.706876	2475.534213
597.058162	2477.016313
597.409395	2476.451703
597.760573	2477.013792
598.111698	2477.170068
598.462768	2476.852475
598.813785	2472.340642
599.164748	2478.624441
599.515657	2475.980356
599.866511	2474.412557
600.217312	2475.181333
600.568060	2478.516056
600.918753	2478.085037
601.269392	2477.268370
601.619978	2474.508339
601.970510	2478.750470
602.320988	2477.550675
602.671412	2475.226703
603.021783	2476.464306
603.372100	2477.064204
603.722363	2474.997331
604.072572	2477.717033
604.422728	2478.947075
604.772830	2476.703761
605.122878	2475.128401
605.472872	2477.190232
605.822813	2476.151755
606.172701	2475.319964
606.522534	2475.287197
606.872314	2476.590335
607.222041	2479.078145
607.571714	2473.684110
607.921333	2471.158492
608.270899	2475.458596
608.620411	2469.542802
608.969870	2476.446662
609.319276	2476.239975
609.668627	2479.491519
610.017926	2476.613020
610.367171	2476.363483
610.716362	2478.455562
611.065500	2477.175109
611.414585	2474.251240
611.763616	2477.512866
612.112594	2476.086220
612.461518	2473.293421
612.810389	2477.200315
613.159207	2476.005561
613.507971	2476.454224
613.856682	2475.534213
614.205340	2476.066055
614.553945	2478.478247
614.902496	2476.202166
615.250994	2477.651498
615.599439	2476.766776
615.947830	2477.021354
616.296169	2476.650829
616.644454	2476.986066
616.992686	2475.105715
617.340864	2478.032105
617.688990	2476.865078
618.037063	2472.194449
618.385082	2473.948771
618.733048	2477.830459
619.080961	2475.312403
619.428821	2478.881540
619.776628	2474.329378
620.124382	2477.550675
620.472083	2475.871971
620.819731	2475.398102
621.167326	2479.153762
621.514868	2475.088071
621.862357	2474.697382
622.209793	2474.790643
622.557176	2475.476240
622.904506	2475.803915
623.251783	2476.257619
623.599007	2478.011941
623.946179	2475.173771
624.293297	2478.637044
624.640363	2474.591518
624.987376	2475.302320
625.334336	2472.091105
625.681243	2477.220479
626.028097	2469.792339
626.374899	2476.071096
626.721647	2476.227372
627.068343	2477.654019
627.414987	2477.336426
627.761577	2474.667135
628.108115	2475.367855
628.454600	2476.789461
628.801032	2475.710654
629.147412	2478.137969
629.493739	2475.156127
629.840014	2474.704944
630.186236	2477.444811
630.532405	2472.133955
630.878521	2476.567650
631.224585	2476.345839
631.570597	2476.038329
631.916556	2471.783595
632.262462	2476.534882
632.608316	2476.902887
632.954117	2476.161837
633.299866	2476.302989
633.645562	2474.964563
633.991206	2474.941878
634.336797	2474.329378
634.682336	2477.633854
635.027823	2473.442135
635.373257	2473.248050
635.718639	2474.301651
636.063968	2476.812146
636.409245	2476.497074
636.754470	2477.003710
637.099642	2474.944398
637.444762	2475.511528
637.789829	2476.444142
638.134845	2477.200315
638.479808	2476.182002
638.824719	2477.989255
639.169577	2475.486323
639.514383	2479.425984
639.859137	2473.913483
640.203839	2477.855665
640.548489	2476.126549
640.893086	2472.968266
641.237632	2475.783751
641.582125	2475.720736
641.926566	2472.537248
642.270955	2473.167392
642.615292	2474.074799
642.959576	2473.157309
643.303809	2471.400467
643.647990	2475.173771
643.992118	2478.727784
644.336195	2475.277115
644.680219	2475.940026
645.024192	2473.973976
645.368112	2476.209728
645.711981	2476.519759
646.055797	2476.003041
646.399562	2477.165027
646.743274	2474.798205
647.086935	2476.696199
647.430544	2477.825418
647.774101	2474.485653
648.117606	2472.486836
648.461059	2476.711323
648.804460	2477.575881
649.147810	2475.188894
649.491108	2475.788792
649.834354	2476.633185
650.177548	2478.243834
650.520690	2475.196456
650.863781	2477.280973
651.206820	2474.772999
651.549807	2475.241827
651.892742	2474.420118
652.235626	2474.899028
652.578458	2474.198308
652.921238	2475.236785
653.263967	2476.481950
653.606644	2473.636219
653.949269	2475.365335
654.291843	2475.602269
654.634365	2477.033957
654.976836	2476.023205
655.319255	2476.371045
655.661622	2475.801395
656.003938	2475.559419
656.346203	2475.352732
656.688416	2477.056642
657.030577	2475.251909
657.372687	2480.948413
657.714746	2478.402630
658.056753	2478.319451
658.398708	2476.237454
658.740612	2475.597228
659.082465	2477.646457
659.424266	2476.287866
659.766016	2470.482977
660.107715	2473.119501
660.449362	2469.953656
660.790958	2475.846765
661.132503	2474.422639
661.473996	2475.486322
661.815438	2474.548668
662.156829	2478.034626
662.498168	2476.726446
662.839456	2476.061014
663.180693	2477.099492
663.521879	2476.174440
663.863013	2473.547999
664.204097	2477.318782
664.545129	2477.041518
664.886110	2477.223000
665.227040	2477.873309
665.567918	2475.153606
665.908746	2475.844244
666.249522	2477.038998
666.590248	2475.340129
666.930922	2476.239975
667.271545	2475.491364
667.612118	2478.150572
667.952639	2472.960704
668.293109	2476.068576
668.633528	2475.723257
668.973896	2477.401961
669.314213	2472.073461
669.654480	2476.640747
669.994695	2472.791826
670.334859	2478.886581
670.674973	2473.222844
671.015035	2480.028402
671.355047	2475.168730
671.695008	2475.088071
672.034918	2473.744604
672.374777	2475.534213
672.714585	2475.277115
673.054342	2475.682928
673.394049	2477.386838
673.733705	2476.928092
674.073310	2476.577732
674.412864	2473.868112
674.752368	2474.646970
675.091820	2473.585808
675.431223	2472.622947
675.770574	2475.657722
676.109875	2474.473051
676.449125	2470.442648
676.788324	2472.446507
677.127473	2472.963225
677.466571	2473.061528
677.805619	2477.719554
678.144616	2474.132773
678.483562	2477.023874
678.822458	2476.151755
679.161303	2473.633698
679.500098	2475.753504
679.838842	2476.262660
680.177535	2476.565129
680.516179	2476.423977
680.854771	2476.953298
681.193314	2475.627475
681.531805	2473.484984
681.870247	2473.719398
682.208638	2473.253091
682.546978	2474.236116
682.885268	2474.067238
683.223508	2477.583443
683.561697	2473.603452
683.899836	2474.009264
684.237925	2475.614872
684.575963	2473.595890
684.913951	2474.039511
685.251889	2473.981538
685.589776	2475.085551
685.927614	2477.172588
686.265401	2476.607979
686.603137	2471.103039
686.940824	2476.587815
687.278460	2476.386168
687.616046	2475.168730
687.953582	2476.688638
688.291068	2476.209728
688.628504	2476.234934
688.965889	2474.571353
689.303224	2474.513380
689.640510	2474.132773
689.977745	2474.853658
690.314930	2476.643267
690.652065	2475.418267
690.989150	2474.588997
691.326185	2474.140334
691.663170	2475.672845
692.000105	2471.120683
692.336990	2474.021867
692.673825	2476.895325
693.010610	2472.839717
693.347345	2473.984059
693.684030	2470.956846
694.020665	2476.184522
694.357251	2471.082875
694.693786	2475.403143
695.030272	2474.180664
695.366707	2474.031950
695.703093	2472.212093
696.039429	2474.583956
696.375716	2476.209728
696.711952	2474.619244
697.048139	2473.986579
697.384276	2474.026908
697.720363	2474.074799
698.056400	2476.396251
698.392388	2475.047742
698.728326	2476.202166
699.064214	2474.962043
699.400053	2472.388533
699.735842	2473.454738
700.071581	2472.970787
700.407270	2473.936168
700.742910	2475.224183
701.078501	2474.747793
701.414042	2473.469861
701.749533	2474.659573
702.084974	2475.433390
702.420366	2471.715539
702.755709	2474.883905
703.091002	2475.922382
703.426246	2475.327526
703.761440	2474.107567
704.096584	2474.513380
704.431679	2472.496918
704.766725	2474.878863
705.101721	2476.814667
705.436668	2475.861888
705.771565	2474.341981
706.106413	2473.593369
706.441212	2473.666466
706.775961	2474.825931
707.110661	2474.243678
707.445311	2475.982876
707.779913	2475.962712
708.114465	2476.335757
708.448967	2473.636219
708.783421	2475.410705
709.117825	2472.171764
709.452180	2475.035139
709.786485	2474.536065
710.120742	2470.435086
710.454949	2471.319809
710.789107	2470.949284
711.123216	2469.111783
711.457275	2473.484984
711.791286	2472.411219
712.125247	2474.284007
712.459159	2475.687969
712.793023	2472.950622
713.126837	2472.950622
713.460602	2475.544296
713.794318	2475.007413
714.127985	2476.224852
714.461602	2475.917341
714.795171	2474.296610
715.128691	2473.006075
715.462162	2475.539255
715.795584	2475.481281
716.128957	2476.696199
716.462281	2476.255098
716.795556	2476.731488
717.128782	2474.982207
717.461960	2474.291569
717.795088	2472.938019
718.128167	2476.590335
718.461198	2471.423152
718.794180	2473.747124
719.127113	2472.897690
719.459997	2473.336270
719.792833	2476.421457
720.125619	2474.183184
720.458357	2474.583956
720.791046	2474.911631
721.123686	2472.544809
721.456278	2474.276446
721.788821	2474.152937
722.121315	2472.408698
722.453761	2473.656384
722.786158	2473.442135
723.118506	2474.364666
723.450805	2473.996662
723.783056	2475.982876
724.115259	2474.667135
724.447412	2472.469192
724.779518	2475.864409
725.111574	2474.387351
725.443582	2475.105715
725.775542	2473.936168
726.107453	2471.902062
726.439315	2473.414408
726.771129	2475.319964
727.102895	2468.867287
727.434612	2470.674541
727.766281	2468.489201
728.097901	2473.157309
728.429473	2475.498925
728.760996	2474.707464
729.092471	2473.374079
729.423897	2473.547999
729.755276	2472.655715
730.086606	2474.268884
730.417887	2473.527834
730.749120	2477.094451
731.080305	2474.379789
731.411442	2470.971969
731.742530	2473.331229
732.073570	2474.921713
732.404562	2475.330047
732.735506	2474.475571
733.066401	2471.584469
733.397249	2474.904069
733.728048	2473.600931
734.058798	2475.461117
734.389501	2475.287197
734.720156	2476.660911
735.050762	2473.789974
735.381320	2473.265694
735.711831	2475.050263
736.042293	2476.091261
736.372707	2473.124542
736.703073	2473.134624
737.033391	2473.553040
737.363661	2474.281487
737.693883	2476.532362
738.024056	2471.276959
738.354182	2471.324850
738.684260	2474.163020
739.014290	2473.212762
739.344272	2474.624285
739.674207	2474.936837
740.004093	2476.381127
740.333931	2475.998000
740.663722	2474.876343
740.993464	2473.963894
741.323159	2471.965077
741.652806	2474.662094
741.982405	2475.786271
742.311956	2473.474902
742.641460	2473.583287
742.970915	2471.231589
743.300323	2472.330560
743.629683	2469.898203
743.958996	2470.397278
744.288260	2465.681278
744.617477	2471.967597
744.946647	2473.326188
745.275768	2471.755869
745.604842	2474.220993
745.933869	2471.239150
746.262847	2472.892649
746.591778	2474.498256
746.920662	2474.341981
747.249498	2474.573874
747.578286	2472.466671
747.907027	2474.102526
748.235720	2470.450210
748.564365	2472.842237
748.892963	2473.520272
749.221514	2473.711836
749.550017	2471.549181
749.878473	2473.003554
750.206881	2473.081692
750.535242	2475.080510
750.863555	2471.687813
751.191821	2476.615541
751.520039	2475.241827
751.848210	2473.550519
752.176334	2473.205200
752.504411	2477.066724
752.832440	2475.478761
753.160421	2474.601600
753.488356	2471.866774
753.816243	2471.647484
754.144082	2471.307206
754.471875	2472.688482
754.799620	2474.762917
755.127318	2473.520273
755.454969	2473.916003
755.782572	2475.899697
756.110129	2470.142699
756.437638	2472.524645
756.765100	2473.530355
757.092515	2474.457927
757.419882	2474.253760
757.747203	2473.409367
758.074477	2472.328040
758.401703	2472.660756
758.728882	2472.343163
759.056014	2474.331898
759.383099	2477.079327
759.710138	2471.546661
760.037129	2467.526341
760.364073	2472.171764
760.690970	2467.531382
761.017820	2472.862402
761.344623	2475.198977
761.671379	2473.648822
761.998088	2474.495736
762.324751	2473.477423
762.651366	2474.392392
762.977935	2471.861733
763.304456	2474.243678
763.630931	2474.404995
763.957359	2470.104891
764.283740	2474.727629
764.610074	2471.017340
764.936362	2474.692341
765.262602	2472.597741
765.588796	2477.676704
765.914943	2474.886425
766.241044	2472.607824
766.567097	2472.118832
766.893104	2474.273925
767.219064	2472.202011
767.544978	2475.209059
767.870845	2473.701754
768.196665	2471.786116
768.522438	2472.945581
768.848165	2472.048256
769.173846	2471.859212
769.499479	2474.271404
769.825066	2475.143524
770.150607	2470.203193
770.476101	2473.492546
770.801548	2472.779223
771.126949	2469.361321
771.452303	2474.646970
771.777611	2473.427011
772.102872	2474.203349
772.428087	2470.712350
772.753256	2472.660756
773.078378	2471.639922
773.403453	2471.627319
773.728482	2471.040025
774.053465	2471.705457
774.378401	2472.159161
774.703291	2471.788636
775.028135	2473.006075
775.352932	2473.636219
775.677683	2471.334932
776.002388	2469.550364
776.327046	2467.380147
776.651658	2471.032463
776.976224	2466.455095
777.300743	2472.547330
777.625216	2470.540951
777.949643	2473.099336
778.274024	2472.922896
778.598359	2474.223513
778.922647	2474.513380
779.246889	2474.941878
779.571086	2473.101857
779.895236	2473.069089
780.219339	2475.516569
780.543397	2473.898359
780.867409	2475.773668
781.191374	2474.117649
781.515294	2474.316775
781.839167	2473.792495
782.162995	2472.091105
782.486776	2472.302834
782.810511	2473.064048
783.134201	2470.969449
783.457844	2472.832155
783.781441	2471.914665
784.104993	2470.866105
784.428498	2472.559933
784.751958	2471.508852
785.075372	2471.486167
785.398739	2471.443317
785.722061	2473.051445
786.045337	2471.201342
786.368568	2472.375931
786.691752	2471.463482
787.014891	2470.752679
787.337983	2471.682772
787.661030	2471.667648
787.984031	2471.478605
788.306987	2472.234778
788.629897	2471.934830
788.952760	2473.603452
789.275579	2472.161682
789.598351	2472.950622
789.921078	2470.717391
790.243759	2469.547843
790.566395	2473.537917
790.888984	2473.482464
791.211529	2471.402988
791.534027	2473.729480
791.856480	2474.301651
792.178888	2470.079685
792.501249	2467.969962
792.823566	2470.679582
793.145836	2467.969962
793.468062	2467.806125
793.790241	2470.135138
794.112375	2474.475571
794.434464	2474.407516
794.756507	2473.636219
795.078505	2470.614047
795.400457	2472.431383
795.722364	2471.339973
796.044226	2472.980869
796.366042	2472.441466
796.687812	2473.091774
797.009538	2472.159161
797.331218	2470.984572
797.652852	2472.834676
797.974442	2469.648666
798.295986	2472.882567
798.617484	2471.894500
798.938938	2473.167392
799.260346	2470.727473
799.581709	2474.044552
799.903026	2474.064717
800.224299	2472.723770
800.545526	2473.379120
800.866708	2473.810139
801.187845	2470.873667
801.508936	2471.534058
801.829983	2471.105560
802.150984	2472.348204
802.471940	2471.188739
802.792851	2473.036322
803.113717	2472.471712
803.434538	2469.857874
803.755314	2471.428194
804.076045	2469.933492
804.396731	2472.070941
804.717372	2473.719398
805.037967	2473.406847
805.358518	2475.007413
805.679024	2468.907617
805.999485	2471.788636
806.319901	2470.344346
806.640272	2471.650004
806.960598	2473.104377
807.280879	2470.886270
807.601115	2472.171764
807.921306	2473.152268
808.241453	2469.308388
808.561554	2467.332256
808.881611	2468.877370
809.201623	2463.836216
809.521590	2473.374079
809.841513	2471.561784
810.161390	2473.086733
810.481223	2472.065900
810.801011	2474.561271
811.120755	2473.384161
811.440453	2472.116311
811.760107	2472.653194
812.079716	2470.442648
812.399281	2472.718729
812.718801	2469.628502
813.038276	2468.970631
813.357707	2472.227217
813.677093	2470.417442
813.996434	2472.338122
814.315731	2472.280149
814.634983	2472.315437
814.954191	2469.860395
815.273354	2473.346353
815.592473	2470.044397
815.911547	2472.116311
816.230577	2472.769141
816.549562	2470.193111
816.868502	2472.038173
817.187399	2471.395426
817.506250	2470.858543
817.825058	2471.481126
818.143821	2469.883080
818.462539	2469.686475
818.781213	2472.254943
819.099843	2470.268728
819.418429	2470.883749
819.736970	2470.992134
820.055466	2471.410550
820.373919	2473.767289
820.692327	2469.583131
821.010691	2472.539768
821.329011	2471.166054
821.647286	2471.947433
821.965517	2471.801239
822.283704	2471.589511
822.601847	2470.455251
822.919945	2471.554222
823.237999	2471.579428
823.556010	2469.936012
823.873976	2469.986424
824.191897	2466.477781
824.509775	2468.058182
824.827609	2466.941567
825.145398	2464.433593
825.463144	2474.856178
825.780845	2470.243522
826.098502	2473.091774
826.416116	2470.419963
826.733685	2470.344346
827.051210	2471.715539
827.368692	2470.543471
827.686129	2470.545992
828.003522	2469.555405
828.320872	2470.654377
828.638177	2470.593883
828.955439	2469.028604
829.272656	2469.237812
829.589830	2472.660756
829.906960	2473.139665
830.224046	2471.909624
830.541088	2473.149748
830.858086	2470.961887
831.175041	2470.946763
831.491952	2472.834676
831.808819	2470.689665
832.125642	2472.557412
832.442421	2468.332925
832.759157	2473.366517
833.075849	2472.164202
833.392497	2470.316619
833.709101	2469.651187
834.025662	2471.143368
834.342179	2471.115642
834.658653	2470.775364
834.975083	2470.162864
835.291469	2472.338122
835.607811	2473.767289
835.924110	2472.673359
836.240366	2471.501290
836.556578	2469.273100
836.872746	2470.011629
837.188871	2470.321660
837.504952	2469.227730
837.820990	2471.042545
838.136984	2472.706126
838.452935	2467.440641
838.768842	2470.220837
839.084706	2470.309058
839.400526	2471.713019
839.716303	2470.276290
840.032037	2468.340487
840.347727	2466.170270
840.663373	2467.725466
840.978977	2467.385188
841.294537	2470.818214
841.610054	2470.694706
841.925527	2473.590849
842.240957	2470.651856
842.556344	2468.821917
842.871687	2471.723101
843.186987	2469.676393
843.502244	2472.169243
843.817458	2468.340487
844.132629	2472.837196
844.447756	2468.703450
844.762840	2470.137658
845.077881	2468.103553
845.392879	2471.287041
845.707833	2472.423822
846.022745	2469.396609
846.337613	2472.522124
846.652438	2470.306537
846.967221	2469.240333
847.281960	2471.972638
847.596656	2471.309727
847.911309	2469.320991
848.225919	2469.257977
848.540485	2469.656228
848.855009	2473.628657
849.169490	2472.630509
849.483928	2471.009778
849.798323	2472.905252
850.112675	2472.043214
850.426984	2468.340487
850.741251	2471.960035
851.055474	2471.960035
851.369654	2473.187556
851.683792	2468.922740
851.997887	2468.688327
852.311938	2470.334263
852.625947	2469.820066
852.939914	2471.690334
853.253837	2468.330405
853.567718	2468.431228
853.881555	2469.484829
854.195350	2468.426187
854.509103	2469.565487
854.822812	2472.070941
855.136479	2472.123873
855.450103	2469.651187
855.763685	2467.440641
856.077224	2467.140692
856.390720	2468.111114
856.704173	2467.238995
857.017584	2468.196814
857.330953	2470.051959
857.644278	2470.606486
857.957561	2472.532206
858.270802	2471.765951
858.584000	2470.939202
858.897155	2471.496249
859.210268	2468.824438
859.523339	2470.775364
859.836367	2470.057000
860.149352	2470.722432
860.462295	2472.774182
860.775195	2468.675724
861.088054	2468.854685
861.400869	2469.600775
861.713642	2469.671352
862.026373	2469.951136
862.339062	2472.363328
862.651708	2468.090950
862.964312	2469.497432
863.276873	2473.308544
863.589392	2470.775364
863.901869	2473.873153
864.214303	2470.785447
864.526696	2467.982565
864.839045	2470.946763
865.151353	2470.926599
865.463619	2472.867443
865.775842	2469.502473
866.088023	2468.862246
866.400162	2468.695888
866.712258	2469.200004
867.024313	2471.614716
867.336325	2469.920889
867.648296	2469.792339
867.960224	2470.228399
868.272110	2471.176136
868.583954	2469.361321
868.895755	2469.527679
869.207515	2470.311578
869.519233	2471.050107
869.830909	2469.772175
870.142542	2469.119345
870.454134	2471.685292
870.765684	2470.785447
871.077191	2467.773357
871.388657	2465.315795
871.700081	2467.249077
872.011463	2468.905096
872.322803	2466.192955
872.634101	2467.531382
872.945357	2467.854016
873.256571	2469.008440
873.567744	2470.513224
873.878874	2470.719912
874.189963	2468.612709
874.501010	2470.757720
874.812015	2467.090281
875.122979	2470.417442
875.433900	2467.934674
875.744780	2469.404170
876.055618	2468.675724
876.366415	2466.576083
876.677169	2467.808645
876.987882	2468.121197
877.298554	2467.498614
877.609183	2470.094808
877.919771	2470.810652
878.230317	2470.359469
878.540822	2471.423153
878.851285	2471.594552
879.161707	2469.827627
879.472087	2471.143368
879.782425	2470.858543
880.092722	2468.605148
880.402977	2470.586321
880.713191	2470.228399
881.023363	2468.806794
881.333494	2472.436424
881.643583	2469.983903
881.953631	2469.988944
882.263637	2469.263018
882.573602	2471.561784
882.883526	2469.366362
883.193408	2471.796198
883.503248	2471.765951
883.813048	2468.138841
884.122806	2466.500466
884.432522	2471.171095
884.742197	2469.164716
885.051831	2471.715539
885.361424	2469.300827
885.670975	2470.137658
885.980485	2468.443831
886.289954	2468.973152
886.599382	2469.051290
886.908768	2470.293934
887.218113	2466.578604
887.527417	2466.384519
887.836680	2465.149437
888.145901	2468.758903
888.455082	2468.428707
888.764221	2469.583131
889.073319	2467.601958
889.382376	2471.173615
889.691392	2469.154633
890.000366	2468.978193
890.309300	2469.724284
890.618193	2471.609675
890.927044	2468.211938
891.235855	2469.988944
891.544625	2466.684468
891.853353	2470.344346
892.162041	2468.763944
892.470687	2466.626495
892.779293	2467.251598
893.087858	2470.679582
893.396381	2466.326546
893.704864	2471.899542
894.013306	2467.922071
894.321707	2469.822586
894.630068	2466.835703
894.938387	2467.133131
895.246665	2469.179839
895.554903	2471.191259
895.863100	2469.613378
896.171256	2469.341156
896.479371	2466.802935
896.787446	2468.209417
897.095480	2468.847123
897.403473	2467.997688
897.711425	2467.609520
898.019336	2470.535909
898.327207	2469.726804
898.635038	2471.294603
898.942827	2465.693881
899.250576	2470.888790
899.558284	2468.398460
899.865952	2466.591207
900.173579	2468.252267
900.481165	2469.757051
900.788711	2469.983903
901.096216	2469.653707
901.403681	2468.625312
901.711105	2469.688996
902.018489	2468.443831
902.325832	2468.118676
902.633135	2466.868470
902.940397	2467.186063
903.247619	2462.843109
903.554800	2470.540951
903.861941	2467.493573
904.169041	2471.103039
904.476101	2468.461475
904.783121	2466.697071
905.090100	2466.828141
905.397039	2471.314768
905.703938	2465.645990
906.010796	2469.930971
906.317614	2464.879735
906.624391	2469.399129
906.931129	2465.310753
907.237826	2472.184367
907.544483	2467.276803
907.851099	2469.096660
908.157675	2467.203707
908.464211	2468.393419
908.770707	2466.364355
909.077163	2468.312761
909.383578	2466.845785
909.689954	2467.037349
909.996289	2471.055148
910.302584	2466.381999
910.608839	2469.741928
910.915054	2466.371916
911.221229	2467.349900
911.527363	2469.172277
911.833458	2466.061885
912.139513	2470.498101
912.445527	2469.391568
912.751502	2469.411732
913.057436	2467.470888
913.363331	2466.482822
913.669186	2468.675724
913.975000	2467.433079
914.280775	2469.575570
914.586510	2470.765282
914.892205	2466.298820
915.197859	2467.939715
915.503475	2467.574232
915.809050	2468.678244
916.114585	2468.829479
916.420081	2467.788481
916.725536	2467.695219
917.030952	2468.824438
917.336328	2470.722432
917.641665	2469.212607
917.946961	2464.806638
918.252218	2468.516927
918.557435	2462.591051
918.862612	2470.631691
919.167750	2468.030456
919.472848	2468.005250
919.777906	2466.780250
920.082925	2467.730507
920.387904	2470.346866
920.692843	2468.625312
920.997743	2468.035497
921.302603	2465.630867
921.607423	2465.310753
921.912204	2465.968624
922.216946	2468.824438
922.521647	2465.930815
922.826310	2468.796711
923.130932	2469.890642
923.435516	2465.371247
923.740059	2468.088429
924.044564	2467.962400
924.349028	2469.540282
924.653454	2467.402832
924.957840	2468.781588
925.262186	2467.002061
925.566493	2470.470374
925.870761	2468.010291
926.174989	2471.652525
926.479178	2463.813531
926.783328	2470.117494
927.087438	2471.176136
927.391509	2470.427525
927.695541	2469.431897
927.999533	2468.716053
928.303486	2470.561115
928.607400	2467.387709
928.911275	2466.986937
929.215110	2468.395940
929.518906	2470.170426
929.822663	2469.754531
930.126381	2467.463326
930.430060	2468.922740
930.733699	2465.444344
931.037299	2466.707153
931.340861	2467.816207
931.644383	2466.654221
931.947866	2469.386526
932.251309	2468.433748
932.554714	2470.079685
932.858080	2464.259673
933.161407	2464.965434
933.464694	2466.807976
933.767943	2462.691874
934.071153	2468.824438
934.374323	2464.942749
934.677455	2467.428038
934.980548	2466.417287
935.283602	2468.635394
935.586617	2466.107256
935.889593	2468.332925
936.192530	2467.503655
936.495428	2470.578759
936.798287	2470.039356
937.101108	2468.312761
937.403890	2468.733697
937.706632	2465.593058
938.009336	2468.539612
938.312002	2467.422997
938.614628	2467.007102
938.917216	2467.864098
939.219765	2469.104222
939.522275	2467.276803
939.824747	2466.923923
940.127179	2464.443675
940.429573	2463.974848
940.731929	2468.398460
941.034246	2464.715897
941.336524	2469.381485
941.638763	2468.998358
941.940964	2467.929633
942.243126	2468.108594
942.545250	2469.394088
942.847335	2466.800414
943.149381	2469.862915
943.451389	2466.508027
943.753359	2466.502986
944.055290	2468.164047
944.357182	2467.906948
944.659036	2469.409212
944.960851	2468.315281
945.262628	2469.895683
945.564367	2464.998202
945.866067	2466.513069
946.167729	2467.380147
946.469352	2467.798563
946.770937	2465.535085
947.072484	2467.367544
947.373992	2468.983234
947.675462	2469.661269
947.976893	2467.107925
948.278286	2463.813531
948.579641	2464.370578
948.880958	2463.493417
949.182236	2469.769654
949.483476	2469.424335
949.784678	2467.145733
950.085841	2465.313274
950.386967	2470.432566
950.688054	2467.503655
950.989103	2467.788481
951.290114	2468.756382
951.591087	2467.942236
951.892021	2468.499283
952.192917	2467.831330
952.493776	2469.396609
952.794596	2467.196145
953.095378	2465.651031
953.396122	2466.318984
953.696828	2467.541464
953.997496	2466.792853
954.298126	2468.453913
954.598718	2466.886114
954.899272	2467.375106
955.199788	2467.370065
955.500266	2470.200673
955.800706	2466.482822
956.101108	2466.820579
956.401472	2469.114304
956.701798	2466.364355
957.002087	2467.523820
957.302337	2469.036166
957.602550	2467.352421
957.902724	2468.327884
958.202861	2468.895014
958.502960	2465.986268
958.803022	2467.854016
959.103045	2467.430559
959.403031	2466.906279
959.702979	2466.991978
960.002889	2468.247226
960.302762	2466.744962
960.602596	2467.430559
960.902393	2470.919037
961.202153	2463.909313
961.501875	2470.238481
961.801559	2468.093470
962.101205	2465.101546
962.400814	2467.675055
962.700385	2465.981227
962.999918	2466.946608
963.299414	2462.268417
963.598873	2464.965434
963.898293	2462.495269
964.197677	2469.545323
964.497022	2467.244036
964.796331	2468.844602
965.095601	2465.845116
965.394835	2466.712194
965.694030	2464.920064
965.993189	2465.252780
966.292309	2468.930302
966.591393	2465.966103
966.890439	2466.324025
967.189447	2466.807976
967.488419	2468.048100
967.787353	2466.502986
968.086249	2467.780919
968.385108	2465.383850
968.683930	2466.472739
968.982714	2467.536423
969.281462	2465.981227
969.580172	2467.508697
969.878844	2466.003912
970.177480	2465.454426
970.476078	2467.186063
970.774639	2465.509879
971.073162	2467.201186
971.371649	2467.349900
971.670098	2465.547688
971.968510	2464.859570
972.266885	2467.259159
972.565223	2467.077678
972.863524	2466.364355
973.161788	2466.845785
973.460014	2465.857719
973.758204	2464.947790
974.056356	2466.576083
974.354471	2467.042390
974.652550	2466.082050
974.950591	2466.261011
975.248595	2467.458285
975.546563	2467.561629
975.844493	2469.164716
976.142386	2464.768829
976.440243	2466.379478
976.738062	2464.763788
977.035845	2466.117338
977.333590	2465.784622
977.631299	2466.240846
977.928971	2466.054324
978.226606	2462.954014
978.524204	2467.077678
978.821765	2459.810855
979.119290	2466.830661
979.416777	2468.494242
979.714228	2466.228243
980.011642	2466.061885
980.309020	2467.549026
980.606360	2464.688171
980.903664	2467.110445
981.200931	2466.737400
981.498162	2465.877883
981.795356	2468.917699
982.092513	2465.837554
982.389633	2468.229582
982.686717	2466.442493
982.983764	2466.341669
983.280775	2466.550877
983.577749	2465.313274
983.874686	2467.473408
984.171587	2467.327215
984.468451	2467.203707
984.765279	2467.027266
985.062070	2467.453244
985.358824	2466.795373
985.655543	2464.892338
985.952224	2468.159005
986.248869	2468.043059
986.545478	2466.563480
986.842050	2468.665641
987.138586	2467.864098
987.435086	2467.266721
987.731549	2467.175980
988.027975	2467.024746
988.324366	2467.344859
988.620719	2465.872842
988.917037	2466.235805
989.213318	2463.894189
989.509563	2465.774540
989.805772	2466.923923
990.101944	2465.784622
990.398080	2467.218830
990.694180	2467.634725
990.990244	2465.280507
991.286271	2467.118007
991.582262	2463.853860
991.878217	2466.686988
992.174136	2466.336628
992.470019	2465.577935
992.765865	2465.645990
993.061676	2461.799590
993.357450	2462.540639
993.653188	2462.338993
993.948890	2466.926443
994.244556	2464.179014
994.540186	2466.462657
994.835780	2466.795373
995.131337	2466.679427
995.426859	2464.350414
995.722345	2465.872842
996.017795	2466.513069
996.313208	2466.997019
996.608586	2464.645321
996.903928	2464.531895
997.199234	2466.954170
997.494504	2466.818058
997.789738	2466.460137
998.084936	2464.801597
998.380099	2466.278655
998.675225	2464.126082
998.970316	2465.512400
999.265371	2466.961731
999.560390	2465.789663
999.855373	2469.416773
1000.150320	2463.934518
1000.445232	2466.878552
1000.740108	2467.806125
1001.034948	2468.234623
1001.329752	2463.808490
1001.624521	2467.448203
1001.919254	2466.666824
1002.213951	2466.253449
1002.508613	2465.719087
1002.803239	2467.347380
1003.097829	2466.755044
1003.392384	2468.330405
1003.686903	2467.203707
1003.981386	2466.550877
1004.275834	2464.688171
1004.570246	2467.932153
1004.864623	2464.519292
1005.158964	2468.804273
1005.453270	2466.117338
1005.747540	2464.748665
1006.041775	2468.995837
1006.335974	2466.397122
1006.630138	2463.765640
1006.924266	2466.329067
1007.218359	2464.834364
1007.512416	2464.589868
1007.806438	2463.208592
1008.100425	2465.764457
1008.394376	2459.770525
1008.688292	2467.528861
1008.982172	2467.816207
1009.276017	2465.446865
1009.569827	2464.027780
1009.863602	2463.425362
1010.157341	2467.012143
1010.451045	2465.504838
1010.744714	2463.790846
1011.038347	2464.431072
1011.331945	2464.806638
1011.625508	2468.242184
1011.919036	2462.119703
1012.212528	2464.945270
1012.505986	2464.161370
1012.799408	2467.460806
1013.092795	2465.235136
1013.386147	2465.270424
1013.679464	2465.104066
1013.972745	2465.333439
1014.265992	2465.391412
1014.559204	2466.568521
1014.852380	2465.376288
1015.145521	2463.793366
1015.438628	2465.199848
1015.731699	2467.186063
1016.024736	2466.765126
1016.317737	2466.001392
1016.610703	2467.591876
1016.903635	2467.075157
1017.196531	2464.451237
1017.489393	2464.640280
1017.782219	2465.766978
1018.075011	2466.732359
1018.367768	2467.596917
1018.660490	2465.459467
1018.953177	2465.459467
1019.245829	2465.459467
