Dividing Wavelength (nm)	Counts (n)	Blue Motor Position (mm): 0.000000	Red Motor Position (mm): 48.000000	
326.493990	2054.439071
326.888308	2054.439071
327.282561	2054.439071
327.676750	2028.676254
328.070874	2029.510565
328.464933	2036.376617
328.858929	2045.465817
329.252859	2055.994267
329.646726	2065.580021
330.040528	2081.789851
330.434265	2099.819538
330.827938	2125.053033
331.221547	2138.883439
331.615091	2162.350010
332.008571	2183.621159
332.401986	2205.343491
332.795338	2224.396532
333.188625	2244.251116
333.581847	2264.302306
333.975006	2278.137752
334.368100	2298.050310
334.761129	2313.256951
335.154095	2330.280927
335.546996	2382.381252
335.939833	2490.481235
336.332606	2502.330467
336.725315	2515.518125
337.117960	2526.510361
337.510540	2533.630991
337.903056	2545.502908
338.295508	2552.663867
338.687896	2558.791390
339.080220	2560.984292
339.472480	2567.053841
339.864676	2571.172464
340.256807	2575.475088
340.648875	2578.267888
341.040879	2577.509194
341.432818	2580.254102
341.824694	2581.418609
342.216506	2582.076479
342.608253	2579.359297
342.999937	2578.963567
343.391557	2579.689493
343.783113	2576.022054
344.174605	2575.109605
344.566033	2573.854357
344.957397	2572.616754
345.348697	2571.563153
345.739934	2569.294634
346.131106	2567.762123
346.522215	2564.712225
346.913260	2565.135682
347.304241	2562.927657
347.695159	2559.963458
348.086012	2560.959086
348.476802	2558.057902
348.867528	2557.364743
349.258191	2551.234700
349.648789	2554.957592
350.039324	2546.921993
350.429796	2553.777962
350.820203	2551.600184
351.210548	2551.653116
351.600828	2549.382076
351.991045	2547.226983
352.381198	2547.647919
352.771288	2548.094061
353.161314	2546.385110
353.551276	2546.344781
353.941175	2545.548279
354.331010	2548.457024
354.720782	2552.431974
355.110490	2553.218394
355.500135	2547.254709
355.889717	2552.477345
356.279235	2546.322096
356.668689	2550.705379
357.058080	2550.092879
357.447408	2551.511964
357.836672	2550.410472
358.225873	2551.544731
358.615010	2551.965667
359.004084	2552.101779
359.393095	2553.157900
359.782043	2554.647561
360.170927	2553.173024
360.559748	2553.735113
360.948505	2558.670402
361.337199	2559.577810
361.725830	2556.686708
362.114398	2556.235525
362.502903	2556.474980
362.891344	2561.561504
363.279722	2554.662685
363.668037	2562.012687
364.056289	2559.885320
364.444478	2561.929508
364.832603	2562.473953
365.220665	2564.840774
365.608665	2560.719631
365.996601	2565.128120
366.384474	2564.281206
366.772284	2565.332287
367.160031	2563.572924
367.547715	2566.600137
367.935336	2564.808007
368.322893	2561.027142
368.710388	2562.340362
369.097820	2562.199210
369.485189	2565.110476
369.872495	2568.999726
370.259738	2565.239026
370.646918	2570.786815
371.034035	2571.217834
371.421090	2570.323029
371.808081	2573.146075
372.195010	2571.827814
372.581875	2573.501477
372.968678	2574.958370
373.355418	2573.017526
373.742096	2578.419122
374.128710	2581.973136
374.515262	2585.393559
374.901751	2587.972109
375.288177	2590.986719
375.674540	2592.436051
376.060841	2600.711105
376.447079	2602.873760
376.833254	2606.069851
377.219367	2609.981787
377.605417	2617.399844
377.991404	2620.548045
378.377329	2631.270579
378.763191	2637.435910
379.148991	2645.027888
379.534727	2652.272026
379.920402	2662.840805
380.306013	2669.860612
380.691563	2685.578930
381.077049	2690.249559
381.462474	2700.609130
381.847835	2716.022458
382.233134	2726.666854
382.618371	2736.073647
383.003545	2756.089548
383.388657	2768.717639
383.773706	2787.500978
384.158693	2803.819193
384.543618	2820.026503
384.928480	2834.570232
385.313280	2859.566793
385.698017	2876.628578
386.082692	2901.186559
386.467305	2917.592994
386.851856	2938.861622
387.236344	2969.579893
387.620770	2984.862151
388.005133	3002.148268
388.389435	3036.390305
388.773674	3050.921431
389.157851	3086.022985
389.541965	3114.056842
389.926018	3124.993625
390.310008	3158.403872
390.693936	3183.816329
391.077802	3211.023436
391.461606	3243.488467
391.845348	3261.034203
392.229027	3291.482772
392.612645	3332.333762
392.996200	3361.597660
393.379694	3400.424627
393.763125	3442.551029
394.146494	3468.369299
394.529801	3504.466481
394.913047	3549.126063
395.296230	3555.344326
395.679351	3581.850713
396.062410	3632.847025
396.445408	3611.800208
396.828343	3653.006600
397.211217	3682.623378
397.594028	3658.506498
397.976778	3705.734548
398.359466	3739.253180
398.742092	3752.937392
399.124656	3764.007766
399.507158	3827.135615
399.889598	3832.280113
400.271977	3900.232346
400.654294	3881.544789
401.036549	3946.220272
401.418742	3945.643060
401.800874	4013.481867
402.182944	4040.073954
402.564952	4123.310965
402.946898	4120.228300
403.328783	4113.153040
403.710606	4165.757481
404.092367	4238.574428
404.474067	4300.968789
404.855705	4289.043939
405.237282	4258.222325
405.618797	4357.603632
406.000250	4433.689767
406.381642	4520.531203
406.762972	4519.296121
407.144240	4483.919823
407.525447	4554.977407
407.906593	4567.340837
408.287677	4652.057428
408.668700	4681.535575
409.049661	4717.547057
409.430560	4757.432667
409.811399	4737.933483
410.192176	4789.484323
410.572891	4872.751581
410.953545	4977.708404
411.334138	4877.538157
411.714669	4986.399354
412.095139	4896.452566
412.475547	5008.527498
412.855894	5013.137634
413.236180	5114.835351
413.616405	5040.995050
413.996568	5150.383047
414.376670	5153.097708
414.756711	5148.089322
415.136691	5213.442841
415.516609	5303.460204
415.896466	5340.290874
416.276262	5417.801135
416.655997	5528.557806
417.035670	5627.682014
417.415283	5765.718888
417.794834	5842.157904
418.174324	5795.978414
418.553753	5798.919928
418.933121	5961.237520
419.312428	5981.371888
419.691674	5902.530763
420.070859	6136.833511
420.449983	6007.182596
420.829045	6204.153080
421.208047	6134.791844
421.586988	6294.364528
421.965867	6367.831783
422.344686	6452.918898
422.723444	6617.981399
423.102141	6226.066975
423.480777	6624.736545
423.859352	6437.245951
424.237866	6808.111037
424.616319	6803.107692
424.994712	6964.197763
425.373044	6881.462346
425.751314	7199.123094
426.129524	6914.174393
426.507673	7183.671957
426.885762	7227.537557
427.263789	7266.719926
427.641756	7360.689554
428.019662	7433.120852
428.397508	7481.951989
428.775292	7458.881148
429.153016	7638.573077
429.530679	7566.771923
429.908282	7618.269830
430.285824	7559.550470
430.663305	7845.482196
431.040726	7726.737817
431.418086	7729.568425
431.795385	7858.972323
432.172624	8055.083290
432.549802	7937.425280
432.926920	8069.364879
433.303977	8012.566199
433.680974	8056.089001
434.057910	8255.199454
434.434786	8309.641395
434.811601	8264.374354
435.188355	8603.160057
435.565050	8494.114858
435.941683	8507.423504
436.318257	8844.275925
436.694770	8795.951424
437.071222	9027.441209
437.447614	8800.876632
437.823946	8765.545705
438.200218	8918.156555
438.576429	8792.878841
438.952580	8964.819996
439.328670	8977.460689
439.704700	9049.763438
440.080670	8945.628323
440.456580	9211.650012
440.832429	9189.020272
441.208218	8929.879758
441.583947	9041.238847
441.959616	9159.711003
442.335224	9198.626191
442.710773	9278.556205
443.086261	9463.420358
443.461689	9177.410495
443.837057	9351.438687
444.212365	9567.051358
444.587612	9548.386486
444.962800	9448.990055
445.337927	9578.431763
445.712995	9115.071586
446.088002	9795.337489
446.462949	9849.237506
446.837837	9830.509619
447.212664	9856.970636
447.587431	10688.950064
447.962139	11703.903212
448.336786	12669.947085
448.711374	12444.720934
449.085901	11221.215252
449.460369	11140.753395
449.834776	10912.172356
450.209124	11832.046822
450.583412	11661.103816
450.957640	11979.525778
451.331808	11571.378839
451.705917	10989.642288
452.079965	10860.790396
452.453954	11069.037940
452.827883	11013.068530
453.201752	10987.769499
453.575562	10997.365336
453.949311	11339.896616
454.323001	11402.202757
454.696632	11324.594193
455.070202	11922.452354
455.443713	11972.291722
455.817164	12149.505924
456.190556	12474.930048
456.563888	12333.165241
456.937160	12613.584464
457.310373	12084.832961
457.683526	12096.243613
458.056619	12112.297167
458.429653	12183.647138
458.802628	12329.374293
459.175542	12374.969009
459.548398	12929.662290
459.921194	13509.677287
460.293930	13786.797076
460.666607	14652.476617
461.039224	15465.735720
461.411782	15818.805532
461.784280	15501.601009
462.156719	15452.754749
462.529099	15368.622932
462.901419	14720.257451
463.273680	14305.327640
463.645882	14528.978430
464.018024	14407.080809
464.390106	14778.190391
464.762130	15841.727659
465.134094	17372.043006
465.505999	19672.308903
465.877845	21968.892237
466.249631	23273.469756
466.621358	22811.384991
466.993026	22009.236591
467.364634	21263.801172
467.736184	20455.762184
468.107674	19828.514096
468.479105	19681.045222
468.850477	19417.516385
469.221790	18976.964909
469.593043	18309.213670
469.964238	17910.506292
470.335373	17969.379407
470.706449	18693.654583
471.077467	19528.870432
471.448425	22043.297147
471.819324	23933.639099
472.190164	23866.012020
472.560945	22096.080549
472.931667	20509.084989
473.302330	20163.856691
473.672934	19604.366752
474.043479	20034.770385
474.413965	19801.702719
474.784393	19627.011615
475.154761	20303.574790
475.525070	20431.118503
475.895321	20261.977709
476.265513	20805.154475
476.635645	21389.968650
477.005719	21455.170934
477.375734	21828.198674
477.745691	22463.752063
478.115588	23105.516154
478.485427	24303.458145
478.855207	26122.682019
479.224928	27954.203787
479.594591	29413.519523
479.964194	29068.001359
480.333739	29547.377281
480.703226	29776.066705
481.072653	30210.609125
481.442022	30729.056510
481.811333	31154.267755
482.180584	30723.838916
482.549777	30505.340185
482.918912	30259.087381
483.287988	30202.933968
483.657005	30048.500741
484.025964	29694.349601
484.394864	29882.634177
484.763706	29800.753235
485.132489	29273.135991
485.501213	29339.401959
485.869879	29510.372691
486.238487	29447.751478
486.607036	29711.817199
486.975527	29400.034437
487.343959	29755.284548
487.712333	30115.767377
488.080648	30068.471272
488.448905	30506.696255
488.817104	30393.098894
489.185244	31247.264440
489.553326	32189.932483
489.921350	34087.173254
490.289315	36642.564385
490.657222	37589.691329
491.025070	38177.073972
491.392861	37920.771628
491.760593	37161.475557
492.128267	36148.251524
492.495883	35161.332233
492.863440	34260.508288
493.230939	33261.744805
493.598380	32686.113092
493.965763	32527.641900
494.333088	32008.614782
494.700354	31813.673363
495.067563	31772.963525
495.434713	31651.592705
495.801805	31949.701338
496.168839	31765.827772
496.535815	31618.759670
496.902733	31761.600764
497.269593	31567.559191
497.636395	31751.561307
498.003139	32012.791378
498.369825	31760.080857
498.736453	32172.192663
499.103023	32018.129960
499.469535	32118.680815
499.835989	32228.288102
500.202385	32098.624584
500.568723	32147.526297
500.935003	32445.143417
501.301226	32305.395071
501.667390	33065.520412
502.033497	33281.309523
502.399546	33076.416867
502.765537	32670.339321
503.131470	33159.033816
503.497345	33607.252887
503.863163	32517.940199
504.228923	33316.937878
504.594625	33703.974985
504.960269	33182.936447
505.325856	33858.299828
505.691385	33505.950901
506.056856	33850.526369
506.422270	34348.420970
506.787625	33860.323851
507.152924	34332.642158
507.518164	34509.901730
507.883347	34083.803242
508.248472	34216.688058
508.613540	34930.951502
508.978550	35160.908776
509.343503	35000.305176
509.708398	35365.614910
510.073236	35971.733002
510.438016	36064.432259
510.802738	35720.955763
511.167403	36292.967928
511.532010	36540.720475
511.896561	37075.261743
512.261053	37841.920420
512.625488	37613.896429
512.989866	37536.827269
513.354186	37593.031093
513.718449	37543.592497
514.082655	38457.863721
514.446803	38114.112481
514.810894	38767.693036
515.174927	38783.305490
515.538904	38785.596694
515.902822	39411.024925
516.266684	39121.085482
516.630488	39467.332093
516.994235	39468.042896
517.357925	40049.280373
517.721558	40309.923150
518.085133	40701.202388
518.448651	40891.309341
518.812112	40775.035127
519.175516	40935.568151
519.538863	41404.650037
519.902152	41454.819600
520.265385	42010.987419
520.628560	42019.983358
520.991678	41993.298010
521.354739	42205.223076
521.717743	42577.792072
522.080690	42473.866165
522.443580	43180.721634
522.806413	43183.983260
523.169189	43308.204853
523.531908	43547.939444
523.894569	43385.480700
524.257174	43584.059312
524.619722	43944.065752
524.982213	44095.988485
525.344647	44145.971525
525.707025	44275.509014
526.069345	44716.993104
526.431608	44628.528415
526.793815	45011.701478
527.155964	44570.729066
527.518057	44807.736393
527.880093	44665.197768
528.242072	45309.124514
528.603995	45014.111150
528.965860	44914.465182
529.327669	45164.841650
529.689421	45218.348457
530.051117	45171.395150
530.412755	45460.485158
530.774337	45519.953129
531.135862	45449.205576
531.497331	45623.329551
531.858743	45597.949862
532.220098	46004.135792
532.581396	45736.097642
532.942638	45493.023286
533.303824	45757.983811
533.664953	45815.440362
534.026025	45485.075907
534.387040	46044.379323
534.747999	46113.256608
535.108902	46455.124977
535.469748	45763.403052
535.830537	46034.203754
536.191270	46287.559543
536.551947	46017.557864
536.912567	46299.068498
537.273131	46430.836697
537.633638	46068.654999
537.994089	46239.013232
538.354483	45995.805285
538.714821	46659.576532
539.075103	46946.372816
539.435328	46800.131463
539.795497	46563.096410
540.155609	46683.695933
540.515665	47276.764998
540.875665	46560.651450
541.235609	46830.345619
541.595496	46982.374216
541.955328	47561.938030
542.315102	47002.359871
542.674821	46890.831903
543.034483	46779.891231
543.394090	46797.663819
543.753640	46782.288299
544.113134	47843.047892
544.472571	46936.998790
544.831953	48089.464533
545.191278	47345.022221
545.550548	47023.746966
545.909761	47670.698403
546.268918	47824.579625
546.628019	48217.605623
546.987064	47657.006630
547.346053	46961.493757
547.704986	47886.053975
548.063863	47537.019606
548.422684	47727.197135
548.781449	47296.468348
549.140158	47840.890278
549.498811	47569.207374
549.857408	46965.362843
550.215949	47822.270776
550.574434	47651.945311
550.932864	47614.844939
551.291237	48330.933282
551.649555	48053.022032
552.007817	48251.230119
552.366022	47946.794838
552.724173	48021.829892
553.082267	48403.556144
553.440305	48777.211508
553.798288	48008.039816
554.156215	48408.993028
554.514086	48611.153380
554.871902	48206.522646
555.229661	48384.722393
555.587365	48066.534845
555.945014	48190.645532
556.302606	48217.822392
556.660143	48311.663471
557.017625	48547.370181
557.375050	48229.404443
557.732421	48631.524682
558.089735	48711.038802
558.446994	48535.823418
558.804197	49033.347494
559.161345	48891.474301
559.518437	48245.715096
559.875474	48485.006067
560.232455	48698.798881
560.589381	48735.906814
560.946251	48576.051826
561.303065	49245.738867
561.659825	48898.489067
562.016528	48702.468841
562.373177	48276.254406
562.729770	48925.499569
563.086307	48427.967931
563.442789	48987.137757
563.799216	48836.926496
564.155587	48746.795706
564.511904	48710.877485
564.868164	48748.050954
565.224370	49074.551365
565.580520	48785.040420
565.936615	48990.515330
566.292654	48629.588879
566.648638	49004.973359
567.004567	48939.942475
567.360441	49005.066621
567.716260	48717.458712
568.072023	49126.535743
568.427732	49015.960554
568.783385	48552.887724
569.138982	48984.302108
569.494525	49126.185383
569.850013	48726.074043
570.205445	48860.183859
570.560823	48620.683681
570.916145	48476.002566
571.271412	48735.858923
571.626625	48361.099546
571.981782	48433.056976
572.336884	48055.025890
572.691931	48363.816728
573.046923	48026.714770
573.401860	47849.530816
573.756743	47866.784165
574.111570	48013.824540
574.466342	47925.591745
574.821059	48086.593596
575.175722	47542.312818
575.530330	47642.551121
575.884882	47308.042837
576.239380	47192.776854
576.593823	47278.741130
576.948211	47229.352946
577.302544	46766.895136
577.656823	46751.093639
578.011047	47025.506328
578.365216	46862.369549
578.719330	46548.905562
579.073389	46549.999492
579.427394	46590.016171
579.781344	46487.751324
580.135239	46255.076868
580.489080	46322.245202
580.842866	45819.526217
581.196597	46288.482074
581.550273	46294.387786
581.903895	46211.606999
582.257463	46663.788417
582.610975	46081.167143
582.964434	46397.144146
583.317837	45892.643113
583.671186	45872.090328
584.024481	46139.183262
584.377721	45673.428538
584.730906	45893.406847
585.084037	46029.152518
585.437113	45761.336178
585.790135	45878.903448
586.143103	45418.194918
586.496016	45590.927534
586.848874	45713.067130
587.201679	45738.827427
587.554428	45206.577362
587.907124	45488.075393
588.259765	45260.648778
588.612352	45418.356235
588.964884	44853.124422
589.317362	45165.139078
589.669786	45181.825297
590.022155	45057.230659
590.374470	45537.408125
590.726731	45103.861332
591.078937	44439.223006
591.431090	44797.492769
591.783188	44283.053101
592.135232	44114.996155
592.487222	44373.146082
592.839157	44531.312284
593.191038	44182.633317
593.542866	43977.297038
593.894639	43350.676574
594.246358	43655.991536
594.598022	43646.473838
594.949633	43203.016137
595.301190	43203.285838
595.652692	43142.426508
596.004141	43651.532635
596.355535	42522.092363
596.706876	42527.120914
597.058162	42238.048550
597.409395	42744.951692
597.760573	42982.581602
598.111698	42566.419229
598.462768	42486.645490
598.813785	42514.165149
599.164748	42111.097172
599.515657	42379.606670
599.866511	41879.420865
600.217312	42573.126484
600.568060	41506.549400
600.918753	42354.615150
601.269392	42247.165476
601.619978	41976.389980
601.970510	42202.364742
602.320988	42305.693272
602.671412	42587.612240
603.021783	42449.126702
603.372100	42007.882068
603.722363	42119.616722
604.072572	42162.932837
604.422728	42150.294664
604.772830	41926.117073
605.122878	42110.683798
605.472872	41956.553039
605.822813	42215.444016
606.172701	41956.341311
606.522534	42267.768672
606.872314	42480.361692
607.222041	42335.110926
607.571714	42657.651511
607.921333	42128.380768
608.270899	42332.645802
608.620411	42716.615367
608.969870	42476.182575
609.319276	42493.735873
609.668627	42523.183773
610.017926	42929.347018
610.367171	43046.687435
610.716362	43090.797531
611.065500	43009.057742
611.414585	43216.667581
611.763616	43372.910583
612.112594	43272.589101
612.461518	43393.677616
612.810389	43793.468843
613.159207	43568.474585
613.507971	43536.967373
613.856682	44048.626844
614.205340	43872.471285
614.553945	44574.759468
614.902496	43892.835026
615.250994	44318.845293
615.599439	44413.722329
615.947830	44521.005645
616.296169	44509.539541
616.644454	44540.129262
616.992686	44683.592939
617.340864	45138.993133
617.688990	44610.783554
618.037063	45307.680223
618.385082	45124.154497
618.733048	45472.523433
619.080961	45340.099884
619.428821	45368.257248
619.776628	45405.571869
620.124382	45244.043218
620.472083	45360.060332
620.819731	45486.195043
621.167326	45059.819292
621.514868	45054.601697
621.862357	44501.995454
622.209793	44613.394872
622.557176	44187.074573
622.904506	43947.140856
623.251783	43581.563941
623.599007	43253.596554
623.946179	43191.807131
624.293297	42918.362343
624.640363	42358.844678
624.987376	42211.022924
625.334336	42015.090918
625.681243	41590.227513
626.028097	41485.805052
626.374899	41320.114928
626.721647	41292.136524
627.068343	41035.763604
627.414987	40732.220608
627.761577	40474.363068
628.108115	40806.764150
628.454600	40038.870390
628.801032	40269.457808
629.147412	40159.061580
629.493739	40053.736753
629.840014	39593.585271
630.186236	40012.127069
630.532405	39430.801372
630.878521	39678.047283
631.224585	39438.093401
631.570597	39111.920665
631.916556	39273.222464
632.262462	39174.889717
632.608316	39118.630441
632.954117	38984.349226
633.299866	38917.558978
633.645562	38854.272333
633.991206	38326.534101
634.336797	37906.162364
634.682336	37807.713671
635.027823	37567.661487
635.373257	37444.241437
635.718639	37100.346525
636.063968	37013.356374
636.409245	36353.633173
636.754470	36294.850799
637.099642	36068.674390
637.444762	35500.768245
637.789829	35638.290922
638.134845	35229.680197
638.479808	35142.899254
638.824719	35098.411071
639.169577	34570.425823
639.514383	34678.495559
639.859137	34256.591311
640.203839	34443.668530
640.548489	34156.287473
640.893086	34133.002383
641.237632	33836.567414
641.582125	33935.968885
641.926566	33722.334868
642.270955	33745.680451
642.615292	33694.243038
642.959576	33533.851167
643.303809	33542.206879
643.647990	33647.609844
643.992118	33618.023312
644.336195	33423.954013
644.680219	33503.543750
645.024192	33696.834191
645.368112	34212.743355
645.711981	34223.813729
646.055797	34926.870688
646.399562	34707.827513
646.743274	35559.863171
647.086935	35973.066387
647.430544	35947.285926
647.774101	36002.794071
648.117606	36333.808836
648.461059	36480.844170
648.804460	36108.600329
649.147810	35617.707891
649.491108	35309.612732
649.834354	35221.548816
650.177548	34380.273500
650.520690	33863.235118
650.863781	33819.112419
651.206820	33663.703728
651.549807	33237.481732
651.892742	32627.464308
652.235626	32536.342932
652.578458	32381.672770
652.921238	31677.708403
653.263967	31970.181025
653.606644	31653.858704
653.949269	31547.291232
654.291843	31134.193880
654.634365	31494.361637
654.976836	31016.959327
655.319255	31122.989916
655.661622	30961.393209
656.003938	30840.057677
656.346203	30664.822128
656.688416	30908.216597
657.030577	30680.159838
657.372687	30488.565745
657.714746	30634.907921
658.056753	30836.773365
658.398708	30186.048624
658.740612	30261.083678
659.082465	30490.032721
659.424266	30378.189682
659.766016	30341.568220
660.107715	30199.468175
660.449362	30283.947831
660.790958	30267.637178
661.132503	30184.264055
661.473996	30277.873241
661.815438	30357.957011
662.156829	30474.042181
662.498168	30267.569123
662.839456	30235.633413
663.180693	30378.061132
663.521879	30428.386971
663.863013	30386.721835
664.204097	30365.705264
664.545129	30783.092638
664.886110	30714.336341
665.227040	30828.069813
665.567918	30798.263991
665.908746	30866.392664
666.249522	30958.726438
666.590248	30994.919402
666.930922	31093.143764
667.271545	31106.175147
667.612118	31178.021672
667.952639	30973.749077
668.293109	31026.272859
668.633528	30868.653622
668.973896	30836.581801
669.314213	30816.213019
669.654480	30619.255138
669.994695	30611.332965
670.334859	30533.880677
670.674973	30332.499184
671.015035	30504.273981
671.355047	30441.738467
671.695008	30354.007267
672.034918	30263.120304
672.374777	30348.411586
672.714585	30232.228113
673.054342	30369.970081
673.394049	30213.404445
673.733705	30435.699165
674.073310	30149.563273
674.412864	30203.644771
674.752368	29919.696740
675.091820	30189.879901
675.431223	29793.572112
675.770574	29584.848178
676.109875	29412.065150
676.449125	29202.121257
676.788324	29101.482182
677.127473	28592.499564
677.466571	28493.826539
677.805619	28221.435352
678.144616	28156.084355
678.483562	28105.224153
678.822458	27761.296473
679.161303	27696.913377
679.500098	27627.423592
679.838842	27527.749898
680.177535	27576.795284
680.516179	27792.039950
680.854771	27859.513274
681.193314	28526.281487
681.531805	29457.001996
681.870247	30221.072040
682.208638	31049.873020
682.546978	31423.379671
682.885268	31636.013019
683.223508	31240.181619
683.561697	30971.543572
683.899836	30823.462198
684.237925	30390.409439
684.575963	30219.484077
684.913951	29824.940691
685.251889	29961.581166
685.589776	29937.035788
685.927614	29917.453426
686.265401	30081.893344
686.603137	30173.334834
686.940824	30634.083692
687.278460	30959.515379
687.616046	31151.636272
687.953582	31828.149036
688.291068	31747.301532
688.628504	32113.001955
688.965889	32156.426454
689.303224	31943.246140
689.640510	31683.520853
689.977745	31092.052355
690.314930	30372.256244
690.652065	29962.889346
690.989150	29309.558328
691.326185	28451.836248
691.663170	27819.052973
692.000105	27088.055418
692.336990	26480.430022
692.673825	26045.910287
693.010610	25529.595310
693.347345	25016.330231
693.684030	24375.284505
694.020665	24165.456558
694.357251	23467.508808
694.693786	23483.895079
695.030272	23225.659453
695.366707	22716.268501
695.703093	22419.493253
696.039429	22472.286737
696.375716	22224.176268
696.711952	22203.580634
697.048139	22050.511038
697.384276	21884.394937
697.720363	22012.964525
698.056400	21895.878685
698.392388	21725.500288
698.728326	21731.625290
699.064214	21577.126528
699.400053	21604.169797
699.735842	21208.035928
700.071581	21019.375787
700.407270	20783.096906
700.742910	20602.114442
701.078501	20346.159937
701.414042	20143.646705
701.749533	19827.289096
702.084974	19519.819040
702.420366	19754.885523
702.755709	19334.218879
703.091002	19039.180309
703.426246	19082.161187
703.761440	19000.038270
704.096584	18770.524618
704.431679	18695.282876
704.766725	18642.910329
705.101721	18552.288027
705.436668	18673.467283
705.771565	18373.737919
706.106413	18672.033074
706.441212	18754.771012
706.775961	18842.209825
707.110661	18909.317665
707.445311	19265.361759
707.779913	19140.504981
708.114465	19421.478732
708.448967	19730.098170
708.783421	20337.451344
709.117825	20678.016575
709.452180	20890.990201
709.786485	21322.364256
710.120742	22056.751987
710.454949	22149.589876
710.789107	22666.759329
711.123216	23383.833216
711.457275	23622.279793
711.791286	24192.744324
712.125247	24373.744433
712.459159	24155.122193
712.793023	24955.659944
713.126837	23964.223779
713.460602	24264.149748
713.794318	23960.397543
714.127985	23701.597308
714.461602	22828.827384
714.795171	22826.947033
715.128691	21842.054286
715.462162	21314.144655
715.795584	20867.798373
716.128957	20601.335583
716.462281	20212.425688
716.795556	19922.090514
717.128782	19435.823335
717.461960	18830.494184
717.795088	18790.210323
718.128167	18447.915977
718.461198	17989.561667
718.794180	17858.879836
719.127113	17524.696706
719.459997	17321.460068
719.792833	16917.893018
720.125619	16958.529759
720.458357	16612.278107
720.791046	16468.509440
721.123686	16300.371836
721.456278	16065.196968
721.788821	16064.186217
722.121315	15788.790503
722.453761	15888.650719
722.786158	15769.518171
723.118506	15854.756521
723.450805	15718.408433
723.783056	15893.119702
724.115259	15777.825993
724.447412	15752.499236
724.779518	15965.833305
725.111574	16010.094636
725.443582	16263.858759
725.775542	16198.233018
726.107453	16714.059003
726.439315	16616.144672
726.771129	17004.807551
727.102895	17420.256601
727.434612	17713.041775
727.766281	17899.042708
728.097901	18245.649762
728.429473	18343.029730
728.760996	18379.920894
729.092471	18512.415020
729.423897	18397.055776
729.755276	18248.498013
730.086606	18330.898194
730.417887	18863.107929
730.749120	19409.377442
731.080305	19630.860536
731.411442	20062.121165
731.742530	20186.436019
732.073570	20331.497742
732.404562	20676.884836
732.735506	20588.102555
733.066401	20476.130966
733.397249	20050.455935
733.728048	19464.973807
734.058798	18604.584957
734.389501	17836.981063
734.720156	17284.586548
735.050762	16689.052359
735.381320	16255.563540
735.711831	15953.406861
736.042293	15563.697942
736.372707	15577.082206
736.703073	15337.876935
737.033391	15522.952816
737.363661	15495.957437
737.693883	15592.956799
738.024056	15774.357679
738.354182	15963.242152
738.684260	16307.164791
739.014290	16584.579487
739.344272	16807.169114
739.674207	17169.681008
740.004093	17357.108587
740.333931	17433.078776
740.663722	17535.124333
740.993464	17607.848018
741.323159	17483.213051
741.652806	17205.639558
741.982405	17060.159420
742.311956	16705.320163
742.641460	16602.336951
742.970915	16274.278824
743.300323	15927.528098
743.629683	15713.712598
743.958996	15401.778601
744.288260	15087.656743
744.617477	14756.538635
744.946647	14727.451178
745.275768	14402.901693
745.604842	14199.302092
745.933869	14010.029450
746.262847	13975.119460
746.591778	13866.623747
746.920662	13739.301845
747.249498	13728.279362
747.578286	13861.549825
747.907027	14012.774358
748.235720	14285.276450
748.564365	14361.309653
748.892963	14304.500890
749.221514	14422.859621
749.550017	14306.116580
749.878473	14278.828814
750.206881	14058.381677
750.535242	13986.457015
750.863555	13907.484819
751.191821	13802.807780
751.520039	13803.677379
751.848210	13724.465729
752.176334	13771.219910
752.504411	13687.624977
752.832440	13508.817770
753.160421	13630.186070
753.488356	13520.823278
753.816243	13433.442438
754.144082	13263.308537
754.471875	13203.664125
754.799620	13175.068180
755.127318	13143.881082
755.454969	13133.874391
755.782572	13092.476436
756.110129	13108.769445
756.437638	13013.763860
756.765100	13009.365453
757.092515	13044.824929
757.419882	13068.886356
757.747203	13057.798338
758.074477	13138.393786
758.401703	13120.553142
758.728882	13299.907314
759.056014	13336.059948
759.383099	13502.261750
759.710138	13630.695226
760.037129	13766.239250
760.364073	13831.996061
760.690970	13859.271224
761.017820	13871.077606
761.344623	14068.990786
761.671379	14390.311411
761.998088	14934.735862
762.324751	16322.094168
762.651366	19248.471373
762.977935	23600.517132
763.304456	26978.833779
763.630931	28728.255316
763.957359	28041.445996
764.283740	25999.118297
764.610074	23856.426266
764.936362	21181.826969
765.262602	19240.929807
765.588796	17195.441304
765.914943	15828.882799
766.241044	14639.135203
766.567097	13780.651909
766.893104	13022.185107
767.219064	12512.912622
767.544978	11997.948674
767.870845	11580.594068
768.196665	11348.002791
768.522438	11109.941863
768.848165	10899.009903
769.173846	10680.763230
769.499479	10550.676255
769.825066	10381.338856
770.150607	10145.571653
770.476101	10059.035206
770.801548	9935.574827
771.126949	9782.313668
771.452303	9667.428292
771.777611	9466.694587
772.102872	9460.446077
772.428087	9316.765631
772.753256	9159.451384
773.078378	9076.516842
773.403453	8884.683294
773.728482	8769.850850
774.053465	8683.659722
774.378401	8585.649609
774.703291	8459.469528
775.028135	8342.517280
775.352932	8305.114439
775.677683	8199.877832
776.002388	8091.944207
776.327046	8099.175742
776.651658	7999.978438
776.976224	7890.963486
777.300743	7892.206130
777.625216	7805.442831
777.949643	7755.129595
778.274024	7765.985720
778.598359	7678.771238
778.922647	7691.810182
779.246889	7639.147769
779.571086	7647.914335
779.895236	7654.356930
780.219339	7655.622260
780.543397	7659.055285
780.867409	7734.516317
781.191374	7748.480313
781.515294	7712.902370
781.839167	7805.987276
782.162995	7787.506406
782.486776	7737.409940
782.810511	7694.350924
783.134201	7606.397913
783.457844	7601.588652
783.781441	7541.719909
784.104993	7485.916857
784.428498	7455.448123
784.751958	7436.178312
785.075372	7407.395844
785.398739	7351.237390
785.722061	7397.149699
786.045337	7396.141468
786.368568	7536.925772
786.691752	7535.673045
787.014891	7827.820513
787.337983	8126.365206
787.661030	8685.288015
787.984031	9311.908479
788.306987	9757.692673
788.629897	10044.204131
788.952760	10055.823991
789.275579	9884.903669
789.598351	9517.837093
789.921078	9175.126852
790.243759	8759.634952
790.566395	8460.076988
790.888984	8204.820683
791.211529	7990.070050
791.534027	7750.065756
791.856480	7539.156482
792.178888	7456.022814
792.501249	7348.857966
792.823566	7193.837444
793.145836	7186.021135
793.468062	7145.984291
793.790241	7084.608243
794.112375	7139.186295
794.434464	7289.122813
794.756507	7309.350443
795.078505	7440.110412
795.400457	7723.188845
795.722364	8061.659476
796.044226	8354.006069
796.366042	8660.755240
796.687812	8633.454871
797.009538	8747.266481
797.331218	8655.099065
797.652852	8583.754135
797.974442	8434.692257
798.295986	8359.873973
798.617484	8171.962442
798.938938	8031.339456
799.260346	7935.605424
799.581709	7725.893424
799.903026	7641.239848
800.224299	7534.430401
800.545526	7362.915223
800.866708	7262.566015
801.187845	7198.256015
801.508936	7085.739982
801.829983	7042.968312
802.150984	6891.128758
802.471940	6842.537076
802.792851	6824.499828
803.113717	6787.681761
803.434538	6759.700836
803.755314	6695.804211
804.076045	6697.394695
804.396731	6635.383462
804.717372	6658.754251
805.037967	6651.084136
805.358518	6688.058478
805.679024	6769.014368
805.999485	6772.568382
806.319901	6809.399052
806.640272	6825.790363
806.960598	6916.745382
807.280879	6921.499190
807.601115	6998.820407
807.921306	6946.193282
808.241453	6962.544264
808.561554	6990.126937
808.881611	6957.971938
809.201623	6970.438711
809.521590	6922.641011
809.841513	6905.634678
810.161390	6945.936183
810.481223	6813.870555
810.801011	6800.738349
811.120755	6775.114164
811.440453	6704.288473
811.760107	6666.550396
812.079716	6632.482278
812.399281	6578.292395
812.718801	6570.937351
813.038276	6524.505804
813.357707	6458.912830
813.677093	6506.771024
813.996434	6405.557258
814.315731	6439.605211
814.634983	6434.990035
814.954191	6442.536642
815.273354	6539.969543
815.592473	6595.545744
815.911547	6712.455143
816.230577	6791.664272
816.549562	6938.941582
816.868502	7044.946965
817.187399	7135.791078
817.506250	7289.732793
817.825058	7315.661968
818.143821	7564.294196
818.462539	7808.049108
818.781213	8134.327708
819.099843	8615.828477
819.418429	9541.404487
819.736970	10449.820411
820.055466	11573.486041
820.373919	12994.975479
820.692327	15040.295103
821.010691	18393.504283
821.329011	25877.089606
821.647286	37579.291428
821.965517	51626.514512
822.283704	59016.057110
822.601847	62249.911932
822.919945	60311.265644
823.237999	56772.799101
823.556010	51121.426184
823.873976	44491.683774
824.191897	37891.230467
824.509775	32929.363888
824.827609	28135.677764
825.145398	25202.613468
825.463144	23443.230612
825.780845	23262.467437
826.098502	24449.838129
826.416116	27732.471156
826.733685	31446.148042
827.051210	33324.736543
827.368692	32441.949846
827.686129	28948.478122
828.003522	24874.976277
828.320872	21073.883263
828.638177	18125.546792
828.955439	15825.890874
829.272656	13938.618985
829.589830	12390.757903
829.906960	11048.714529
830.224046	10032.450681
830.541088	9215.609838
830.858086	8705.787867
831.175041	8279.270964
831.491952	8102.394519
831.808819	8092.203827
832.125642	8374.170685
832.442421	9075.677489
832.759157	10563.150590
833.075849	13153.580262
833.392497	16322.227758
833.709101	18882.687770
834.025662	19311.926897
834.342179	18034.216207
834.658653	15946.616427
834.975083	13975.424450
835.291469	12287.205041
835.607811	10899.536704
835.924110	9958.696079
836.240366	9062.245335
836.556578	8228.284734
836.872746	7547.340796
837.188871	7012.008066
837.504952	6562.682462
837.820990	6225.920782
838.136984	5977.051619
838.452935	5853.639132
838.768842	5826.540410
839.084706	6104.509633
839.400526	7063.490849
839.716303	8582.004855
840.032037	9867.990598
840.347727	10137.248707
840.663373	9367.628353
840.978977	8309.669121
841.294537	7439.384486
841.610054	6807.677497
841.925527	6356.353076
842.240957	5974.513398
842.556344	5635.286594
842.871687	5347.028376
843.186987	5052.317481
843.502244	4813.283610
843.817458	4633.309377
844.132629	4484.146675
844.447756	4388.475658
844.762840	4300.237821
845.077881	4225.538004
845.392879	4160.998632
845.707833	4105.157770
846.022745	4060.258734
846.337613	4029.333775
846.652438	3987.492198
846.967221	3970.087615
847.281960	3932.488169
847.596656	3914.219027
847.911309	3892.763877
848.225919	3868.878890
848.540485	3849.956919
848.855009	3837.119620
849.169490	3817.834686
849.483928	3803.691729
849.798323	3796.825678
850.112675	3776.265332
850.426984	3779.390847
850.741251	3765.265534
851.055474	3757.718927
851.369654	3764.486676
851.683792	3761.449381
851.997887	3764.418620
852.311938	3766.916512
852.625947	3771.758540
852.939914	3760.620111
853.253837	3773.525465
853.567718	3771.166205
853.881555	3757.151797
854.195350	3774.044703
854.509103	3767.420627
854.822812	3765.658744
855.136479	3756.728340
855.450103	3767.574383
855.763685	3752.685335
856.077224	3753.131477
856.390720	3766.641769
856.704173	3785.316723
857.017584	3804.084939
857.330953	3809.305054
857.644278	3830.689629
857.957561	3841.858305
858.270802	3841.528109
858.584000	3845.745035
858.897155	3837.578365
859.210268	3824.930110
859.523339	3805.143582
859.836367	3802.111328
860.149352	3791.235038
860.462295	3788.651447
860.775195	3776.136782
861.088054	3769.583282
861.400869	3768.489352
861.713642	3766.198148
862.026373	3774.992440
862.339062	3779.708440
862.651708	3796.066984
862.964312	3829.157118
863.276873	3834.982171
863.589392	3889.819843
863.901869	3933.443467
864.214303	3974.969972
864.526696	4010.593286
864.839045	4055.935944
865.151353	4088.159000
865.463619	4098.001852
865.775842	4107.738841
866.088023	4128.354640
866.400162	4119.706540
866.712258	4129.186430
867.024313	4129.960247
867.336325	4127.064104
867.648296	4134.928304
867.960224	4137.900065
868.272110	4143.715036
868.583954	4148.604955
868.895755	4163.362933
869.207515	4159.110719
869.519233	4192.863765
869.830909	4204.919684
870.142542	4228.950865
870.454134	4245.027104
870.765684	4276.375520
871.077191	4309.939522
871.388657	4327.616328
871.700081	4365.389694
872.011463	4407.047268
872.322803	4437.672278
872.634101	4471.720231
872.945357	4508.175335
873.256571	4566.945107
873.567744	4594.389148
873.878874	4616.207262
874.189963	4656.652439
874.501010	4665.330786
874.812015	4665.865148
875.122979	4712.899113
875.433900	4710.741500
875.744780	4722.275660
876.055618	4744.098815
876.366415	4749.097119
876.677169	4764.371815
876.987882	4811.806552
877.298554	4859.523594
877.609183	4930.986991
877.919771	5028.190519
878.230317	5157.518800
878.540822	5347.063664
878.851285	5632.798785
879.161707	6041.815323
879.472087	6702.942485
879.782425	7736.862974
880.092722	9591.982384
880.402977	12479.807365
880.713191	16037.614295
881.023363	19794.014960
881.333494	22310.783291
881.643583	23845.774308
881.953631	24129.808039
882.263637	23530.140104
882.573602	22259.602977
882.883526	20820.141825
883.193408	19244.551876
883.503248	17607.487576
883.813048	16091.075731
884.122806	14687.895764
884.432522	13214.598388
884.742197	11927.246492
885.051831	10814.028653
885.361424	9774.877966
885.670975	8915.661184
885.980485	8204.218265
886.289954	7596.686130
886.599382	7101.939730
886.908768	6712.256017
887.218113	6328.392316
887.527417	6025.809659
887.836680	5749.312453
888.145901	5513.686402
888.455082	5343.484445
888.764221	5192.688410
889.073319	5049.081061
889.382376	4967.802537
889.691392	4900.104882
890.000366	4863.869068
890.309300	4840.770501
890.618193	4842.673537
890.927044	4825.667204
891.235855	4842.449206
891.544625	4864.363101
891.853353	4914.336059
892.162041	5015.166698
892.470687	5176.644938
892.779293	5389.653853
893.087858	5721.155088
893.396381	6221.237550
893.704864	6915.210350
894.013306	7958.550235
894.321707	9112.666956
894.630068	10028.974805
894.938387	10384.232478
895.246665	10296.491196
895.554903	9775.523234
895.863100	9111.207542
896.171256	8577.598887
896.479371	8081.070438
896.787446	7580.393121
897.095480	7144.287943
897.403473	6825.296330
897.711425	6507.988463
898.019336	6237.228090
898.327207	5960.798939
898.635038	5732.527932
898.942827	5478.294981
899.250576	5278.660248
899.558284	5074.191048
899.865952	4949.268735
900.173579	4795.649654
900.481165	4686.717881
900.788711	4591.321606
901.096216	4517.569525
901.403681	4443.585552
901.711105	4414.840892
902.018489	4390.769383
902.325832	4444.278710
902.633135	4527.377090
902.940397	4789.847286
903.247619	5408.255710
903.554800	6612.680626
903.861941	8400.089777
904.169041	10024.190750
904.476101	10927.477299
904.783121	10831.186220
905.090100	10209.284275
905.397039	9415.579808
905.703938	8669.526847
906.010796	7974.777710
906.317614	7428.737569
906.624391	6894.460961
906.931129	6467.621424
907.237826	6064.003962
907.544483	5688.906827
907.851099	5311.969672
908.157675	4949.790494
908.464211	4609.071509
908.770707	4358.546327
909.077163	4137.584993
909.383578	3985.382476
909.689954	3854.138556
909.996289	3775.146196
910.302584	3702.989640
910.608839	3669.793642
910.915054	3630.707056
911.221229	3612.584108
911.527363	3619.946713
911.833458	3626.921149
912.139513	3652.149603
912.445527	3679.722194
912.751502	3747.341712
913.057436	3837.011236
913.363331	3958.682004
913.669186	4138.789828
913.975000	4362.627141
914.280775	4734.089604
914.586510	5249.149333
914.892205	5952.712929
915.197859	6896.237968
915.503475	8046.876292
915.809050	9125.768915
916.114585	9859.264361
916.420081	10236.108255
916.725536	10308.534512
917.030952	9950.599986
917.336328	9593.930790
917.641665	9219.489006
917.946961	8759.022452
918.252218	8360.834312
918.557435	7859.032817
918.862612	7438.179650
919.167750	7070.286325
919.472848	6650.529609
919.777906	6279.722496
920.082925	5917.439975
920.387904	5537.342016
920.692843	5264.623155
920.997743	5005.223022
921.302603	4764.636475
921.607423	4598.026341
921.912204	4422.037139
922.216946	4302.339983
922.521647	4178.952701
922.826310	4072.367585
923.130932	3974.607009
923.435516	3874.716546
923.740059	3798.590082
924.044564	3725.568968
924.349028	3667.933456
924.653454	3601.299485
924.957840	3535.088970
925.262186	3486.930827
925.566493	3426.724327
925.870761	3365.048330
926.174989	3329.064574
926.479178	3293.632824
926.783328	3246.114908
927.087438	3220.999880
927.391509	3185.789941
927.695541	3151.104282
927.999533	3123.229221
928.303486	3103.682147
928.607400	3086.522060
928.911275	3072.898341
929.215110	3052.602656
929.518906	3043.914227
929.822663	3039.954401
930.126381	3038.386602
930.430060	3043.916748
930.733699	3043.455482
931.037299	3053.225238
931.340861	3049.570402
931.644383	3061.775035
931.947866	3060.358471
932.251309	3052.721123
932.554714	3058.505847
932.858080	3051.261709
933.161407	3041.433980
933.464694	3037.343083
933.767943	3030.184645
934.071153	3025.788759
934.374323	3012.759897
934.677455	3008.532889
934.980548	3001.318998
935.283602	2993.855570
935.586617	2990.175527
935.889593	3001.898731
936.192530	3004.023577
936.495428	3014.373066
936.798287	3031.225643
937.101108	3057.346382
937.403890	3098.855242
937.706632	3155.018737
938.009336	3228.564131
938.312002	3303.755461
938.614628	3367.052189
938.917216	3425.242228
939.219765	3460.840336
939.522275	3493.038185
939.824747	3505.527644
940.127179	3504.247191
940.429573	3502.886079
940.731929	3502.187879
941.034246	3493.128926
941.336524	3480.231134
941.638763	3468.218064
941.940964	3457.490489
942.243126	3418.459355
942.545250	3398.277096
942.847335	3360.387783
943.149381	3325.518122
943.451389	3294.572999
943.753359	3259.526898
944.055290	3231.608988
944.357182	3208.838096
944.659036	3190.500899
944.960851	3181.555371
945.262628	3166.588186
945.564367	3162.454439
945.866067	3160.684994
946.167729	3153.128305
946.469352	3149.501195
946.770937	3150.133859
947.072484	3132.152064
947.373992	3137.188176
947.675462	3129.021507
947.976893	3112.156327
948.278286	3106.744648
948.579641	3097.237032
948.880958	3090.829726
949.182236	3097.395828
949.483476	3087.469797
949.784678	3086.983325
950.085841	3087.038778
950.386967	3093.103286
950.688054	3106.069134
950.989103	3127.945221
951.290114	3145.047335
951.591087	3172.236798
951.892021	3196.041127
952.192917	3224.198492
952.493776	3253.096906
952.794596	3262.604522
953.095378	3272.961573
953.396122	3266.738268
953.696828	3266.929832
953.997496	3253.890888
954.298126	3233.759040
954.598718	3215.184909
954.899272	3192.507278
955.199788	3169.141530
955.500266	3134.339924
955.800706	3104.415635
956.101108	3066.591858
956.401472	3038.570604
956.701798	3002.851509
957.002087	2961.887093
957.302337	2937.117383
957.602550	2906.041190
957.902724	2874.198742
958.202861	2850.795185
958.502960	2828.808193
958.803022	2807.947898
959.103045	2787.647172
959.403031	2770.386261
959.702979	2756.850763
960.002889	2742.473392
960.302762	2731.110631
960.602596	2714.610935
960.902393	2707.104657
961.202153	2699.021166
961.501875	2691.363654
961.801559	2682.841583
962.101205	2678.425532
962.400814	2671.239367
962.700385	2664.469098
962.999918	2657.073725
963.299414	2649.454021
963.598873	2649.393527
963.898293	2643.359266
964.197677	2644.115439
964.497022	2640.493370
964.796331	2637.836682
965.095601	2633.541619
965.394835	2633.695374
965.694030	2632.437606
965.993189	2631.457102
966.292309	2626.526853
966.591393	2629.657410
966.890439	2628.003912
967.189447	2625.286730
967.488419	2627.101545
967.787353	2627.517440
968.086249	2630.597585
968.385108	2630.882410
968.683930	2629.196144
968.982714	2638.116466
969.281462	2639.172588
969.580172	2647.041829
969.878844	2650.913435
970.177480	2655.314362
970.476078	2665.820127
970.774639	2669.517813
971.073162	2680.429391
971.371649	2686.871986
971.670098	2690.007583
971.968510	2695.678881
972.266885	2697.854139
972.565223	2706.013247
972.863524	2709.937785
973.161788	2713.988352
973.460014	2716.385421
973.758204	2718.169989
974.056356	2720.287274
974.354471	2725.527553
974.652550	2721.212326
974.950591	2721.754250
975.248595	2723.332131
975.546563	2717.733929
975.844493	2714.401727
976.142386	2710.204966
976.440243	2705.136086
976.738062	2700.767926
977.035845	2694.849612
977.333590	2688.162521
977.631299	2683.325534
977.928971	2676.993845
978.226606	2670.463030
978.524204	2666.634273
978.821765	2664.383398
979.119290	2666.820796
979.416777	2665.512617
979.714228	2664.917761
980.011642	2669.868174
980.309020	2674.841272
980.606360	2690.279806
980.903664	2707.873432
981.200931	2735.740931
981.498162	2781.365894
981.795356	2846.832838
982.092513	2929.051537
982.389633	3027.901002
982.686717	3122.062194
982.983764	3202.171170
983.280775	3265.374636
983.577749	3283.283335
983.874686	3276.946605
984.171587	3248.595156
984.468451	3215.807491
984.765279	3178.457582
985.062070	3133.374543
985.358824	3089.423244
985.655543	3035.099770
985.952224	2985.802326
986.248869	2924.509457
986.545478	2862.399921
986.842050	2804.693833
987.138586	2756.931421
987.435086	2718.931203
987.731549	2685.198322
988.027975	2658.560866
988.324366	2638.086219
988.620719	2620.394290
988.917037	2613.245934
989.213318	2601.379057
989.509563	2594.046699
989.805772	2589.005545
990.101944	2583.838363
990.398080	2579.634040
990.694180	2578.683783
990.990244	2579.891139
991.286271	2578.817373
991.582262	2580.430543
991.878217	2582.580595
992.174136	2586.996646
992.470019	2585.953127
992.765865	2591.750454
993.061676	2590.754826
993.357450	2602.772937
993.653188	2608.968515
993.948890	2625.919394
994.244556	2642.930768
994.540186	2661.257883
994.835780	2689.526153
995.131337	2721.850032
995.426859	2765.405601
995.722345	2811.151551
996.017795	2857.021010
996.313208	2897.995509
996.608586	2928.529778
996.903928	2946.428394
997.199234	2955.676391
997.494504	2951.751853
997.789738	2939.718618
998.084936	2918.694486
998.380099	2890.579971
998.675225	2860.847246
998.970316	2833.887155
999.265371	2794.861063
999.560390	2761.435692
999.855373	2734.480642
1000.150320	2701.526620
1000.445232	2678.120542
1000.740108	2654.505257
1001.034948	2632.513224
1001.329752	2619.370936
1001.624521	2606.886518
1001.919254	2592.562079
1002.213951	2585.524629
1002.508613	2576.188412
1002.803239	2568.112483
1003.097829	2563.618295
1003.392384	2559.971020
1003.686903	2554.120761
1003.981386	2549.288815
1004.275834	2547.491643
1004.570246	2543.317568
1004.864623	2539.856816
1005.158964	2537.527803
1005.453270	2534.959335
1005.747540	2537.169881
1006.041775	2534.919006
1006.335974	2529.051103
1006.630138	2531.790970
1006.924266	2531.208717
1007.218359	2530.268541
1007.512416	2526.681760
1007.806438	2524.519105
1008.100425	2524.549352
1008.394376	2516.735564
1008.688292	2526.974147
1008.982172	2523.004239
1009.276017	2526.883407
1009.569827	2523.387366
1009.863602	2524.957686
1010.157341	2520.024917
1010.451045	2521.617921
1010.744714	2519.283867
1011.038347	2519.261182
1011.331945	2519.488034
1011.625508	2518.472241
1011.919036	2516.614576
1012.212528	2516.483506
1012.505986	2512.992507
1012.799408	2516.211284
1013.092795	2513.640295
1013.386147	2517.022910
1013.679464	2514.630882
1013.972745	2513.637775
1014.265992	2513.877230
1014.559204	2512.952178
1014.852380	2514.093999
1015.145521	2511.220542
1015.438628	2514.746829
1015.731699	2511.966632
1016.024736	2512.266581
1016.317737	2514.056191
1016.610703	2517.993332
1016.903635	2515.485358
1017.196531	2519.379649
1017.489393	2518.759587
1017.782219	2520.362674
1018.075011	2521.328055
1018.367768	2522.452232
1018.660490	2524.831657
1018.953177	2524.831657
1019.245829	2524.831657
