Dividing Wavelength (nm)	Counts (n)	Blue Motor Position (mm): 0.000000	Red Motor Position (mm): 22.500000	
326.493990	2051.512681
326.888308	2051.512681
327.282561	2051.512681
327.676750	2025.976716
328.070874	2027.035359
328.464933	2034.062727
328.858929	2041.566485
329.252859	2049.055119
329.646726	2065.721173
330.040528	2082.072156
330.434265	2099.779209
330.827938	2118.756632
331.221547	2138.399488
331.615091	2159.804228
332.008571	2181.203926
332.401986	2200.453572
332.795338	2219.705738
333.188625	2240.898749
333.581847	2256.854001
333.975006	2276.315375
334.368100	2294.932356
334.761129	2309.768472
335.154095	2325.363282
335.546996	2342.067145
335.939833	2359.711183
336.332606	2373.125694
336.725315	2384.286808
337.117960	2394.737120
337.510540	2403.917061
337.903056	2413.865778
338.295508	2420.726789
338.687896	2426.302305
339.080220	2432.240784
339.472480	2438.111208
339.864676	2440.152875
340.256807	2444.082455
340.648875	2445.763679
341.040879	2446.383741
341.432818	2446.938268
341.824694	2451.954216
342.216506	2449.315172
342.608253	2449.957919
342.999937	2448.914401
343.391557	2447.886005
343.783113	2446.247630
344.174605	2445.257043
344.566033	2444.803340
344.957397	2441.176229
345.348697	2440.951898
345.739934	2441.007351
346.131106	2438.078440
346.522215	2435.938471
346.913260	2433.498552
347.304241	2429.909251
347.695159	2430.118458
348.086012	2427.882707
348.476802	2429.884045
348.867528	2423.479259
349.258191	2421.377098
349.648789	2421.936666
350.039324	2420.694021
350.429796	2425.188210
350.820203	2419.055646
351.210548	2421.452715
351.600828	2421.588826
351.991045	2417.568506
352.381198	2417.949113
352.771288	2420.230235
353.161314	2417.865934
353.551276	2420.550348
353.941175	2419.975657
354.331010	2418.085224
354.720782	2420.779721
355.110490	2418.294432
355.500135	2420.285688
355.889717	2417.039185
356.279235	2421.147725
356.668689	2421.825760
357.058080	2420.076480
357.447408	2419.844587
357.836672	2420.351223
358.225873	2421.389701
358.615010	2422.796182
359.004084	2426.599733
359.393095	2421.994639
359.782043	2424.434557
360.170927	2425.581420
360.559748	2426.322470
360.948505	2423.358271
361.337199	2428.296081
361.725830	2426.534198
362.114398	2430.728438
362.502903	2428.301122
362.891344	2429.949580
363.279722	2429.379929
363.668037	2433.296906
364.056289	2430.030238
364.444478	2430.627615
364.832603	2430.173911
365.220665	2433.286824
365.608665	2432.823037
365.996601	2432.560897
366.384474	2432.036618
366.772284	2431.053592
367.160031	2435.227668
367.547715	2433.599375
367.935336	2435.880497
368.322893	2432.709612
368.710388	2432.654159
369.097820	2435.368820
369.485189	2433.916968
369.872495	2437.128183
370.259738	2436.399736
370.646918	2438.698502
371.034035	2440.241095
371.421090	2441.695468
371.808081	2441.120777
372.195010	2442.388627
372.581875	2447.207970
372.968678	2444.226127
373.355418	2444.321909
373.742096	2448.473300
374.128710	2451.505554
374.515262	2454.394135
374.901751	2456.599640
375.288177	2459.820937
375.674540	2463.485856
376.060841	2464.050465
376.447079	2470.324181
376.833254	2476.565129
377.219367	2479.166365
377.605417	2484.318424
377.991404	2490.952583
378.377329	2501.034890
378.763191	2503.041269
379.148991	2512.871519
379.534727	2520.216481
379.920402	2533.262987
380.306013	2540.799512
380.691563	2553.440205
381.077049	2564.256001
381.462474	2572.783112
381.847835	2588.408169
382.233134	2603.902155
382.618371	2612.668722
383.003545	2632.359468
383.388657	2644.604431
383.773706	2664.615291
384.158693	2675.660459
384.543618	2697.118131
384.928480	2711.321582
385.313280	2732.887638
385.698017	2750.274577
386.082692	2775.205604
386.467305	2789.789662
386.851856	2811.723722
387.236344	2841.920234
387.620770	2857.925897
388.005133	2877.223434
388.389435	2912.244330
388.773674	2925.684046
389.157851	2957.728141
389.541965	2982.013899
389.926018	2995.778770
390.310008	3031.349151
390.693936	3055.647513
391.077802	3084.934096
391.461606	3115.541462
391.845348	3130.294398
392.229027	3163.124913
392.612645	3203.827189
392.996200	3231.571179
393.379694	3270.468722
393.763125	3311.291986
394.146494	3339.444310
394.529801	3376.819424
394.913047	3418.983635
395.296230	3424.382711
395.679351	3447.791309
396.062410	3496.292250
396.445408	3481.884632
396.828343	3523.106147
397.211217	3555.278791
397.594028	3525.281405
397.976778	3576.502049
398.359466	3610.134107
398.742092	3617.537041
399.124656	3632.451295
399.507158	3696.216850
399.889598	3698.074515
400.271977	3762.629011
400.654294	3753.368411
401.036549	3813.244716
401.418742	3811.011485
401.800874	3878.540261
402.182944	3910.082761
402.564952	3993.281964
402.946898	3989.183506
403.328783	3983.623113
403.710606	4037.076988
404.092367	4102.836319
404.474067	4167.998274
404.855705	4151.412878
405.237282	4122.781644
405.618797	4221.205132
406.000250	4297.550886
406.381642	4385.461048
406.762972	4379.091550
407.144240	4350.009133
407.525447	4414.611520
407.906593	4433.084828
408.287677	4519.318806
408.668700	4542.145150
409.049661	4578.910285
409.430560	4621.608858
409.811399	4596.879478
410.192176	4647.409484
410.572891	4730.943924
410.953545	4840.765460
411.334138	4737.525150
411.714669	4846.328373
412.095139	4761.321917
412.475547	4873.701839
412.855894	4877.265935
413.236180	4979.916430
413.616405	4903.089245
413.996568	5007.985574
414.376670	5011.118652
414.756711	5004.550028
415.136691	5074.170883
415.516609	5160.472917
415.896466	5194.069686
416.276262	5272.031131
416.655997	5391.390530
417.035670	5479.101566
417.415283	5624.218741
417.794834	5695.914031
418.174324	5656.283000
418.553753	5657.303834
418.933121	5822.101674
419.312428	5837.141956
419.691674	5758.242857
420.070859	5987.748948
420.449983	5862.115832
420.829045	6061.075051
421.208047	5983.526982
421.586988	6141.582278
421.965867	6215.175563
422.344686	6299.408202
422.723444	6467.495395
423.102141	6079.054326
423.480777	6480.589792
423.859352	6282.477487
424.237866	6654.381050
424.616319	6648.293857
424.994712	6809.381407
425.373044	6722.171967
425.751314	7039.747015
426.129524	6757.286124
426.507673	7020.890579
426.885762	7056.455919
427.263789	7098.385716
427.641756	7186.953748
428.019662	7259.175839
428.397508	7300.004144
428.775292	7267.191273
429.153016	7433.060358
429.530679	7362.708536
429.908282	7405.465082
430.285824	7344.827563
430.663305	7615.875282
431.040726	7491.247877
431.418086	7489.612022
431.795385	7611.146680
432.172624	7789.724514
432.549802	7658.767940
432.926920	7786.445243
433.303977	7711.899181
433.680974	7736.318530
434.057910	7921.439781
434.434786	7961.378323
434.811601	7897.370792
435.188355	8210.887712
435.565050	8079.134635
435.941683	8073.808656
436.318257	8370.205817
436.694770	8304.093605
437.071222	8500.315478
437.447614	8268.707226
437.823946	8212.757980
438.200218	8323.570103
438.576429	8183.529370
438.952580	8310.442938
439.328670	8292.130947
439.704700	8325.800814
440.080670	8205.869243
440.456580	8414.588136
440.832429	8363.072585
441.208218	8087.429854
441.583947	8160.463570
441.959616	8226.026297
442.335224	8215.555820
442.710773	8247.995645
443.086261	8369.643729
443.461689	8077.027433
443.837057	8185.775204
444.212365	8320.573137
444.587612	8261.803366
444.962800	8120.640976
445.337927	8185.629010
445.712995	7756.888958
446.088002	8257.515864
446.462949	8252.058815
446.837837	8175.307248
447.212664	8130.889641
447.587431	8705.540851
447.962139	9420.273122
448.336786	10060.595443
448.711374	9836.402728
449.085901	8856.326803
449.460369	8710.813897
449.834776	8460.533212
450.209124	9027.942804
450.583412	8819.488572
450.957640	8957.502761
451.331808	8592.082122
451.705917	8107.856609
452.079965	7936.079292
452.453954	7981.003535
452.827883	7851.871858
453.201752	7747.953513
453.575562	7655.095459
453.949311	7778.049201
454.323001	7720.917805
454.696632	7566.088847
455.070202	7810.988101
455.443713	7737.684683
455.817164	7733.130000
456.190556	7795.421017
456.563888	7610.128367
456.937160	7640.035012
457.310373	7259.924450
457.683526	7160.321332
458.056619	7053.902575
458.429653	6969.823690
458.802628	6929.784326
459.175542	6835.272774
459.548398	6953.502955
459.921194	7073.250523
460.293930	7066.150058
460.666607	7291.474512
461.039224	7481.102555
461.411782	7486.068091
461.784280	7227.575366
462.156719	7062.071765
462.529099	6893.949284
462.901419	6532.740528
463.273680	6271.452483
463.645882	6201.612338
464.018024	6038.130239
464.390106	6018.895717
464.762130	6200.518408
465.134094	6504.747001
465.505999	6973.755790
465.877845	7422.035355
466.249631	7579.881444
466.621358	7286.148532
466.993026	6909.531490
467.364634	6568.144552
467.736184	6231.060238
468.107674	5956.319874
468.479105	5788.819976
468.850477	5604.056646
469.221790	5393.895984
469.593043	5158.748842
469.964238	4985.093695
470.335373	4878.591758
470.706449	4873.671592
471.077467	4884.663828
471.448425	5114.608499
471.819324	5261.588380
472.190164	5149.359693
472.560945	4829.279191
472.931667	4536.977968
473.302330	4400.309766
473.672934	4251.240327
474.043479	4205.733831
474.413965	4104.489817
474.784393	4008.097915
475.154761	3993.017303
475.525070	3932.389866
475.895321	3853.049667
476.265513	3822.591015
476.635645	3800.039413
477.005719	3739.613623
477.375734	3699.952345
477.745691	3676.339580
478.115588	3657.130263
478.485427	3663.857683
478.855207	3703.745813
479.224928	3745.778954
479.594591	3753.386055
479.964194	3672.041997
480.333739	3627.649596
480.703226	3578.326947
481.072653	3546.557595
481.442022	3516.860158
481.811333	3484.415292
482.180584	3418.008172
482.549777	3370.384392
482.918912	3321.749860
483.287988	3284.276443
483.657005	3239.430338
484.025964	3193.129861
484.394864	3167.528361
484.763706	3136.283289
485.132489	3095.374326
485.501213	3068.401632
485.869879	3046.812891
486.238487	3021.465969
486.607036	3003.267404
486.975527	2980.690596
487.343959	2963.976651
487.712333	2952.258489
488.080648	2936.426745
488.448905	2925.351330
488.817104	2905.796694
489.185244	2901.899882
489.553326	2898.860067
489.921350	2913.202149
490.289315	2929.212854
490.657222	2929.086825
491.025070	2922.722368
491.392861	2908.448341
491.760593	2891.046278
492.128267	2866.485777
492.495883	2846.457272
492.863440	2825.808706
493.230939	2808.242806
493.598380	2795.670168
493.965763	2787.899229
494.333088	2774.131838
494.700354	2763.966351
495.067563	2760.225815
495.434713	2751.401275
495.801805	2752.432191
496.168839	2743.383320
496.535815	2734.543657
496.902733	2730.795559
497.269593	2727.188613
497.636395	2721.517315
498.003139	2718.275853
498.369825	2714.953733
498.736453	2713.769062
499.103023	2707.853268
499.469535	2707.497867
499.835989	2703.596013
500.202385	2696.878676
500.568723	2692.182841
500.935003	2695.036134
501.301226	2684.795030
501.667390	2694.998326
502.033497	2692.555887
502.399546	2689.689991
502.765537	2686.698066
503.131470	2684.648837
503.497345	2685.427695
503.863163	2674.826148
504.228923	2678.178516
504.594625	2677.876047
504.960269	2671.796415
505.325856	2672.061076
505.691385	2670.904131
506.056856	2666.767864
506.422270	2672.229954
506.787625	2668.882628
507.152924	2668.890190
507.518164	2670.077382
507.883347	2665.247956
508.248472	2664.350631
508.613540	2664.824499
508.978550	2664.915240
509.343503	2666.639315
509.708398	2665.744510
510.073236	2665.736948
510.438016	2666.619150
510.802738	2662.124961
511.167403	2663.118069
511.532010	2664.106135
511.896561	2665.379026
512.261053	2666.767864
512.625488	2666.775426
512.989866	2665.933553
513.354186	2664.459016
513.718449	2659.107831
514.082655	2664.459016
514.446803	2662.649241
514.810894	2667.027483
515.174927	2662.757626
515.538904	2662.389622
515.902822	2663.322235
516.266684	2660.279899
516.630488	2662.243428
516.994235	2659.027172
517.357925	2662.278717
517.721558	2665.477329
518.085133	2663.634787
518.448651	2664.038079
518.812112	2655.069867
519.175516	2663.324756
519.538863	2658.545742
519.902152	2661.630928
520.265385	2664.315343
520.628560	2666.440189
520.991678	2663.866680
521.354739	2664.385919
521.717743	2664.002791
522.080690	2661.938439
522.443580	2664.537153
522.806413	2666.684685
523.169189	2663.435661
523.531908	2665.638646
523.894569	2660.922646
524.257174	2663.657472
524.619722	2667.929850
524.982213	2663.176042
525.344647	2661.963644
525.707025	2663.657472
526.069345	2664.133861
526.431608	2665.726866
526.793815	2664.000271
527.155964	2661.338541
527.518057	2659.432985
527.880093	2659.407779
528.242072	2664.151505
528.603995	2661.885507
528.965860	2658.943993
529.327669	2659.813592
529.689421	2658.011380
530.051117	2660.148829
530.412755	2657.524908
530.774337	2660.685712
531.135862	2657.857625
531.497331	2657.809734
531.858743	2655.604229
532.220098	2656.960299
532.581396	2654.946358
532.942638	2655.619352
533.303824	2651.435195
533.664953	2655.253869
534.026025	2648.153403
534.387040	2649.869916
534.747999	2650.028713
535.108902	2651.276398
535.469748	2650.343785
535.830537	2648.077786
536.191270	2648.249185
536.551947	2645.358084
536.912567	2643.908752
537.273131	2643.291211
537.633638	2640.140489
537.994089	2646.681387
538.354483	2639.275932
538.714821	2643.674338
539.075103	2645.927734
539.435328	2643.981849
539.795497	2640.309368
540.155609	2641.126035
540.515665	2642.623258
540.875665	2636.901548
541.235609	2639.159985
541.595496	2639.906076
541.955328	2642.033443
542.315102	2640.664769
542.674821	2637.564460
543.034483	2636.757875
543.394090	2636.649490
543.753640	2636.447844
544.113134	2639.974131
544.472571	2637.960190
544.831953	2638.156795
545.191278	2636.601599
545.550548	2633.735703
545.909761	2637.728297
546.268918	2637.549336
546.628019	2637.819038
546.987064	2634.625467
547.346053	2631.257976
547.704986	2635.074130
548.063863	2634.559932
548.422684	2632.316619
548.781449	2633.458440
549.140158	2631.573048
549.498811	2633.866773
549.857408	2630.862246
550.215949	2631.867956
550.574434	2631.978861
550.932864	2633.647483
551.291237	2635.522792
551.649555	2634.176804
552.007817	2630.126237
552.366022	2631.320991
552.724173	2630.211937
553.082267	2632.419962
553.440305	2633.292082
553.798288	2634.562453
554.156215	2633.100518
554.514086	2630.161525
554.871902	2627.577934
555.229661	2631.809983
555.587365	2627.048613
555.945014	2629.758233
556.302606	2630.519447
556.660143	2630.834519
557.017625	2631.701598
557.375050	2629.453243
557.732421	2633.987761
558.089735	2633.455919
558.446994	2633.586989
558.804197	2633.803759
559.161345	2632.772843
559.518437	2631.673872
559.875474	2629.060033
560.232455	2633.183697
560.589381	2630.159005
560.946251	2629.349900
561.303065	2634.365848
561.659825	2630.015332
562.016528	2633.276958
562.373177	2633.458440
562.729770	2634.121352
563.086307	2632.455250
563.442789	2634.519603
563.799216	2633.743265
564.155587	2632.162863
564.511904	2631.356279
564.868164	2633.158491
565.224370	2634.731331
565.580520	2632.104890
565.936615	2635.777371
566.292654	2634.501959
566.648638	2632.699746
567.004567	2632.361989
567.360441	2632.634211
567.716260	2634.023049
568.072023	2632.956845
568.427732	2632.740076
568.783385	2633.138327
569.138982	2632.120014
569.494525	2635.633698
569.850013	2633.917185
570.205445	2628.810496
570.560823	2630.380816
570.916145	2631.441978
571.271412	2630.466515
571.626625	2630.353089
571.981782	2629.591875
572.336884	2628.893675
572.691931	2626.748664
573.046923	2626.922584
573.401860	2626.499127
573.756743	2631.096659
574.111570	2629.720424
574.466342	2628.271093
574.821059	2627.658592
575.175722	2627.255300
575.530330	2628.243366
575.884882	2625.851339
576.239380	2627.076339
576.593823	2629.382667
576.948211	2625.201030
577.302544	2626.965434
577.656823	2624.649024
578.011047	2626.952831
578.365216	2626.995681
578.719330	2623.839918
579.073389	2623.575258
579.427394	2625.087604
579.781344	2624.056688
580.135239	2623.683643
580.489080	2620.643827
580.842866	2622.617439
581.196597	2624.575927
581.550273	2621.105092
581.903895	2623.713890
582.257463	2624.139867
582.610975	2622.831688
582.964434	2622.398148
583.317837	2617.873713
583.671186	2623.736575
584.024481	2622.602315
584.377721	2620.356481
584.730906	2619.958230
585.084037	2618.219032
585.437113	2620.169958
585.790135	2621.180710
586.143103	2617.619135
586.496016	2619.260030
586.848874	2620.941255
587.201679	2621.589043
587.554428	2617.719958
587.907124	2618.781121
588.259765	2618.055194
588.612352	2617.127622
588.964884	2616.021089
589.317362	2615.927827
589.669786	2616.673918
590.022155	2615.121243
590.374470	2612.575460
590.726731	2614.735595
591.078937	2607.975407
591.431090	2616.326079
591.783188	2614.173506
592.135232	2610.775768
592.487222	2613.397168
592.839157	2615.302724
593.191038	2611.579832
593.542866	2611.421036
593.894639	2611.085799
594.246358	2611.738629
594.598022	2612.918259
594.949633	2610.634616
595.301190	2610.629575
595.652692	2611.274842
596.004141	2610.929523
596.355535	2607.584718
596.706876	2607.408277
597.058162	2603.675303
597.409395	2605.611106
597.760573	2608.461879
598.111698	2606.306785
598.462768	2607.413319
598.813785	2608.124121
599.164748	2606.432814
599.515657	2605.830396
599.866511	2602.513317
600.217312	2605.711929
600.568060	2605.081785
600.918753	2607.947681
601.269392	2605.782505
601.619978	2607.383072
601.970510	2603.582042
602.320988	2603.503904
602.671412	2606.546240
603.021783	2604.108842
603.372100	2601.920982
603.722363	2604.207145
604.072572	2602.883842
604.422728	2605.243102
604.772830	2602.883842
605.122878	2600.340580
605.472872	2602.490632
605.822813	2603.211517
606.172701	2604.252515
606.522534	2604.784357
606.872314	2603.705550
607.222041	2602.349480
607.571714	2602.193204
607.921333	2599.551639
608.270899	2602.301589
608.620411	2600.191866
608.969870	2601.437031
609.319276	2600.617843
609.668627	2600.680858
610.017926	2602.021805
610.367171	2601.825200
610.716362	2604.832248
611.065500	2605.535489
611.414585	2603.161105
611.763616	2604.018102
612.112594	2599.914602
612.461518	2603.834099
612.810389	2605.038935
613.159207	2603.352669
613.507971	2604.053390
613.856682	2606.115222
614.205340	2604.043307
614.553945	2605.409460
614.902496	2604.756631
615.250994	2607.239399
615.599439	2605.953905
615.947830	2607.433483
616.296169	2606.316868
616.644454	2604.144130
616.992686	2604.244953
617.340864	2606.644543
617.688990	2602.662031
618.037063	2608.260232
618.385082	2608.194697
618.733048	2609.709564
619.080961	2606.367279
619.428821	2607.443566
619.776628	2607.471292
620.124382	2605.664038
620.472083	2609.707044
620.819731	2607.743514
621.167326	2606.435335
621.514868	2606.954574
621.862357	2604.441558
622.209793	2603.090529
622.557176	2603.309819
622.904506	2604.829727
623.251783	2599.944849
623.599007	2600.973245
623.946179	2596.602564
624.293297	2598.503079
624.640363	2592.163828
624.987376	2593.497213
625.334336	2590.225505
625.681243	2593.650969
626.028097	2590.848087
626.374899	2593.643407
626.721647	2595.128027
627.068343	2594.248345
627.414987	2593.083839
627.761577	2593.051071
628.108115	2592.458736
628.454600	2589.655854
628.801032	2588.975298
629.147412	2588.572006
629.493739	2589.660895
629.840014	2587.369691
630.186236	2588.919846
630.532405	2586.863055
630.878521	2587.835998
631.224585	2586.860534
631.570597	2588.098138
631.916556	2587.397417
632.262462	2586.774835
632.608316	2586.575709
632.954117	2586.701738
633.299866	2585.738878
633.645562	2583.946747
633.991206	2584.554207
634.336797	2580.294432
634.682336	2580.216294
635.027823	2578.524987
635.373257	2579.437435
635.718639	2579.936510
636.063968	2581.741243
636.409245	2577.015161
636.754470	2577.506673
637.099642	2575.046590
637.444762	2575.628844
637.789829	2574.199677
638.134845	2574.265212
638.479808	2573.456106
638.824719	2573.970304
639.169577	2572.016857
639.514383	2569.254305
639.859137	2570.010478
640.203839	2572.576425
640.548489	2569.798749
640.893086	2570.350756
641.237632	2569.413101
641.582125	2571.311095
641.926566	2568.609037
642.270955	2565.670044
642.615292	2565.165929
642.959576	2567.555436
643.303809	2564.669375
643.647990	2570.771692
643.992118	2566.947977
644.336195	2569.052658
644.680219	2566.401012
645.024192	2567.439489
645.368112	2569.092988
645.711981	2570.015519
646.055797	2569.985272
646.399562	2569.569377
646.743274	2573.655232
647.086935	2573.990469
647.430544	2573.617423
647.774101	2573.952660
648.117606	2577.138669
648.461059	2575.568350
648.804460	2576.596745
649.147810	2574.310582
649.491108	2569.418142
649.834354	2570.920406
650.177548	2572.147927
650.520690	2569.355128
650.863781	2570.108780
651.206820	2567.812535
651.549807	2567.270611
651.892742	2566.337997
652.235626	2564.389591
652.578458	2562.133675
652.921238	2564.092163
653.263967	2563.870352
653.606644	2563.300702
653.949269	2560.933880
654.291843	2559.076215
654.634365	2564.392112
654.976836	2561.702656
655.319255	2564.934036
655.661622	2558.156204
656.003938	2562.630228
656.346203	2557.536143
656.688416	2559.953376
657.030577	2560.432285
657.372687	2557.841132
657.714746	2561.380022
658.056753	2560.646534
658.398708	2557.321893
658.740612	2558.083108
659.082465	2557.702501
659.424266	2555.123950
659.766016	2552.134546
660.107715	2555.340720
660.449362	2554.002294
660.790958	2555.234856
661.132503	2554.405586
661.473996	2556.321224
661.815438	2558.874569
662.156829	2560.691905
662.498168	2558.841801
662.839456	2560.875907
663.180693	2555.885165
663.521879	2557.624363
663.863013	2559.996226
664.204097	2558.221739
664.545129	2561.208623
664.886110	2559.194682
665.227040	2560.497820
665.567918	2558.589744
665.908746	2560.089487
666.249522	2558.340207
666.590248	2557.508416
666.930922	2560.028993
667.271545	2561.934549
667.612118	2559.482028
667.952639	2560.374312
668.293109	2559.504713
668.633528	2562.047975
668.973896	2562.292471
669.314213	2560.240722
669.654480	2556.313663
669.994695	2557.705021
670.334859	2558.078067
670.674973	2558.972871
671.015035	2561.044786
671.355047	2556.245607
671.695008	2557.727706
672.034918	2557.810885
672.374777	2557.342058
672.714585	2556.774928
673.054342	2557.450443
673.394049	2555.202088
673.733705	2556.979095
674.073310	2556.966492
674.412864	2557.100083
674.752368	2555.159238
675.091820	2558.060422
675.431223	2554.123281
675.770574	2555.839794
676.109875	2555.280226
676.449125	2551.058260
676.788324	2549.251006
677.127473	2550.584391
677.466571	2548.101623
677.805619	2552.250493
678.144616	2549.747560
678.483562	2552.419371
678.822458	2547.680687
679.161303	2548.409133
679.500098	2550.483568
679.838842	2549.999617
680.177535	2549.427447
680.516179	2551.365770
680.854771	2549.470296
681.193314	2552.646223
681.531805	2554.292160
681.870247	2558.317521
682.208638	2558.607388
682.546978	2560.785166
682.885268	2560.152501
683.223508	2559.509754
683.561697	2558.892213
683.899836	2558.723334
684.237925	2558.551935
684.575963	2556.734599
684.913951	2552.812581
685.251889	2556.293498
685.589776	2554.282078
685.927614	2554.254351
686.265401	2555.141594
686.603137	2556.311142
686.940824	2559.121585
687.278460	2560.034034
687.616046	2555.905329
687.953582	2560.114693
688.291068	2560.558314
688.628504	2562.300033
688.965889	2558.115875
689.303224	2559.474466
689.640510	2560.031514
689.977745	2560.618808
690.314930	2552.300904
690.652065	2555.214691
690.989150	2551.527087
691.326185	2549.470296
691.663170	2550.788558
692.000105	2548.691438
692.336990	2549.611449
692.673825	2546.594318
693.010610	2541.651467
693.347345	2540.615510
693.684030	2537.558050
694.020665	2537.663914
694.357251	2532.789118
694.693786	2537.946219
695.030272	2535.763399
695.366707	2536.612833
695.703093	2535.231557
696.039429	2532.738707
696.375716	2533.590662
696.711952	2534.072092
697.048139	2533.739376
697.384276	2532.763912
697.720363	2532.090918
698.056400	2532.597554
698.392388	2532.501773
698.728326	2531.508665
699.064214	2534.495549
699.400053	2531.080167
699.735842	2530.311391
700.071581	2530.291227
700.407270	2528.715866
700.742910	2528.947759
701.078501	2526.790145
701.414042	2529.197296
701.749533	2528.297450
702.084974	2529.797193
702.420366	2526.197810
702.755709	2526.885927
703.091002	2525.257634
703.426246	2524.241842
703.761440	2523.513395
704.096584	2525.124044
704.431679	2524.042716
704.766725	2523.415093
705.101721	2523.591533
705.436668	2522.868128
705.771565	2522.764784
706.106413	2527.929446
706.441212	2522.449712
706.775961	2524.569517
707.110661	2525.948273
707.445311	2526.359127
707.779913	2524.665299
708.114465	2526.326359
708.448967	2525.308046
708.783421	2527.954652
709.117825	2529.706453
709.452180	2530.056813
709.786485	2533.230219
710.120742	2530.220650
710.454949	2527.722759
710.789107	2531.919519
711.123216	2531.677544
711.457275	2536.927906
711.791286	2537.230375
712.125247	2539.080478
712.459159	2536.627957
712.793023	2542.637012
713.126837	2540.378575
713.460602	2538.667104
713.794318	2531.833820
714.127985	2538.210879
714.461602	2532.317770
714.795171	2533.973789
715.128691	2532.121165
715.462162	2531.213758
715.795584	2530.878521
716.128957	2527.833664
716.462281	2526.230577
716.795556	2527.805938
717.128782	2525.504651
717.461960	2523.571368
717.795088	2523.732685
718.128167	2523.924249
718.461198	2521.363343
718.794180	2521.756553
719.127113	2519.379649
719.459997	2521.486851
719.792833	2516.536438
720.125619	2519.137674
720.458357	2516.415451
720.791046	2517.887467
721.123686	2518.252951
721.456278	2517.315297
721.788821	2519.898888
722.121315	2516.354957
722.453761	2515.586181
722.786158	2515.061901
723.118506	2516.896881
723.450805	2518.583147
723.783056	2514.000738
724.115259	2516.344874
724.447412	2513.685666
724.779518	2515.331602
725.111574	2514.940913
725.443582	2519.228414
725.775542	2516.871675
726.107453	2517.234638
726.439315	2518.421830
726.771129	2520.034999
727.102895	2516.854031
727.434612	2520.546676
727.766281	2516.755728
728.097901	2522.003570
728.429473	2524.118334
728.760996	2522.847963
729.092471	2525.416431
729.423897	2521.149094
729.755276	2525.154291
730.086606	2521.375946
730.417887	2521.068436
730.749120	2525.055988
731.080305	2527.596730
731.411442	2527.551359
731.742530	2528.988088
732.073570	2528.567152
732.404562	2529.144364
732.735506	2530.389529
733.066401	2530.364323
733.397249	2526.873324
733.728048	2528.118489
734.058798	2523.160514
734.389501	2520.292098
734.720156	2522.757222
735.050762	2517.675739
735.381320	2518.704134
735.711831	2516.591891
736.042293	2517.368229
736.372707	2516.014679
736.703073	2517.189268
737.033391	2515.508043
737.363661	2516.067611
737.693883	2517.693383
738.024056	2516.102899
738.354182	2515.853362
738.684260	2519.548528
739.014290	2519.246058
739.344272	2518.361336
739.674207	2520.818898
740.004093	2522.658920
740.333931	2520.352592
740.663722	2521.567510
740.993464	2521.829650
741.323159	2522.472397
741.652806	2521.194464
741.982405	2518.497447
742.311956	2520.017355
742.641460	2517.244720
742.970915	2517.113650
743.300323	2514.411592
743.629683	2513.143742
743.958996	2513.184071
744.288260	2509.098216
744.617477	2513.521828
744.946647	2508.972187
745.275768	2513.010151
745.604842	2510.572753
745.933869	2508.881446
746.262847	2512.301869
746.591778	2509.776251
746.920662	2508.931858
747.249498	2511.129801
747.578286	2511.109636
747.907027	2510.229955
748.235720	2512.437980
748.564365	2511.107116
748.892963	2510.116529
749.221514	2513.685666
749.550017	2511.175171
749.878473	2511.696931
750.206881	2510.381189
750.535242	2511.472599
750.863555	2509.892198
751.191821	2512.896725
751.520039	2510.524862
751.848210	2508.997393
752.176334	2509.801457
752.504411	2511.432270
752.832440	2509.088133
753.160421	2507.842968
753.488356	2510.275325
753.816243	2510.030829
754.144082	2509.486385
754.471875	2509.050325
754.799620	2507.951353
755.127318	2508.808349
755.454969	2506.454131
755.782572	2508.757938
756.110129	2509.040242
756.437638	2507.916065
756.765100	2505.829028
757.092515	2508.319358
757.419882	2508.964625
757.747203	2510.035870
758.074477	2508.836076
758.401703	2507.611075
758.728882	2509.153668
759.056014	2508.319358
759.383099	2509.067969
759.710138	2507.323730
760.037129	2504.782988
760.364073	2507.704337
760.690970	2506.086126
761.017820	2511.593587
761.344623	2510.605521
761.671379	2513.852024
761.998088	2513.758762
762.324751	2519.334279
762.651366	2527.659744
762.977935	2545.218083
763.304456	2554.861810
763.630931	2560.976730
763.957359	2557.931873
764.283740	2553.556152
764.610074	2545.470141
764.936362	2539.937474
765.262602	2528.327697
765.588796	2525.439116
765.914943	2518.283198
766.241044	2515.543331
766.567097	2514.275481
766.893104	2509.289780
767.219064	2509.171312
767.544978	2506.428925
767.870845	2504.730056
768.196665	2499.872904
768.522438	2502.748883
768.848165	2501.312154
769.173846	2503.671414
769.499479	2501.710405
769.825066	2499.827534
770.150607	2502.219561
770.476101	2499.094046
770.801548	2497.024652
771.126949	2498.284941
771.452303	2495.940804
771.777611	2493.828561
772.102872	2497.470794
772.428087	2494.395691
772.753256	2496.170177
773.078378	2498.252173
773.403453	2497.468274
773.728482	2495.459374
774.053465	2494.262100
774.378401	2496.092039
774.703291	2493.397542
775.028135	2492.011225
775.352932	2493.216061
775.677683	2492.850577
776.002388	2489.362098
776.327046	2489.077273
776.651658	2488.711790
776.976224	2487.590133
777.300743	2487.673312
777.625216	2489.644403
777.949643	2491.212202
778.274024	2491.416369
778.598359	2491.315546
778.922647	2487.431337
779.246889	2491.365957
779.571086	2489.137767
779.895236	2491.930566
780.219339	2491.328148
780.543397	2489.460401
780.867409	2492.759836
781.191374	2489.228508
781.515294	2492.018787
781.839167	2490.818992
782.162995	2492.263283
782.486776	2492.969044
782.810511	2491.557521
783.134201	2488.719351
783.457844	2493.425268
783.781441	2486.539052
784.104993	2491.865031
784.428498	2489.762870
784.751958	2490.652634
785.075372	2489.626759
785.398739	2489.107520
785.722061	2487.388487
786.045337	2489.629280
786.368568	2488.787407
786.691752	2488.368991
787.014891	2490.640031
787.337983	2493.095073
787.661030	2494.015083
787.984031	2496.220588
788.306987	2499.729231
788.629897	2500.092194
788.952760	2496.843171
789.275579	2498.526916
789.598351	2500.470281
789.921078	2495.030876
790.243759	2494.383088
790.566395	2496.487769
790.888984	2492.873262
791.211529	2492.603560
791.534027	2489.283961
791.856480	2489.770432
792.178888	2489.639362
792.501249	2486.987715
792.823566	2487.822026
793.145836	2484.358753
793.468062	2490.297233
793.790241	2486.687766
794.112375	2486.254227
794.434464	2489.500730
794.756507	2489.311687
795.078505	2488.711790
795.400457	2491.610453
795.722364	2495.172028
796.044226	2494.315032
796.366042	2494.718324
796.687812	2493.233705
797.009538	2495.847543
797.331218	2494.599857
797.652852	2494.982985
797.974442	2494.685557
798.295986	2493.536174
798.617484	2491.620535
798.938938	2492.540546
799.260346	2489.820843
799.581709	2492.051554
799.903026	2490.503920
800.224299	2490.443426
800.545526	2491.955772
800.866708	2489.805720
801.187845	2490.365288
801.508936	2490.108189
801.829983	2490.730772
802.150984	2490.458549
802.471940	2490.917294
802.792851	2488.174907
803.113717	2490.045175
803.434538	2488.719351
803.755314	2487.635503
804.076045	2489.553662
804.396731	2487.857314
804.717372	2489.326810
805.037967	2486.818836
805.358518	2487.915287
805.679024	2487.995946
805.999485	2488.840339
806.319901	2487.693477
806.640272	2489.435195
806.960598	2487.315390
807.280879	2488.487458
807.601115	2487.481748
807.921306	2493.543736
808.241453	2487.181799
808.561554	2483.773979
808.881611	2487.559886
809.201623	2484.857828
809.521590	2491.300422
809.841513	2488.731954
810.161390	2491.091214
810.481223	2487.355719
810.801011	2489.099958
811.120755	2486.712972
811.440453	2487.854793
811.760107	2485.513177
812.079716	2488.820174
812.399281	2488.069043
812.718801	2488.953765
813.038276	2487.043168
813.357707	2487.627942
813.677093	2485.624083
813.996434	2486.617190
814.315731	2487.222129
814.634983	2486.939824
814.954191	2484.585605
815.273354	2491.176914
815.592473	2489.742706
815.911547	2491.398725
816.230577	2487.980822
816.549562	2487.582571
816.868502	2490.135916
817.187399	2491.673468
817.506250	2492.197748
817.825058	2493.148005
818.143821	2492.782521
818.462539	2495.466936
818.781213	2494.471308
819.099843	2499.651093
819.418429	2504.800632
819.736970	2508.369769
820.055466	2515.568537
820.373919	2517.574916
820.692327	2530.056813
821.010691	2548.003321
821.329011	2583.775348
821.647286	2646.303300
821.965517	2722.686863
822.283704	2774.159564
822.601847	2804.514872
822.919945	2784.821605
823.237999	2757.375043
823.556010	2720.320041
823.873976	2685.278981
824.191897	2652.052736
824.509775	2625.566514
824.827609	2603.420725
825.145398	2581.438773
825.463144	2578.749318
825.780845	2575.623802
826.098502	2579.994483
826.416116	2597.391505
826.733685	2610.410285
827.051210	2618.912191
827.368692	2618.723147
827.686129	2601.759665
828.003522	2586.711820
828.320872	2562.226936
828.638177	2549.777807
828.955439	2537.673996
829.272656	2529.096473
829.589830	2521.081038
829.906960	2513.375635
830.224046	2507.250633
830.541088	2504.886332
830.858086	2502.645539
831.175041	2501.786022
831.491952	2496.263438
831.808819	2500.135044
832.125642	2500.041783
832.442421	2503.008502
832.759157	2511.946468
833.075849	2526.603622
833.392497	2538.956970
833.709101	2548.845193
834.025662	2552.663867
834.342179	2549.752601
834.658653	2540.277752
834.975083	2529.310722
835.291469	2522.563138
835.607811	2511.959071
835.924110	2510.058556
836.240366	2503.618482
836.556578	2498.025321
836.872746	2496.389467
837.188871	2494.481390
837.504952	2490.292191
837.820990	2491.401245
838.136984	2488.363950
838.452935	2489.077273
838.768842	2486.730616
839.084706	2487.733806
839.400526	2494.544405
839.716303	2496.586072
840.032037	2508.059738
840.347727	2505.720643
840.663373	2502.103615
840.978977	2496.180259
841.294537	2496.714621
841.610054	2490.972747
841.925527	2491.915443
842.240957	2486.334886
842.556344	2486.869248
842.871687	2482.243989
843.186987	2485.828250
843.502244	2482.233907
843.817458	2482.579226
844.132629	2478.218628
844.447756	2475.251909
844.762840	2477.971611
845.077881	2479.635192
845.392879	2476.703761
845.707833	2477.835500
846.022745	2477.001189
846.337613	2478.309369
846.652438	2475.952629
846.967221	2474.909110
847.281960	2477.928762
847.596656	2477.477578
847.911309	2474.871302
848.225919	2478.223669
848.540485	2473.916003
848.855009	2474.742752
849.169490	2474.626806
849.483928	2475.579584
849.798323	2474.100005
850.112675	2476.620582
850.426984	2473.253091
850.741251	2478.490850
851.055474	2471.861733
851.369654	2477.485140
851.683792	2471.466002
851.997887	2474.430201
852.311938	2473.361476
852.625947	2476.310551
852.939914	2474.901549
853.253837	2473.303503
853.567718	2474.664614
853.881555	2474.122690
854.195350	2472.340643
854.509103	2477.538072
854.822812	2473.570684
855.136479	2474.155458
855.450103	2471.554222
855.763685	2471.730663
856.077224	2470.863584
856.390720	2471.914665
856.704173	2470.868626
857.017584	2476.035808
857.330953	2473.570684
857.644278	2475.705613
857.957561	2479.002527
858.270802	2476.691158
858.584000	2477.684266
858.897155	2475.894656
859.210268	2474.838534
859.523339	2472.670838
859.836367	2476.197125
860.149352	2475.551858
860.462295	2473.424491
860.775195	2476.010602
861.088054	2472.222175
861.400869	2472.605303
861.713642	2473.888277
862.026373	2477.964050
862.339062	2474.198308
862.651708	2475.277115
862.964312	2474.470530
863.276873	2475.052783
863.589392	2477.591004
863.901869	2475.478761
864.214303	2474.639409
864.526696	2475.829121
864.839045	2475.758545
865.151353	2479.133597
865.463619	2475.990438
865.775842	2475.884574
866.088023	2475.259471
866.400162	2476.277784
866.712258	2476.098823
867.024313	2477.543113
867.336325	2476.106384
867.648296	2478.392548
867.960224	2474.730149
868.272110	2476.817187
868.583954	2478.947075
868.895755	2478.881540
869.207515	2476.839872
869.519233	2477.850624
869.830909	2480.726602
870.142542	2477.230562
870.454134	2477.318782
870.765684	2479.738536
871.077191	2478.785758
871.388657	2478.566467
871.700081	2474.941878
872.011463	2478.959677
872.322803	2476.587815
872.634101	2479.526807
872.945357	2480.532517
873.256571	2480.640902
873.567744	2483.834473
873.878874	2482.223825
874.189963	2478.679893
874.501010	2480.293063
874.812015	2482.455718
875.122979	2481.437405
875.433900	2482.622076
875.744780	2484.731799
876.055618	2480.396406
876.366415	2481.792806
876.677169	2482.339771
876.987882	2482.896819
877.298554	2484.515029
877.609183	2484.169710
877.919771	2487.801861
878.230317	2486.047540
878.540822	2489.364619
878.851285	2489.359578
879.161707	2495.534991
879.472087	2496.845691
879.782425	2506.068482
880.092722	2522.563138
880.402977	2543.360418
880.713191	2572.281517
881.023363	2606.402567
881.333494	2629.730507
881.643583	2641.922537
881.953631	2644.281797
882.263637	2638.156795
882.573602	2626.897378
882.883526	2612.671242
883.193408	2601.343769
883.503248	2590.621235
883.813048	2576.190932
884.122806	2566.305230
884.432522	2553.228477
884.742197	2542.742877
885.051831	2533.905734
885.361424	2524.501461
885.670975	2516.634741
885.980485	2511.754904
886.289954	2505.816425
886.599382	2504.205776
886.908768	2497.919457
887.218113	2492.507778
887.527417	2493.528612
887.836680	2488.671460
888.145901	2489.316728
888.455082	2487.630462
888.764221	2485.561068
889.073319	2487.252376
889.382376	2483.960502
889.691392	2485.583754
890.000366	2488.159783
890.309300	2483.030409
890.618193	2485.936634
890.927044	2483.446304
891.235855	2481.197950
891.544625	2483.116109
891.853353	2485.787920
892.162041	2487.564927
892.470687	2483.852117
892.779293	2487.643065
893.087858	2491.955772
893.396381	2494.788901
893.704864	2498.605054
894.013306	2512.253978
894.321707	2515.339164
894.630068	2524.566996
894.938387	2528.446164
895.246665	2528.708304
895.554903	2525.542460
895.863100	2521.658251
896.171256	2513.872188
896.479371	2512.216169
896.787446	2505.080416
897.095480	2503.263080
897.403473	2504.803153
897.711425	2498.728562
898.019336	2495.862666
898.327207	2491.592809
898.635038	2493.780670
898.942827	2489.679691
899.250576	2489.029382
899.558284	2488.994094
899.865952	2486.493682
900.173579	2484.676346
900.481165	2481.394555
900.788711	2483.532004
901.096216	2481.999493
901.403681	2481.850779
901.711105	2480.333392
902.018489	2482.359936
902.325832	2480.693834
902.633135	2480.013279
902.940397	2482.470841
903.247619	2486.622231
903.554800	2501.044972
903.861941	2515.729854
904.169041	2530.757533
904.476101	2540.645757
904.783121	2539.158616
905.090100	2536.428831
905.397039	2528.690660
905.703938	2521.083559
906.010796	2511.414626
906.317614	2510.134173
906.624391	2503.865498
906.931129	2499.819972
907.237826	2499.033552
907.544483	2496.013901
907.851099	2489.770432
908.157675	2489.263796
908.464211	2484.560399
908.770707	2483.199288
909.077163	2480.945892
909.383578	2481.268526
909.689954	2478.090078
909.996289	2476.638226
910.302584	2476.310551
910.608839	2476.610500
910.915054	2477.122177
911.221229	2475.667804
911.527363	2473.676548
911.833458	2477.822897
912.139513	2476.660911
912.445527	2477.008751
912.751502	2477.107053
913.057436	2480.424133
913.363331	2480.104019
913.669186	2479.788947
913.975000	2484.542755
914.280775	2486.854124
914.586510	2491.935608
914.892205	2498.678151
915.197859	2507.117042
915.503475	2518.174813
915.809050	2528.173942
916.114585	2535.604603
916.420081	2540.164326
916.725536	2537.880684
917.030952	2536.040663
917.336328	2531.896834
917.641665	2525.522295
917.946961	2520.806296
918.252218	2520.541635
918.557435	2511.523011
918.862612	2512.027126
919.167750	2509.677948
919.472848	2506.875067
919.777906	2501.060096
920.082925	2500.528254
920.387904	2494.050372
920.692843	2491.323107
920.997743	2487.431337
921.302603	2487.625421
921.607423	2482.213742
921.912204	2481.681901
922.216946	2481.129894
922.521647	2480.010758
922.826310	2479.093268
923.130932	2478.977322
923.435516	2475.264512
923.740059	2479.136118
924.044564	2473.991620
924.349028	2474.599079
924.653454	2473.885756
924.957840	2475.763586
925.262186	2473.059007
925.566493	2472.612865
925.870761	2473.764768
926.174989	2471.385344
926.479178	2473.116980
926.783328	2471.047587
927.087438	2470.402319
927.391509	2471.382823
927.695541	2469.585652
927.999533	2469.628502
928.303486	2471.148410
928.607400	2470.354428
928.911275	2470.803091
929.215110	2467.478450
929.518906	2470.193111
929.822663	2470.326702
930.126381	2469.058851
930.430060	2471.614716
930.733699	2466.243367
931.037299	2469.343677
931.340861	2470.636733
931.644383	2470.460292
931.947866	2467.712863
932.251309	2469.709160
932.554714	2470.697226
932.858080	2471.047587
933.161407	2465.850157
933.464694	2468.325363
933.767943	2463.470732
934.071153	2469.872998
934.374323	2465.865280
934.677455	2470.117494
934.980548	2468.272431
935.283602	2468.564818
935.586617	2465.920733
935.889593	2470.825776
936.192530	2469.802422
936.495428	2466.457616
936.798287	2466.865949
937.101108	2467.826289
937.403890	2469.777216
937.706632	2469.058851
938.009336	2470.820735
938.312002	2472.562453
938.614628	2470.430045
938.917216	2473.462299
939.219765	2472.706126
939.522275	2474.074799
939.824747	2473.817701
940.127179	2473.938688
940.429573	2474.349542
940.731929	2472.786785
941.034246	2474.798205
941.336524	2475.335088
941.638763	2472.683441
941.940964	2473.106898
942.243126	2473.323668
942.545250	2476.101343
942.847335	2471.851651
943.149381	2471.947432
943.451389	2472.310396
943.753359	2474.304172
944.055290	2471.402988
944.357182	2470.926599
944.659036	2470.422483
944.960851	2474.084882
945.262628	2467.917030
945.564367	2471.657566
945.866067	2469.084057
946.167729	2475.181333
946.469352	2471.045066
946.770937	2470.631691
947.072484	2468.272431
947.373992	2468.413584
947.675462	2468.080867
947.976893	2467.400312
948.278286	2466.074488
948.579641	2466.392081
948.880958	2466.203038
949.182236	2468.320322
949.483476	2468.698409
949.784678	2469.005919
950.085841	2468.557257
950.386967	2468.131279
950.688054	2470.508183
950.989103	2470.288893
951.290114	2469.746969
951.591087	2468.713532
951.892021	2470.901393
952.192917	2472.504480
952.493776	2467.987606
952.794596	2472.988431
953.095378	2470.672021
953.396122	2474.278966
953.696828	2467.259159
953.997496	2472.953143
954.298126	2469.999027
954.598718	2471.733183
954.899272	2471.027422
955.199788	2471.828965
955.500266	2469.815024
955.800706	2466.276134
956.101108	2467.516258
956.401472	2469.999027
956.701798	2469.313430
957.002087	2466.674386
957.302337	2469.293265
957.602550	2467.087760
957.902724	2467.869139
958.202861	2468.269911
958.502960	2464.763788
958.803022	2465.028449
959.103045	2463.949642
959.403031	2467.049952
959.702979	2463.765640
960.002889	2465.305712
960.302762	2464.884776
960.602596	2464.320167
960.902393	2465.618264
961.202153	2467.254118
961.501875	2466.258490
961.801559	2463.410238
962.101205	2463.871504
962.400814	2464.884776
962.700385	2463.765640
962.999918	2461.648355
963.299414	2461.391256
963.598873	2462.039045
963.898293	2457.940587
964.197677	2463.816051
964.497022	2462.593572
964.796331	2466.666824
965.095601	2464.690692
965.394835	2464.350414
965.694030	2464.045424
965.993189	2464.552060
966.292309	2461.240022
966.591393	2466.560960
966.890439	2462.454940
967.189447	2464.549539
967.488419	2462.003757
967.787353	2465.729169
968.086249	2464.209261
968.385108	2463.788325
968.683930	2462.729683
968.982714	2463.034673
969.281462	2464.743624
969.580172	2464.030300
969.878844	2464.922585
970.177480	2463.251442
970.476078	2465.731690
970.774639	2464.317646
971.073162	2463.243880
971.371649	2465.598099
971.670098	2464.874694
971.968510	2461.915536
972.266885	2466.621453
972.565223	2464.708336
972.863524	2465.436782
973.161788	2463.440485
973.460014	2464.604992
973.758204	2466.876032
974.056356	2461.988633
974.354471	2468.327884
974.652550	2463.140537
974.950591	2466.777729
975.248595	2465.976186
975.546563	2468.022894
975.844493	2467.128089
976.142386	2464.272276
976.440243	2463.402677
976.738062	2462.286061
977.035845	2465.343521
977.333590	2461.887810
977.631299	2464.426031
977.928971	2463.977368
978.226606	2460.705659
978.524204	2462.197841
978.821765	2459.704990
979.119290	2463.692543
979.416777	2466.134982
979.714228	2462.699436
980.011642	2464.703294
980.309020	2463.750516
980.606360	2463.238839
980.903664	2465.086422
981.200931	2463.662296
981.498162	2468.199335
981.795356	2468.700929
982.092513	2467.390229
982.389633	2469.487349
982.686717	2471.511373
982.983764	2471.705457
983.280775	2473.253091
983.577749	2473.207721
983.874686	2472.779223
984.171587	2472.461630
984.468451	2476.033288
984.765279	2472.345684
985.062070	2473.250571
985.358824	2468.418625
985.655543	2468.821917
985.952224	2467.594396
986.248869	2466.046762
986.545478	2465.525003
986.842050	2466.450054
987.138586	2467.382668
987.435086	2465.073819
987.731549	2463.064919
988.027975	2465.300671
988.324366	2462.028962
988.620719	2464.920064
988.917037	2465.318315
989.213318	2463.362347
989.509563	2464.352934
989.805772	2464.156329
990.101944	2462.459981
990.398080	2462.326390
990.694180	2461.282872
990.990244	2463.569035
991.286271	2462.517954
991.582262	2461.431586
991.878217	2462.021401
992.174136	2463.647173
992.470019	2461.413942
992.765865	2459.183231
993.061676	2460.541822
993.357450	2461.015690
993.653188	2457.885134
993.948890	2462.510392
994.244556	2463.306895
994.540186	2464.131123
994.835780	2462.402008
995.131337	2463.702625
995.426859	2464.118521
995.722345	2468.615230
996.017795	2466.976855
996.313208	2469.315950
996.608586	2468.607668
996.903928	2464.529375
997.199234	2469.893162
997.494504	2469.252936
997.789738	2469.409212
998.084936	2467.793522
998.380099	2467.060034
998.675225	2462.628860
998.970316	2466.563480
999.265371	2465.461988
999.560390	2465.356124
999.855373	2467.538943
1000.150320	2464.395784
1000.445232	2463.412759
1000.740108	2462.954014
1001.034948	2464.363017
1001.329752	2464.128603
1001.624521	2464.173973
1001.919254	2461.925619
1002.213951	2464.632718
1002.508613	2461.744137
1002.803239	2462.291102
1003.097829	2460.569548
1003.392384	2460.231791
1003.686903	2460.584672
1003.981386	2462.679271
1004.275834	2461.560135
1004.570246	2460.549384
1004.864623	2458.903447
1005.158964	2459.906637
1005.453270	2462.129785
1005.747540	2461.786987
1006.041775	2460.531740
1006.335974	2457.822119
1006.630138	2463.160701
1006.924266	2461.623149
1007.218359	2461.890331
1007.512416	2461.174487
1007.806438	2457.406224
1008.100425	2459.659620
1008.394376	2455.573765
1008.688292	2464.302523
1008.982172	2460.178859
1009.276017	2462.091977
1009.569827	2461.177007
1009.863602	2460.592233
1010.157341	2459.636935
1010.451045	2462.883438
1010.744714	2462.197841
1011.038347	2463.858901
1011.331945	2462.770012
1011.625508	2462.028962
1011.919036	2463.039714
1012.212528	2461.136678
1012.505986	2460.279682
1012.799408	2462.399487
1013.092795	2463.770681
1013.386147	2462.661627
1013.679464	2459.321863
1013.972745	2464.751185
1014.265992	2459.359671
1014.559204	2461.794549
1014.852380	2458.238015
1015.145521	2462.044086
1015.438628	2460.224229
1015.731699	2460.304888
1016.024736	2459.921760
1016.317737	2461.126596
1016.610703	2461.797069
1016.903635	2463.800928
1017.196531	2459.556276
1017.489393	2463.105249
1017.782219	2461.567697
1018.075011	2462.853191
1018.367768	2456.788683
1018.660490	2460.410752
1018.953177	2460.410752
1019.245829	2460.410752
