Dividing Wavelength (nm)	Counts (n)	Blue Motor Position (mm): 0.000000	Red Motor Position (mm): 5.500000	
326.493990	2055.356561
326.888308	2055.356561
327.282561	2055.356561
327.676750	2030.060051
328.070874	2030.385205
328.464933	2039.061031
328.858929	2044.709644
329.252859	2057.163815
329.646726	2067.422563
330.040528	2084.983422
330.434265	2103.582759
330.827938	2124.768208
331.221547	2144.025416
331.615091	2164.288334
332.008571	2184.490758
332.401986	2202.853161
332.795338	2223.355533
333.188625	2245.655078
333.581847	2262.926071
333.975006	2279.617331
334.368100	2300.039045
334.761129	2313.967753
335.154095	2332.062975
335.546996	2346.273988
335.939833	2358.339989
336.332606	2372.674510
336.725315	2384.768238
337.117960	2394.674106
337.510540	2406.283883
337.903056	2414.480799
338.295508	2421.014135
338.687896	2425.092428
339.080220	2431.842533
339.472480	2437.349994
339.864676	2440.104984
340.256807	2442.318051
340.648875	2442.902825
341.040879	2447.336519
341.432818	2447.041612
341.824694	2451.745008
342.216506	2448.969853
342.608253	2451.313990
342.999937	2446.587908
343.391557	2448.977415
343.783113	2445.824173
344.174605	2446.146807
344.566033	2439.883173
344.957397	2441.319902
345.348697	2439.429470
345.739934	2437.763368
346.131106	2438.320416
346.522215	2433.894283
346.913260	2435.144489
347.304241	2432.633994
347.695159	2429.952100
348.086012	2431.421597
348.476802	2425.641914
348.867528	2421.961872
349.258191	2419.479103
349.648789	2420.638569
350.039324	2418.382652
350.429796	2423.322983
350.820203	2421.528332
351.210548	2420.567992
351.600828	2419.622776
351.991045	2417.069432
352.381198	2418.397776
352.771288	2416.802251
353.161314	2418.070101
353.551276	2417.260996
353.941175	2416.555234
354.331010	2419.090934
354.720782	2417.545821
355.110490	2416.371232
355.500135	2416.671181
355.889717	2417.520615
356.279235	2419.637900
356.668689	2418.249062
357.058080	2420.953641
357.447408	2419.985739
357.836672	2423.141502
358.225873	2422.781059
358.615010	2420.787283
359.004084	2422.256779
359.393095	2422.695359
359.782043	2421.233425
360.170927	2421.488003
360.559748	2426.627459
360.948505	2423.617891
361.337199	2422.503796
361.725830	2426.355237
362.114398	2424.086718
362.502903	2424.492531
362.891344	2426.143509
363.279722	2426.763571
363.668037	2427.323139
364.056289	2426.836667
364.444478	2429.332038
364.832603	2427.476894
365.220665	2430.965372
365.608665	2426.806420
365.996601	2427.310536
366.384474	2431.774477
366.772284	2431.542584
367.160031	2429.684919
367.547715	2431.119128
367.935336	2430.289858
368.322893	2429.369847
368.710388	2427.696184
369.097820	2428.444795
369.485189	2424.976482
369.872495	2434.935281
370.259738	2432.502924
370.646918	2434.610127
371.034035	2434.138779
371.421090	2438.915272
371.808081	2434.020312
372.195010	2436.598862
372.581875	2436.069541
372.968678	2438.237237
373.355418	2437.697833
373.742096	2441.103133
374.128710	2444.122784
374.515262	2447.621345
374.901751	2448.778289
375.288177	2450.885492
375.674540	2453.857252
376.060841	2455.299022
376.447079	2461.315639
376.833254	2467.506176
377.219367	2468.506845
377.605417	2473.729480
377.991404	2475.264512
378.377329	2481.916314
378.763191	2486.896974
379.148991	2487.784217
379.534727	2497.790908
379.920402	2499.746875
380.306013	2507.283400
380.691563	2515.419823
381.077049	2520.806296
381.462474	2526.457429
381.847835	2531.042358
382.233134	2538.410005
382.618371	2546.032229
383.003545	2553.407438
383.388657	2558.488921
383.773706	2569.609706
384.158693	2574.214800
384.543618	2578.920717
384.928480	2587.528487
385.313280	2594.916298
385.698017	2601.558018
386.082692	2612.701489
386.467305	2614.579319
386.851856	2626.456277
387.236344	2634.204531
387.620770	2634.625467
388.005133	2639.230561
388.389435	2653.633138
388.773674	2651.621717
389.157851	2662.349293
389.541965	2666.283913
389.926018	2669.117042
390.310008	2675.708350
390.693936	2675.219358
391.077802	2679.776562
391.461606	2683.131449
391.845348	2680.638599
392.229027	2683.406192
392.612645	2687.814681
392.996200	2690.156297
393.379694	2692.714683
393.763125	2695.290712
394.146494	2687.678570
394.529801	2688.555731
394.913047	2688.737212
395.296230	2679.579957
395.679351	2672.706343
396.062410	2675.075686
396.445408	2658.916267
396.828343	2655.841163
397.211217	2649.481747
397.594028	2633.080353
397.976778	2630.930301
398.359466	2623.499641
398.742092	2611.821808
399.124656	2603.395519
399.507158	2601.837802
399.889598	2589.915474
400.271977	2585.285174
400.654294	2572.364697
401.036549	2569.400498
401.418742	2559.277861
401.800874	2556.618652
402.182944	2550.642365
402.564952	2546.455686
402.946898	2537.989068
403.328783	2527.795855
403.710606	2523.715041
404.092367	2520.869310
404.474067	2515.868485
404.855705	2509.642660
405.237282	2503.938595
405.618797	2499.696464
406.000250	2499.550270
406.381642	2496.225629
406.762972	2486.594505
407.144240	2480.333392
407.525447	2481.099647
407.906593	2476.355922
408.287677	2480.154431
408.668700	2473.222844
409.049661	2474.004223
409.430560	2471.957515
409.811399	2469.555405
410.192176	2466.825620
410.572891	2467.498614
410.953545	2465.530044
411.334138	2464.274796
411.714669	2465.794704
412.095139	2462.669189
412.475547	2464.947790
412.855894	2462.074333
413.236180	2459.722634
413.616405	2462.550722
413.996568	2461.136678
414.376670	2461.857563
414.756711	2461.343365
415.136691	2459.891513
415.516609	2461.136678
415.896466	2460.216668
416.276262	2459.246245
416.655997	2460.665330
417.035670	2461.729014
417.415283	2464.058027
417.794834	2461.242542
418.174324	2462.132306
418.553753	2461.166925
418.933121	2459.132819
419.312428	2460.584672
419.691674	2459.604167
420.070859	2461.706328
420.449983	2464.748665
420.829045	2458.961420
421.208047	2462.734724
421.586988	2459.757922
421.965867	2465.277986
422.344686	2461.197172
422.723444	2462.349076
423.102141	2459.546194
423.480777	2459.100052
423.859352	2463.052317
424.237866	2458.583334
424.616319	2460.531740
424.994712	2459.173149
425.373044	2461.343365
425.751314	2461.673561
426.129524	2455.301542
426.507673	2463.047275
426.885762	2456.849177
427.263789	2463.296813
427.641756	2462.830506
428.019662	2464.831844
428.397508	2464.708336
428.775292	2466.097173
429.153016	2463.367389
429.530679	2466.238326
429.908282	2463.939560
430.285824	2461.993674
430.663305	2464.418469
431.040726	2463.017028
431.418086	2462.160032
431.795385	2464.816720
432.172624	2461.330763
432.549802	2465.567852
432.926920	2463.828654
433.303977	2464.592389
433.680974	2464.940229
434.057910	2463.871504
434.434786	2464.972996
434.811601	2465.023408
435.188355	2464.902420
435.565050	2467.211268
435.941683	2464.620115
436.318257	2464.607513
436.694770	2465.703963
437.071222	2464.841926
437.447614	2462.454940
437.823946	2469.346197
438.200218	2466.394602
438.576429	2467.571711
438.952580	2466.792853
439.328670	2467.034828
439.704700	2466.535754
440.080670	2468.002730
440.456580	2468.726135
440.832429	2468.406022
441.208218	2467.296968
441.583947	2466.676906
441.959616	2468.327884
442.335224	2468.257308
442.710773	2468.771506
443.086261	2469.189921
443.461689	2468.640436
443.837057	2467.745631
444.212365	2468.406022
444.587612	2465.424179
444.962800	2466.097173
445.337927	2466.596248
445.712995	2462.018880
446.088002	2469.013481
446.462949	2468.905096
446.837837	2469.832668
447.212664	2469.346197
447.587431	2468.481639
447.962139	2471.624799
448.336786	2474.475571
448.711374	2471.297124
449.085901	2470.593883
449.460369	2471.934830
449.834776	2472.416260
450.209124	2471.120683
450.583412	2475.325006
450.957640	2471.670169
451.331808	2473.260653
451.705917	2472.675879
452.079965	2469.628502
452.453954	2471.891980
452.827883	2471.198821
453.201752	2472.721250
453.575562	2472.832155
453.949311	2471.367700
454.323001	2473.479943
454.696632	2471.153451
455.070202	2473.472382
455.443713	2475.201497
455.817164	2472.196970
456.190556	2472.320478
456.563888	2474.004223
456.937160	2475.153606
457.310373	2473.444655
457.683526	2473.825262
458.056619	2475.861888
458.429653	2476.837352
458.802628	2471.760910
459.175542	2475.105715
459.548398	2472.970787
459.921194	2475.163689
460.293930	2474.485653
460.666607	2474.886425
461.039224	2476.986066
461.411782	2477.684266
461.784280	2475.854327
462.156719	2476.867599
462.529099	2475.244347
462.901419	2475.372897
463.273680	2473.908441
463.645882	2470.692185
464.018024	2473.689151
464.390106	2470.752679
464.762130	2476.867599
465.134094	2478.309369
465.505999	2479.345326
465.877845	2482.821201
466.249631	2480.915645
466.621358	2483.065697
466.993026	2482.105357
467.364634	2488.081645
467.736184	2479.693165
468.107674	2478.200984
468.479105	2478.125367
468.850477	2480.358598
469.221790	2478.057311
469.593043	2479.831797
469.964238	2478.135449
470.335373	2474.765438
470.706449	2478.352218
471.077467	2480.325830
471.448425	2480.177116
471.819324	2481.906232
472.190164	2483.736171
472.560945	2478.674852
472.931667	2480.756849
473.302330	2481.525625
473.672934	2483.658033
474.043479	2481.180306
474.413965	2480.091417
474.784393	2478.594194
475.154761	2481.593680
475.525070	2480.199801
475.895321	2480.570326
476.265513	2480.618217
476.635645	2478.715182
477.005719	2480.968577
477.375734	2477.623772
477.745691	2480.154431
478.115588	2479.536890
478.485427	2482.400265
478.855207	2483.290029
479.224928	2486.102993
479.594591	2484.817498
479.964194	2481.225676
480.333739	2484.515029
480.703226	2484.003352
481.072653	2484.174751
481.442022	2483.093424
481.811333	2482.513691
482.180584	2483.665595
482.549777	2482.170893
482.918912	2478.979842
483.287988	2483.025368
483.657005	2484.706593
484.025964	2484.457056
484.394864	2482.483444
484.763706	2484.656181
485.132489	2482.284318
485.501213	2482.692652
485.869879	2482.473362
486.238487	2486.891933
486.607036	2482.165851
486.975527	2484.078969
487.343959	2484.550317
487.712333	2485.679536
488.080648	2482.685090
488.448905	2483.902529
488.817104	2484.262971
489.185244	2484.714155
489.553326	2482.954792
489.921350	2484.701552
490.289315	2486.271871
490.657222	2488.217757
491.025070	2486.196254
491.392861	2486.639875
491.760593	2487.108703
492.128267	2485.941676
492.495883	2485.291367
492.863440	2486.665081
493.230939	2484.900677
493.598380	2485.528301
493.965763	2485.072077
494.333088	2486.539052
494.700354	2485.321614
495.067563	2484.570482
495.434713	2484.948568
495.801805	2485.419916
496.168839	2485.538383
496.535815	2484.721716
496.902733	2484.089052
497.269593	2484.469659
497.636395	2487.249855
498.003139	2482.985039
498.369825	2484.583085
498.736453	2484.230204
499.103023	2483.718527
499.469535	2483.816829
499.835989	2484.784731
500.202385	2482.100316
500.568723	2480.537559
500.935003	2482.415388
501.301226	2479.846921
501.667390	2486.352530
502.033497	2485.112406
502.399546	2484.986377
502.765537	2484.361274
503.131470	2484.993939
503.497345	2483.068218
503.863163	2485.760194
504.228923	2484.744402
504.594625	2484.492344
504.960269	2482.722899
505.325856	2486.604587
505.691385	2482.382621
506.056856	2484.668784
506.422270	2483.249699
506.787625	2484.663743
507.152924	2483.547128
507.518164	2481.593680
507.883347	2484.774648
508.248472	2483.776500
508.613540	2486.077787
508.978550	2487.829588
509.343503	2486.176089
509.708398	2485.321614
510.073236	2488.101810
510.438016	2483.632827
510.802738	2484.991418
511.167403	2485.417396
511.532010	2485.876141
511.896561	2485.689618
512.261053	2483.375728
512.625488	2486.324803
512.989866	2484.867910
513.354186	2485.006542
513.718449	2486.309680
514.082655	2484.880513
514.446803	2488.255565
514.810894	2486.007211
515.174927	2488.346306
515.538904	2486.022334
515.902822	2486.534011
516.266684	2485.331696
516.630488	2486.118116
516.994235	2487.310349
517.357925	2485.319093
517.721558	2487.275061
518.085133	2485.309011
518.448651	2483.320276
518.812112	2483.617704
519.175516	2483.950420
519.538863	2479.723412
519.902152	2487.035606
520.265385	2485.556027
520.628560	2485.556027
520.991678	2485.818167
521.354739	2487.025524
521.717743	2488.439567
522.080690	2488.275730
522.443580	2487.297746
522.806413	2486.216418
523.169189	2484.444453
523.531908	2485.858497
523.894569	2487.736326
524.257174	2486.554176
524.619722	2484.663743
524.982213	2486.881851
525.344647	2485.916470
525.707025	2486.959989
526.069345	2486.226501
526.431608	2485.911429
526.793815	2486.753301
527.155964	2487.101141
527.518057	2486.269351
527.880093	2488.742037
528.242072	2487.262458
528.603995	2484.315903
528.965860	2488.280771
529.327669	2484.479741
529.689421	2485.707262
530.051117	2487.544762
530.412755	2485.092241
530.774337	2486.725575
531.135862	2487.708600
531.497331	2486.985194
531.858743	2487.050729
532.220098	2488.432006
532.581396	2489.412510
532.942638	2486.672643
533.303824	2487.176758
533.664953	2487.827067
534.026025	2486.907057
534.387040	2485.349340
534.747999	2487.300267
535.108902	2486.501244
535.469748	2488.535349
535.830537	2487.549804
536.191270	2486.473517
536.551947	2483.980667
536.912567	2482.780872
537.273131	2482.274236
537.633638	2483.312714
537.994089	2485.087200
538.354483	2488.376553
538.714821	2486.665081
539.075103	2487.065853
539.435328	2487.811944
539.795497	2486.082828
540.155609	2490.125833
540.515665	2484.353712
540.875665	2487.673312
541.235609	2486.171048
541.595496	2486.269351
541.955328	2487.333034
542.315102	2486.652478
542.674821	2488.648775
543.034483	2489.324290
543.394090	2488.036275
543.753640	2488.628611
544.113134	2486.627272
544.472571	2486.995277
544.831953	2488.616008
545.191278	2487.920328
545.550548	2487.343116
545.909761	2489.036944
546.268918	2488.361429
546.628019	2487.622900
546.987064	2485.240955
547.346053	2490.960144
547.704986	2485.316573
548.063863	2487.738847
548.422684	2486.670122
548.781449	2489.283961
549.140158	2486.733137
549.498811	2488.716831
549.857408	2486.460914
550.215949	2486.924701
550.574434	2487.189361
550.932864	2485.314052
551.291237	2487.685915
551.649555	2486.312200
552.007817	2488.636172
552.366022	2484.207519
552.724173	2488.946203
553.082267	2486.415544
553.440305	2488.847901
553.798288	2487.499392
554.156215	2488.366471
554.514086	2484.111737
554.871902	2483.423619
555.229661	2482.972436
555.587365	2480.340954
555.945014	2488.058960
556.302606	2487.239773
556.660143	2487.592653
557.017625	2488.089207
557.375050	2486.115595
557.732421	2487.315390
558.089735	2488.429485
558.446994	2484.124340
558.804197	2490.009887
559.161345	2487.214567
559.518437	2486.775987
559.875474	2489.911584
560.232455	2489.578868
560.589381	2489.052067
560.946251	2487.242293
561.303065	2486.012252
561.659825	2488.681543
562.016528	2486.947386
562.373177	2485.240955
562.729770	2490.977788
563.086307	2488.636172
563.442789	2486.856645
563.799216	2486.481079
564.155587	2488.689104
564.511904	2488.376553
564.868164	2487.128867
565.224370	2488.278250
565.580520	2488.933600
565.936615	2488.477376
566.292654	2488.822695
566.648638	2487.398569
567.004567	2486.614670
567.360441	2486.549135
567.716260	2489.687253
568.072023	2489.341934
568.427732	2488.638693
568.783385	2489.278919
569.138982	2488.265648
569.494525	2488.527788
569.850013	2489.152891
570.205445	2487.592653
570.560823	2486.581902
570.916145	2488.051398
571.271412	2489.949393
571.626625	2487.668271
571.981782	2489.823364
572.336884	2485.634165
572.691931	2483.804226
573.046923	2487.136429
573.401860	2482.811119
573.756743	2488.311018
574.111570	2488.736995
574.466342	2487.736326
574.821059	2489.435195
575.175722	2485.475369
575.530330	2489.619197
575.884882	2486.050060
576.239380	2487.917808
576.593823	2489.503251
576.948211	2484.842704
577.302544	2487.713641
577.656823	2486.372694
578.011047	2489.001656
578.365216	2487.471666
578.719330	2486.975112
579.073389	2487.101141
579.427394	2485.855976
579.781344	2488.749598
580.135239	2488.338744
580.489080	2488.018631
580.842866	2488.081645
581.196597	2493.223622
581.550273	2489.145329
581.903895	2488.074084
582.257463	2488.384115
582.610975	2485.762715
582.964434	2485.379587
583.317837	2488.845380
583.671186	2486.163486
584.024481	2485.099803
584.377721	2486.957468
584.730906	2486.788589
585.084037	2489.707417
585.437113	2486.140801
585.790135	2487.854793
586.143103	2485.324134
586.496016	2487.887561
586.848874	2485.984525
587.201679	2484.908239
587.554428	2488.580720
587.907124	2486.798672
588.259765	2486.685246
588.612352	2489.994763
588.964884	2485.707262
589.317362	2486.894454
589.669786	2488.618528
590.022155	2484.729278
590.374470	2481.190388
590.726731	2483.063177
591.078937	2482.498568
591.431090	2484.489823
591.783188	2487.146511
592.135232	2487.766573
592.487222	2486.206336
592.839157	2485.611480
593.191038	2486.836480
593.542866	2485.422437
593.894639	2486.808754
594.246358	2486.329844
594.598022	2485.550986
594.949633	2489.016779
595.301190	2488.079125
595.652692	2486.904536
596.004141	2486.697849
596.355535	2485.432519
596.706876	2486.874289
597.058162	2485.800523
597.409395	2487.118785
597.760573	2486.302118
598.111698	2486.445791
598.462768	2486.937303
598.813785	2486.546614
599.164748	2485.170379
599.515657	2485.530822
599.866511	2486.912098
600.217312	2488.961327
600.568060	2485.109885
600.918753	2489.137767
601.269392	2488.336224
601.619978	2487.912767
601.970510	2485.750112
602.320988	2487.343116
602.671412	2485.238435
603.021783	2486.781028
603.372100	2484.061325
603.722363	2489.286481
604.072572	2483.731130
604.422728	2486.206336
604.772830	2485.460245
605.122878	2486.102993
605.472872	2486.249186
605.822813	2487.638024
606.172701	2487.068373
606.522534	2487.176758
606.872314	2486.685246
607.222041	2485.283805
607.571714	2484.827581
607.921333	2482.067549
608.270899	2485.563589
608.620411	2484.404124
608.969870	2488.127016
609.319276	2485.394710
609.668627	2487.617859
610.017926	2487.738847
610.367171	2485.281284
610.716362	2487.791779
611.065500	2485.964361
611.414585	2485.475369
611.763616	2484.900677
612.112594	2483.093424
612.461518	2485.939155
612.810389	2486.551655
613.159207	2485.059474
613.507971	2485.974443
613.856682	2485.119967
614.205340	2486.523929
614.553945	2486.952427
614.902496	2487.496872
615.250994	2484.578043
615.599439	2485.364463
615.947830	2486.264309
616.296169	2486.811275
616.644454	2484.482262
616.992686	2487.307828
617.340864	2485.361943
617.688990	2483.771459
618.037063	2484.893116
618.385082	2486.501244
618.733048	2486.362612
619.080961	2485.583754
619.428821	2485.513178
619.776628	2486.627272
620.124382	2488.495020
620.472083	2485.200626
620.819731	2485.732468
621.167326	2483.015286
621.514868	2487.305308
621.862357	2486.702890
622.209793	2486.962509
622.557176	2485.377066
622.904506	2483.317755
623.251783	2482.823722
623.599007	2485.140132
623.946179	2483.348002
624.293297	2486.886892
624.640363	2486.770945
624.987376	2483.622745
625.334336	2480.645943
625.681243	2483.665595
626.028097	2479.214256
626.374899	2487.164155
626.721647	2484.406644
627.068343	2482.692652
627.414987	2484.963692
627.761577	2484.847745
628.108115	2484.220122
628.454600	2485.114926
628.801032	2483.509319
629.147412	2485.024186
629.493739	2486.410503
629.840014	2484.018475
630.186236	2485.155256
630.532405	2484.948568
630.878521	2484.507467
631.224585	2484.507467
631.570597	2486.407982
631.916556	2483.549648
632.262462	2481.439925
632.608316	2487.091059
632.954117	2480.928248
633.299866	2485.737509
633.645562	2484.938486
633.991206	2484.275574
634.336797	2481.371870
634.682336	2482.455718
635.027823	2482.281798
635.373257	2481.843217
635.718639	2484.996459
636.063968	2486.463435
636.409245	2483.859679
636.754470	2483.229535
637.099642	2483.650471
637.444762	2481.961685
637.789829	2479.642754
638.134845	2481.634010
638.479808	2481.795327
638.824719	2481.752477
639.169577	2481.767600
639.514383	2484.159628
639.859137	2482.564103
640.203839	2482.347333
640.548489	2486.876810
640.893086	2481.828094
641.237632	2481.129894
641.582125	2482.395224
641.926566	2482.057467
642.270955	2479.902373
642.615292	2477.956488
642.959576	2479.912456
643.303809	2478.770634
643.647990	2481.303814
643.992118	2480.600573
644.336195	2483.915132
644.680219	2481.326499
645.024192	2485.704741
645.368112	2480.870275
645.711981	2482.990080
646.055797	2482.017137
646.399562	2484.812457
646.743274	2483.148876
647.086935	2483.922693
647.430544	2483.201808
647.774101	2482.939668
648.117606	2482.299442
648.461059	2483.327837
648.804460	2484.898157
649.147810	2483.927735
649.491108	2485.351861
649.834354	2483.627786
650.177548	2482.669967
650.520690	2482.175934
650.863781	2483.229535
651.206820	2481.039153
651.549807	2482.675008
651.892742	2480.310707
652.235626	2484.187354
652.578458	2482.458238
652.921238	2481.044195
653.263967	2482.183495
653.606644	2482.271716
653.949269	2479.995635
654.291843	2481.485296
654.634365	2481.523104
654.976836	2479.700727
655.319255	2480.749287
655.661622	2478.584112
656.003938	2481.724750
656.346203	2482.175934
656.688416	2482.884216
657.030577	2480.078814
657.372687	2483.584936
657.714746	2482.690131
658.056753	2480.101499
658.398708	2480.232569
658.740612	2483.254741
659.082465	2483.524442
659.424266	2477.243165
659.766016	2478.102681
660.107715	2480.277939
660.449362	2477.149903
660.790958	2481.828094
661.132503	2483.085862
661.473996	2480.020840
661.815438	2480.698876
662.156829	2480.850110
662.498168	2479.569657
662.839456	2481.835656
663.180693	2481.145018
663.521879	2478.626961
663.863013	2480.277939
664.204097	2482.576705
664.545129	2479.226859
664.886110	2483.229535
665.227040	2480.880357
665.567918	2482.705255
665.908746	2480.434215
666.249522	2479.546972
666.590248	2479.693165
666.930922	2481.472693
667.271545	2480.378762
667.612118	2482.571664
667.952639	2482.029740
668.293109	2479.325161
668.633528	2479.254585
668.973896	2480.865234
669.314213	2480.540079
669.654480	2479.554534
669.994695	2480.850110
670.334859	2482.554020
670.674973	2482.125522
671.015035	2479.920017
671.355047	2478.735346
671.695008	2483.156438
672.034918	2479.582260
672.374777	2481.616366
672.714585	2480.759369
673.054342	2479.340285
673.394049	2479.947744
673.733705	2480.295583
674.073310	2484.167189
674.412864	2479.667960
674.752368	2480.787096
675.091820	2480.676190
675.431223	2482.609473
675.770574	2482.349853
676.109875	2480.524956
676.449125	2477.933803
676.788324	2474.838534
677.127473	2479.433546
677.466571	2472.761579
677.805619	2478.632002
678.144616	2479.471355
678.483562	2481.797847
678.822458	2480.955974
679.161303	2480.330871
679.500098	2481.477734
679.838842	2481.500419
680.177535	2480.169554
680.516179	2480.701396
680.854771	2480.756849
681.193314	2480.782055
681.531805	2480.461941
681.870247	2481.495378
682.208638	2479.181488
682.546978	2481.878506
682.885268	2479.549492
683.223508	2483.111068
683.561697	2476.824749
683.899836	2479.302476
684.237925	2480.666108
684.575963	2479.110912
684.913951	2478.639564
685.251889	2478.626961
685.589776	2476.943216
685.927614	2481.389514
686.265401	2479.536890
686.603137	2478.616879
686.940824	2480.608135
687.278460	2484.537714
687.616046	2480.202322
687.953582	2476.683597
688.291068	2481.606283
688.628504	2480.547641
688.965889	2483.506798
689.303224	2479.499081
689.640510	2480.759369
689.977745	2478.715182
690.314930	2481.865903
690.652065	2482.085193
690.989150	2482.866572
691.326185	2478.584112
691.663170	2479.325161
692.000105	2478.334574
692.336990	2480.593011
692.673825	2480.739205
693.010610	2477.979173
693.347345	2477.618731
693.684030	2474.765437
694.020665	2476.411374
694.357251	2471.435755
694.693786	2481.457569
695.030272	2479.045377
695.366707	2477.633854
695.703093	2480.406489
696.039429	2476.393730
696.375716	2479.579739
696.711952	2479.184009
697.048139	2477.888432
697.384276	2478.198463
697.720363	2478.495891
698.056400	2477.943885
698.392388	2478.586632
698.728326	2478.523618
699.064214	2477.805253
699.400053	2477.127218
699.735842	2480.925728
700.071581	2480.502271
700.407270	2475.783751
700.742910	2477.908597
701.078501	2478.805922
701.414042	2475.549337
701.749533	2476.509677
702.084974	2477.270891
702.420366	2477.628813
702.755709	2478.415233
703.091002	2477.452372
703.426246	2476.557568
703.761440	2478.130408
704.096584	2477.038998
704.431679	2476.045891
704.766725	2474.803246
705.101721	2478.460603
705.436668	2477.616210
705.771565	2475.372897
706.106413	2475.713174
706.441212	2479.196612
706.775961	2477.205356
707.110661	2478.939513
707.445311	2476.728967
707.779913	2480.345995
708.114465	2476.706282
708.448967	2479.741056
708.783421	2478.405151
709.117825	2476.963381
709.452180	2476.580253
709.786485	2478.581591
710.120742	2475.776189
710.454949	2473.462299
710.789107	2478.027064
711.123216	2470.540951
711.457275	2479.189050
711.791286	2480.598053
712.125247	2476.108905
712.459159	2477.777527
712.793023	2476.292907
713.126837	2478.024543
713.460602	2478.735346
713.794318	2479.146200
714.127985	2480.824904
714.461602	2478.644605
714.795171	2477.391879
715.128691	2476.376086
715.462162	2475.927423
715.795584	2476.076138
716.128957	2477.827938
716.462281	2476.981025
716.795556	2474.546147
717.128782	2478.090078
717.461960	2476.620582
717.795088	2475.345170
718.128167	2475.720736
718.461198	2475.834162
718.794180	2478.448000
719.127113	2476.718885
719.459997	2475.869450
719.792833	2478.251395
720.125619	2477.364152
720.458357	2478.392548
720.791046	2477.278453
721.123686	2475.529172
721.456278	2475.350211
721.788821	2477.762403
722.121315	2477.343988
722.453761	2473.732001
722.786158	2473.462299
723.118506	2477.832980
723.450805	2476.562609
723.783056	2476.184522
724.115259	2475.748462
724.447412	2477.742239
724.779518	2476.560088
725.111574	2475.088071
725.443582	2475.544296
725.775542	2477.838021
726.107453	2480.351036
726.439315	2477.001189
726.771129	2478.079996
727.102895	2473.845427
727.434612	2473.048925
727.766281	2473.636219
728.097901	2475.902218
728.429473	2476.073617
728.760996	2476.560088
729.092471	2475.902218
729.423897	2475.382979
729.755276	2475.529172
730.086606	2476.118987
730.417887	2476.668473
730.749120	2477.921200
731.080305	2476.708802
731.411442	2476.741570
731.742530	2475.478761
732.073570	2477.966570
732.404562	2476.809625
732.735506	2476.416415
733.066401	2476.262660
733.397249	2477.863227
733.728048	2476.935654
734.058798	2476.033288
734.389501	2477.689307
734.720156	2476.552527
735.050762	2475.244347
735.381320	2472.847278
735.711831	2476.376086
736.042293	2476.723926
736.372707	2478.720223
736.703073	2476.955819
737.033391	2475.687969
737.363661	2474.480612
737.693883	2472.615385
738.024056	2476.640747
738.354182	2475.695530
738.684260	2476.323154
739.014290	2476.842393
739.344272	2475.708133
739.674207	2478.319451
740.004093	2476.149234
740.333931	2475.851806
740.663722	2476.008082
740.993464	2478.568988
741.323159	2477.462455
741.652806	2476.066055
741.982405	2475.811477
742.311956	2473.111939
742.641460	2475.970273
742.970915	2476.451703
743.300323	2474.044552
743.629683	2473.018678
743.958996	2474.737711
744.288260	2470.717391
744.617477	2476.774337
744.946647	2475.614872
745.275768	2477.056642
745.604842	2474.107567
745.933869	2475.738380
746.262847	2477.086889
746.591778	2474.921713
746.920662	2477.570840
747.249498	2477.149903
747.578286	2474.538586
747.907027	2474.841055
748.235720	2475.771148
748.564365	2472.743935
748.892963	2472.759058
749.221514	2474.662094
749.550017	2475.917341
749.878473	2473.976497
750.206881	2476.567650
750.535242	2477.107053
750.863555	2473.701754
751.191821	2476.456745
751.520039	2474.233596
751.848210	2472.585138
752.176334	2472.620427
752.504411	2473.172433
752.832440	2473.754686
753.160421	2475.753504
753.488356	2472.640591
753.816243	2475.012454
754.144082	2472.481795
754.471875	2473.016157
754.799620	2474.112608
755.127318	2473.585807
755.454969	2476.509677
755.782572	2473.810139
756.110129	2473.124542
756.437638	2474.767958
756.765100	2475.037660
757.092515	2474.231075
757.419882	2475.851806
757.747203	2475.261991
758.074477	2475.118318
758.401703	2476.602938
758.728882	2475.120839
759.056014	2476.091261
759.383099	2474.541106
759.710138	2473.913483
760.037129	2469.066413
760.364073	2473.409367
760.690970	2467.995168
761.017820	2475.471199
761.344623	2474.132773
761.671379	2473.832824
761.998088	2474.266363
762.324751	2469.530199
762.651366	2475.357773
762.977935	2477.454893
763.304456	2477.472537
763.630931	2477.946406
763.957359	2476.035808
764.283740	2478.072434
764.610074	2476.683597
764.936362	2475.990438
765.262602	2474.505818
765.588796	2476.648308
765.914943	2475.020016
766.241044	2472.438945
766.567097	2472.837196
766.893104	2474.740232
767.219064	2476.277784
767.544978	2476.020685
767.870845	2474.672176
768.196665	2472.592700
768.522438	2475.713174
768.848165	2472.292752
769.173846	2472.857361
769.499479	2472.232258
769.825066	2473.898359
770.150607	2474.397433
770.476101	2474.089923
770.801548	2472.577577
771.126949	2472.552371
771.452303	2474.717547
771.777611	2475.622434
772.102872	2474.591518
772.428087	2470.934161
772.753256	2476.431539
773.078378	2470.384675
773.403453	2472.035653
773.728482	2476.164358
774.053465	2472.602782
774.378401	2472.386013
774.703291	2471.357617
775.028135	2475.274594
775.352932	2472.207052
775.677683	2473.295941
776.002388	2470.871146
776.327046	2468.085909
776.651658	2468.973152
776.976224	2467.813686
777.300743	2472.214614
777.625216	2471.776033
777.949643	2474.944398
778.274024	2472.902731
778.598359	2472.612865
778.922647	2470.165385
779.246889	2473.132104
779.571086	2473.540437
779.895236	2474.936837
780.219339	2474.513380
780.543397	2472.633029
780.867409	2475.468678
781.191374	2472.620427
781.515294	2472.784264
781.839167	2474.150417
782.162995	2474.893987
782.486776	2472.703606
782.810511	2471.523976
783.134201	2474.972125
783.457844	2471.251753
783.781441	2475.047742
784.104993	2472.154120
784.428498	2472.922896
784.751958	2472.771661
785.075372	2472.028091
785.398739	2474.800726
785.722061	2471.370220
786.045337	2475.110757
786.368568	2474.533544
786.691752	2472.005406
787.014891	2473.600931
787.337983	2472.000365
787.661030	2474.268884
787.984031	2472.607824
788.306987	2473.938688
788.629897	2473.956332
788.952760	2473.863071
789.275579	2474.979687
789.598351	2473.386682
789.921078	2474.047073
790.243759	2469.502473
790.566395	2471.970118
790.888984	2472.262505
791.211529	2471.279480
791.534027	2474.029429
791.856480	2470.540951
792.178888	2473.462299
792.501249	2468.257308
792.823566	2470.931640
793.145836	2467.269242
793.468062	2472.877525
793.790241	2472.217134
794.112375	2470.848461
794.434464	2470.576239
794.756507	2473.910962
795.078505	2472.257463
795.400457	2474.457927
795.722364	2472.282669
796.044226	2474.732670
796.366042	2470.248564
796.687812	2473.205200
797.009538	2472.970787
797.331218	2472.517083
797.652852	2471.193780
797.974442	2473.547999
798.295986	2471.846609
798.617484	2470.293934
798.938938	2471.382823
799.260346	2469.999027
799.581709	2471.995323
799.903026	2472.103708
800.224299	2472.043214
800.545526	2472.471712
800.866708	2474.465489
801.187845	2473.835345
801.508936	2472.265025
801.829983	2473.225365
802.150984	2470.409881
802.471940	2473.280818
802.792851	2471.738225
803.113717	2472.030612
803.434538	2469.131948
803.755314	2472.806949
804.076045	2471.065231
804.396731	2474.702423
804.717372	2469.641105
805.037967	2469.830148
805.358518	2470.533389
805.679024	2470.878708
805.999485	2472.244861
806.319901	2470.787967
806.640272	2474.473051
806.960598	2473.573205
807.280879	2474.437762
807.601115	2471.529017
807.921306	2469.376444
808.241453	2472.375931
808.561554	2469.711681
808.881611	2468.728656
809.201623	2466.155147
809.521590	2468.332925
809.841513	2472.222175
810.161390	2472.426342
810.481223	2472.282669
810.801011	2473.270735
811.120755	2473.076651
811.440453	2473.734522
811.760107	2470.336784
812.079716	2475.957670
812.399281	2471.965077
812.718801	2471.720581
813.038276	2471.909624
813.357707	2473.933647
813.677093	2472.575056
813.996434	2471.176136
814.315731	2470.089767
814.634983	2473.921044
814.954191	2471.886939
815.273354	2469.701598
815.592473	2470.530868
815.911547	2472.098667
816.230577	2472.212093
816.549562	2469.406691
816.868502	2472.338122
817.187399	2470.619088
817.506250	2472.612865
817.825058	2472.161682
818.143821	2472.272587
818.462539	2472.388533
818.781213	2470.442648
819.099843	2470.314099
819.418429	2471.612196
819.736970	2472.910293
820.055466	2472.549850
820.373919	2471.418111
820.692327	2471.907103
821.010691	2477.386838
821.329011	2477.331385
821.647286	2480.892960
821.965517	2484.038640
822.283704	2486.216418
822.601847	2491.376039
822.919945	2487.259937
823.237999	2484.618373
823.556010	2484.578043
823.873976	2482.523773
824.191897	2477.994297
824.509775	2473.684110
824.827609	2475.937506
825.145398	2470.936681
825.463144	2476.247537
825.780845	2474.097485
826.098502	2477.069245
826.416116	2476.068576
826.733685	2479.171406
827.051210	2478.395068
827.368692	2478.208546
827.686129	2478.720223
828.003522	2478.531179
828.320872	2473.820221
828.638177	2475.314923
828.955439	2471.584469
829.272656	2472.209572
829.589830	2472.118832
829.906960	2471.022381
830.224046	2470.427525
830.541088	2470.218317
830.858086	2471.065231
831.175041	2473.497587
831.491952	2471.057669
831.808819	2472.174284
832.125642	2471.082875
832.442421	2470.803091
832.759157	2472.096147
833.075849	2471.619757
833.392497	2475.551857
833.709101	2472.209572
834.025662	2473.815180
834.342179	2476.519759
834.658653	2471.529017
834.975083	2470.619088
835.291469	2474.321816
835.607811	2470.999696
835.924110	2472.958184
836.240366	2470.404839
836.556578	2473.074130
836.872746	2473.661425
837.188871	2472.088585
837.504952	2468.920220
837.820990	2472.275107
838.136984	2473.447176
838.452935	2469.043728
838.768842	2470.276290
839.084706	2470.548512
839.400526	2474.014306
839.716303	2472.617906
840.032037	2471.387864
840.347727	2467.105404
840.663373	2468.418625
840.978977	2466.165229
841.294537	2470.593883
841.610054	2470.871146
841.925527	2471.526496
842.240957	2467.715384
842.556344	2470.926599
842.871687	2471.687813
843.186987	2471.032463
843.502244	2467.934674
843.817458	2472.411219
844.132629	2470.150261
844.447756	2470.155302
844.762840	2470.165385
845.077881	2470.823255
845.392879	2473.515231
845.707833	2469.517596
846.022745	2471.854171
846.337613	2468.577421
846.652438	2470.944243
846.967221	2469.174798
847.281960	2472.703606
847.596656	2467.644808
847.911309	2469.903245
848.225919	2469.731845
848.540485	2472.083544
848.855009	2467.793522
849.169490	2470.729994
849.483928	2470.125055
849.798323	2468.975672
850.112675	2472.141517
850.426984	2471.024901
850.741251	2470.989613
851.055474	2467.377627
851.369654	2470.329222
851.683792	2468.090950
851.997887	2469.663790
852.311938	2468.010291
852.625947	2470.203193
852.939914	2469.754531
853.253837	2473.515231
853.567718	2469.782257
853.881555	2467.682616
854.195350	2468.479119
854.509103	2470.787967
854.822812	2467.722946
855.136479	2472.557412
855.450103	2470.399798
855.763685	2469.371403
856.077224	2468.007771
856.390720	2464.501648
856.704173	2465.605661
857.017584	2471.163533
857.330953	2468.741259
857.644278	2471.539099
857.957561	2472.620427
858.270802	2468.007771
858.584000	2468.390898
858.897155	2469.477267
859.210268	2469.595734
859.523339	2470.755200
859.836367	2470.714870
860.149352	2468.784108
860.462295	2469.346197
860.775195	2471.229068
861.088054	2470.241002
861.400869	2472.244861
861.713642	2471.773513
862.026373	2472.353245
862.339062	2471.980200
862.651708	2470.588842
862.964312	2469.643625
863.276873	2468.874849
863.589392	2471.334932
863.901869	2469.802422
864.214303	2469.268059
864.526696	2471.576908
864.839045	2467.644808
865.151353	2469.139510
865.463619	2467.667493
865.775842	2468.806794
866.088023	2470.210755
866.400162	2470.770323
866.712258	2471.352576
867.024313	2469.263018
867.336325	2470.626650
867.648296	2469.000878
867.960224	2467.589355
868.272110	2469.827627
868.583954	2466.833182
868.895755	2468.839561
869.207515	2469.547843
869.519233	2469.313430
869.830909	2469.729325
870.142542	2471.622278
870.454134	2468.249746
870.765684	2470.732514
871.077191	2466.666824
871.388657	2467.140692
871.700081	2465.819910
872.011463	2469.754531
872.322803	2466.094653
872.634101	2469.315950
872.945357	2469.280662
873.256571	2470.752679
873.567744	2468.098512
873.878874	2469.671352
874.189963	2468.297637
874.501010	2470.112453
874.812015	2471.148410
875.122979	2469.265539
875.433900	2467.448203
875.744780	2466.566001
876.055618	2467.803604
876.366415	2473.013637
876.677169	2468.101032
876.987882	2469.310909
877.298554	2471.334932
877.609183	2471.425673
877.919771	2470.951805
878.230317	2469.585652
878.540822	2468.620271
878.851285	2470.727473
879.161707	2471.886939
879.472087	2471.392906
879.782425	2470.109932
880.092722	2472.459110
880.402977	2472.355766
880.713191	2473.318626
881.023363	2474.712505
881.333494	2475.970273
881.643583	2476.602938
881.953631	2475.393061
882.263637	2476.529841
882.573602	2476.108905
882.883526	2475.609831
883.193408	2477.631333
883.503248	2472.910293
883.813048	2473.916003
884.122806	2473.411888
884.432522	2475.607310
884.742197	2472.501959
885.051831	2472.096147
885.361424	2470.183029
885.670975	2471.695375
885.980485	2469.179839
886.289954	2471.405508
886.599382	2469.452061
886.908768	2469.270580
887.218113	2467.508697
887.527417	2467.415435
887.836680	2465.829992
888.145901	2468.673203
888.455082	2470.394757
888.764221	2469.847792
889.073319	2469.348718
889.382376	2469.590693
889.691392	2468.320322
890.000366	2468.665641
890.309300	2469.507514
890.618193	2468.567339
890.927044	2469.142030
891.235855	2471.239150
891.544625	2469.184880
891.853353	2471.455920
892.162041	2467.942236
892.470687	2469.353759
892.779293	2470.082206
893.087858	2472.285190
893.396381	2470.619088
893.704864	2468.663121
894.013306	2469.777216
894.321707	2471.476085
894.630068	2470.747638
894.938387	2468.169088
895.246665	2471.934830
895.554903	2472.317957
895.863100	2470.493060
896.171256	2470.666979
896.479371	2469.560446
896.787446	2471.070272
897.095480	2469.366362
897.403473	2470.533389
897.711425	2471.397947
898.019336	2471.574387
898.327207	2467.138172
898.635038	2470.866105
898.942827	2467.917030
899.250576	2468.978193
899.558284	2470.067082
899.865952	2469.502473
900.173579	2471.576908
900.481165	2468.216979
900.788711	2469.729325
901.096216	2468.229582
901.403681	2469.285703
901.711105	2467.775878
902.018489	2470.039356
902.325832	2467.309571
902.633135	2465.214972
902.940397	2468.025415
903.247619	2462.724642
903.554800	2469.240333
903.861941	2470.528348
904.169041	2472.766620
904.476101	2472.489357
904.783121	2470.861064
905.090100	2470.813173
905.397039	2468.660600
905.703938	2470.712350
906.010796	2470.175467
906.317614	2470.581280
906.624391	2469.789819
906.931129	2471.105560
907.237826	2468.491722
907.544483	2471.929788
907.851099	2468.900055
908.157675	2468.980713
908.464211	2468.821917
908.770707	2468.395940
909.077163	2466.445013
909.383578	2470.241002
909.689954	2468.176649
909.996289	2468.771506
910.302584	2467.153295
910.608839	2467.410394
910.915054	2468.980713
911.221229	2467.627164
911.527363	2469.303347
911.833458	2467.833851
912.139513	2469.835189
912.445527	2466.709674
912.751502	2469.058851
913.057436	2466.944087
913.363331	2469.948615
913.669186	2467.672534
913.975000	2466.583645
914.280775	2469.956177
914.586510	2468.937864
914.892205	2470.296455
915.197859	2470.712350
915.503475	2471.763430
915.809050	2470.452730
916.114585	2469.648666
916.420081	2470.556074
916.725536	2470.556074
917.030952	2472.340642
917.336328	2469.177318
917.641665	2468.569859
917.946961	2468.980713
918.252218	2469.018522
918.557435	2464.829323
918.862612	2471.244192
919.167750	2469.320991
919.472848	2467.801083
919.777906	2468.897534
920.082925	2467.914509
920.387904	2468.738738
920.692843	2469.462144
920.997743	2467.566670
921.302603	2467.806125
921.607423	2468.842082
921.912204	2468.920220
922.216946	2467.087760
922.521647	2464.786473
922.826310	2469.363841
923.130932	2468.791670
923.435516	2470.062041
923.740059	2468.360652
924.044564	2466.775209
924.349028	2464.978037
924.653454	2466.916361
924.957840	2468.080868
925.262186	2467.503655
925.566493	2466.308902
925.870761	2465.557770
926.174989	2467.299489
926.479178	2466.855867
926.783328	2466.344190
927.087438	2466.475260
927.391509	2468.345528
927.695541	2467.039869
927.999533	2467.992647
928.303486	2465.240177
928.607400	2465.343521
928.911275	2463.407718
929.215110	2467.889304
929.518906	2466.999540
929.822663	2464.720938
930.126381	2468.494242
930.430060	2469.988944
930.733699	2466.480301
931.037299	2466.664303
931.340861	2465.202369
931.644383	2467.977524
931.947866	2465.860239
932.251309	2466.850826
932.554714	2465.625826
932.858080	2463.982409
933.161407	2465.706484
933.464694	2462.724642
933.767943	2462.238170
934.071153	2469.023563
934.374323	2465.935857
934.677455	2469.903245
934.980548	2467.720425
935.283602	2466.714715
935.586617	2467.037349
935.889593	2465.640949
936.192530	2466.457616
936.495428	2466.008953
936.798287	2468.108594
937.101108	2467.508697
937.403890	2465.416618
937.706632	2468.088429
938.009336	2464.602471
938.312002	2469.721763
938.614628	2465.545167
938.917216	2467.942236
939.219765	2467.359983
939.522275	2466.795373
939.824747	2465.835033
940.127179	2469.507514
940.429573	2466.989458
940.731929	2467.271762
941.034246	2468.148923
941.336524	2466.301340
941.638763	2467.929633
941.940964	2469.210086
942.243126	2466.966773
942.545250	2465.535085
942.847335	2464.952832
943.149381	2468.053141
943.451389	2467.203707
943.753359	2464.869653
944.055290	2465.782101
944.357182	2467.191104
944.659036	2466.654221
944.960851	2467.145733
945.262628	2466.946608
945.564367	2463.705146
945.866067	2470.908955
946.167729	2465.784622
946.469352	2465.250260
946.770937	2468.965590
947.072484	2465.519961
947.373992	2465.935857
947.675462	2466.079529
947.976893	2465.595579
948.278286	2461.844960
948.579641	2464.531895
948.880958	2461.711370
949.182236	2466.631536
949.483476	2466.064406
949.784678	2466.114817
950.085841	2466.969293
950.386967	2467.874180
950.688054	2466.109776
950.989103	2467.954839
951.290114	2466.001392
951.591087	2466.467698
951.892021	2466.694550
952.192917	2466.475260
952.493776	2467.102884
952.794596	2465.913171
953.095378	2468.867287
953.396122	2468.806794
953.696828	2465.519961
953.997496	2464.670527
954.298126	2464.002574
954.598718	2467.019705
954.899272	2468.327884
955.199788	2467.720425
955.500266	2469.361321
955.800706	2466.482822
956.101108	2467.337297
956.401472	2464.708336
956.701798	2466.530713
957.002087	2464.710856
957.302337	2466.752523
957.602550	2469.356279
957.902724	2466.755044
958.202861	2469.212607
958.502960	2462.714559
958.803022	2466.918882
959.103045	2463.516103
959.403031	2463.828654
959.702979	2465.036011
960.002889	2468.395940
960.302762	2467.881742
960.602596	2467.249077
960.902393	2464.418469
961.202153	2465.404015
961.501875	2468.549695
961.801559	2467.642287
962.101205	2466.679427
962.400814	2468.647997
962.700385	2465.416618
962.999918	2465.144395
963.299414	2463.080043
963.598873	2459.659620
963.898293	2462.308746
964.197677	2468.020374
964.497022	2462.253294
964.796331	2465.996350
965.095601	2466.513069
965.394835	2466.568521
965.694030	2464.196658
965.993189	2466.318984
966.292309	2465.383850
966.591393	2465.235136
966.890439	2465.300671
967.189447	2464.403346
967.488419	2465.300671
967.787353	2469.154633
968.086249	2467.407873
968.385108	2468.065744
968.683930	2464.897379
968.982714	2466.024077
969.281462	2466.306381
969.580172	2467.843933
969.878844	2466.417287
970.177480	2467.942236
970.476078	2466.820579
970.774639	2465.461988
971.073162	2465.963583
971.371649	2465.605661
971.670098	2466.868470
971.968510	2467.382668
972.266885	2467.755713
972.565223	2466.321505
972.863524	2463.561473
973.161788	2464.821762
973.460014	2466.555918
973.758204	2464.657924
974.056356	2464.473922
974.354471	2466.422328
974.652550	2467.559108
974.950591	2467.460806
975.248595	2466.508027
975.546563	2468.065744
975.844493	2465.860239
976.142386	2466.583645
976.440243	2466.959211
976.738062	2467.188583
977.035845	2466.147585
977.333590	2468.600106
977.631299	2465.313274
977.928971	2464.604992
978.226606	2460.788838
978.524204	2464.400825
978.821765	2461.910495
979.119290	2464.874694
979.416777	2463.722790
979.714228	2464.448716
980.011642	2465.232616
980.309020	2465.141875
980.606360	2463.339662
980.903664	2464.930146
981.200931	2463.034673
981.498162	2468.837041
981.795356	2466.555918
982.092513	2466.084571
982.389633	2470.117494
982.686717	2466.863429
982.983764	2467.924592
983.280775	2467.112966
983.577749	2464.970476
983.874686	2468.453913
984.171587	2462.885958
984.468451	2467.619602
984.765279	2466.568521
985.062070	2466.177832
985.358824	2465.162039
985.655543	2465.177163
985.952224	2468.852164
986.248869	2468.569859
986.545478	2464.902420
986.842050	2464.965434
987.138586	2466.031638
987.435086	2466.767647
987.731549	2467.302009
988.027975	2468.267390
988.324366	2465.076340
988.620719	2468.768985
988.917037	2467.448203
989.213318	2465.058696
989.509563	2466.853347
989.805772	2464.473922
990.101944	2466.951649
990.398080	2465.426700
990.694180	2463.105249
990.990244	2467.183542
991.286271	2465.588017
991.582262	2464.695733
991.878217	2464.446196
992.174136	2466.248408
992.470019	2463.811010
992.765865	2463.107769
993.061676	2460.448561
993.357450	2465.199848
993.653188	2460.675412
993.948890	2464.922585
994.244556	2464.138685
994.540186	2465.277986
994.835780	2467.511217
995.131337	2465.184725
995.426859	2464.224385
995.722345	2463.180866
996.017795	2463.425362
996.313208	2464.690692
996.608586	2467.617081
996.903928	2465.058696
997.199234	2466.785291
997.494504	2465.285548
997.789738	2466.152626
998.084936	2464.511731
998.380099	2465.139354
998.675225	2463.788325
998.970316	2465.575414
999.265371	2464.597430
999.560390	2465.494756
999.855373	2467.017184
1000.150320	2463.266566
1000.445232	2467.717904
1000.740108	2467.783439
1001.034948	2465.683799
1001.329752	2465.156998
1001.624521	2464.068109
1001.919254	2463.455609
1002.213951	2466.697071
1002.508613	2462.724642
1002.803239	2465.348562
1003.097829	2462.492748
1003.392384	2466.399643
1003.686903	2464.163891
1003.981386	2463.443006
1004.275834	2463.959724
1004.570246	2466.994499
1004.864623	2465.472070
1005.158964	2463.677420
1005.453270	2464.549539
1005.747540	2464.078191
1006.041775	2464.098356
1006.335974	2467.196145
1006.630138	2462.875876
1006.924266	2465.179683
1007.218359	2463.632049
1007.512416	2462.752368
1007.806438	2460.289764
1008.100425	2463.374950
1008.394376	2459.079887
1008.688292	2466.402163
1008.982172	2463.931998
1009.276017	2466.029118
1009.569827	2463.768160
1009.863602	2464.332770
1010.157341	2464.655403
1010.451045	2466.457616
1010.744714	2465.925774
1011.038347	2465.620784
1011.331945	2463.044755
1011.625508	2465.744293
1011.919036	2462.497790
1012.212528	2462.989302
1012.505986	2464.652883
1012.799408	2464.680609
1013.092795	2463.916874
1013.386147	2465.156998
1013.679464	2465.492235
1013.972745	2464.052986
1014.265992	2464.277317
1014.559204	2467.609520
1014.852380	2463.690022
1015.145521	2465.681278
1015.438628	2463.669858
1015.731699	2467.657411
1016.024736	2463.674899
1016.317737	2463.760599
1016.610703	2463.765640
1016.903635	2466.931484
1017.196531	2462.906123
1017.489393	2467.314612
1017.782219	2462.502831
1018.075011	2465.381330
1018.367768	2462.424693
1018.660490	2462.356637
1018.953177	2462.356637
1019.245829	2462.356637
