Dividing Wavelength (nm)	Counts (n)	Blue Motor Position (mm): 0.000000	Red Motor Position (mm): 16.000000	
326.493990	2053.526622
326.888308	2053.526622
327.282561	2053.526622
327.676750	2027.400842
328.070874	2030.158353
328.464933	2033.674558
328.858929	2045.763245
329.252859	2054.456715
329.646726	2068.009857
330.040528	2082.851014
330.434265	2102.254415
330.827938	2123.817951
331.221547	2142.258492
331.615091	2162.919661
332.008571	2181.597136
332.401986	2200.836699
332.795338	2221.230687
333.188625	2242.285066
333.581847	2261.532192
333.975006	2280.623041
334.368100	2297.042079
334.761129	2312.536066
335.154095	2325.577531
335.546996	2344.363390
335.939833	2359.380988
336.332606	2373.861702
336.725315	2383.422250
337.117960	2392.030021
337.510540	2400.726011
337.903056	2409.575757
338.295508	2421.346851
338.687896	2427.915474
339.080220	2433.473346
339.472480	2436.412339
339.864676	2436.009047
340.256807	2447.006324
340.648875	2445.914914
341.040879	2447.293670
341.432818	2448.932045
341.824694	2449.594956
342.216506	2447.505398
342.608253	2449.146294
342.999937	2446.718978
343.391557	2448.304421
343.783113	2447.659153
344.174605	2441.345108
344.566033	2442.507094
344.957397	2442.207145
345.348697	2441.818977
345.739934	2441.902156
346.131106	2435.446958
346.522215	2434.257246
346.913260	2433.085178
347.304241	2429.556370
347.695159	2426.672830
348.086012	2429.006884
348.476802	2426.017480
348.867528	2422.609660
349.258191	2422.017324
349.648789	2422.402973
350.039324	2415.337795
350.429796	2421.588826
350.820203	2418.856521
351.210548	2420.779721
351.600828	2419.277457
351.991045	2419.700914
352.381198	2416.623290
352.771288	2420.484813
353.161314	2418.649833
353.551276	2418.440626
353.941175	2418.301994
354.331010	2419.789134
354.720782	2418.342323
355.110490	2419.854669
355.500135	2420.832653
355.889717	2420.184865
356.279235	2418.077662
356.668689	2419.804258
357.058080	2419.239648
357.447408	2420.167221
357.836672	2421.651841
358.225873	2422.748292
358.615010	2425.891451
359.004084	2423.388518
359.393095	2425.079825
359.782043	2422.619742
360.170927	2423.668302
360.559748	2424.051430
360.948505	2426.556883
361.337199	2426.516554
361.725830	2426.541760
362.114398	2428.210382
362.502903	2428.303643
362.891344	2427.386153
363.279722	2427.086204
363.668037	2429.221133
364.056289	2427.648293
364.444478	2430.514189
364.832603	2428.341452
365.220665	2431.524940
365.608665	2431.028387
365.996601	2430.559559
366.384474	2431.855136
366.772284	2431.414035
367.160031	2434.683223
367.547715	2433.372523
367.935336	2433.871598
368.322893	2431.575352
368.710388	2429.742892
369.097820	2432.351690
369.485189	2428.974117
369.872495	2436.591300
370.259738	2435.134407
370.646918	2437.816300
371.034035	2437.597010
371.421090	2435.555343
371.808081	2441.088009
372.195010	2439.011054
372.581875	2441.980293
372.968678	2443.457352
373.355418	2446.318206
373.742096	2446.517332
374.128710	2448.029678
374.515262	2452.546552
374.901751	2452.211315
375.288177	2458.744651
375.674540	2460.415793
376.060841	2463.823613
376.447079	2471.145889
376.833254	2473.555561
377.219367	2478.584112
377.605417	2485.931593
377.991404	2489.402428
378.377329	2495.000629
378.763191	2505.266939
379.148991	2512.400172
379.534727	2518.759587
379.920402	2530.434899
380.306013	2536.380940
380.691563	2551.239741
381.077049	2559.965979
381.462474	2570.766651
381.847835	2585.585122
382.233134	2599.753285
382.618371	2612.215018
383.003545	2628.742441
383.388657	2641.209214
383.773706	2663.667554
384.158693	2675.390758
384.543618	2693.692667
384.928480	2710.451983
385.313280	2731.224057
385.698017	2748.235431
386.082692	2772.569080
386.467305	2789.887964
386.851856	2811.065852
387.236344	2838.383864
387.620770	2854.613859
388.005133	2873.482898
388.389435	2910.855492
388.773674	2926.092380
389.157851	2960.639407
389.541965	2982.674290
389.926018	2996.224912
390.310008	3030.933256
390.693936	3055.340002
391.077802	3082.993252
391.461606	3113.769496
391.845348	3132.827578
392.229027	3159.933862
392.612645	3201.765357
392.996200	3229.721076
393.379694	3269.372271
393.763125	3313.492450
394.146494	3338.274762
394.529801	3372.743652
394.913047	3415.245620
395.296230	3422.557813
395.679351	3447.934982
396.062410	3501.850122
396.445408	3477.980259
396.828343	3516.875281
397.211217	3552.516239
397.594028	3526.196375
397.976778	3573.137079
398.359466	3603.487345
398.742092	3618.807412
399.124656	3630.444916
399.507158	3690.527908
399.889598	3696.259700
400.271977	3761.477107
400.654294	3748.307093
401.036549	3805.352789
401.418742	3802.660813
401.800874	3870.310577
402.182944	3898.420051
402.564952	3983.754183
402.946898	3973.334118
403.328783	3965.762305
403.710606	4017.144265
404.092367	4083.110284
404.474067	4139.949294
404.855705	4122.534628
405.237282	4090.314093
405.618797	4177.979758
406.000250	4249.397785
406.381642	4322.973425
406.762972	4313.236437
407.144240	4275.513482
407.525447	4327.941482
407.906593	4332.952389
408.287677	4398.895723
408.668700	4411.995161
409.049661	4439.444244
409.430560	4455.470072
409.811399	4424.648457
410.192176	4455.313796
410.572891	4510.252291
410.953545	4586.693827
411.334138	4476.249708
411.714669	4554.185946
412.095139	4453.211635
412.475547	4530.863048
412.855894	4512.311602
413.236180	4570.496600
413.616405	4481.318588
413.996568	4547.660173
414.376670	4522.945916
414.756711	4485.906038
415.136691	4516.069782
415.516609	4551.478847
415.896466	4547.944998
416.276262	4573.622115
416.655997	4621.961739
417.035670	4657.206966
417.415283	4721.466554
417.794834	4734.321497
418.174324	4667.690046
418.553753	4625.621617
418.933121	4700.951579
419.312428	4662.006145
419.691674	4570.612546
420.070859	4671.480993
420.449983	4544.940470
420.829045	4619.105926
421.208047	4527.926576
421.586988	4571.966096
421.965867	4564.916042
422.344686	4555.907500
422.723444	4598.129684
423.102141	4342.490252
423.480777	4492.537676
423.859352	4349.759596
424.237866	4473.860201
424.616319	4416.481788
424.994712	4436.515333
425.373044	4342.147454
425.751314	4422.687448
426.129524	4249.060028
426.507673	4297.742450
426.885762	4254.811984
427.263789	4219.382755
427.641756	4187.709185
428.019662	4159.899660
428.397508	4116.656642
428.775292	4050.042835
429.153016	4050.030232
429.530679	3973.631546
429.908282	3935.709466
430.285824	3860.104761
430.663305	3881.968246
431.040726	3798.942962
431.418086	3745.521855
431.795385	3726.055439
432.172624	3715.222000
432.549802	3638.117552
432.926920	3618.273050
433.303977	3554.217628
433.680974	3517.008872
434.057910	3506.455216
434.434786	3466.599854
434.811601	3413.382913
435.188355	3420.090168
435.565050	3359.021631
435.941683	3315.682831
436.318257	3319.788851
436.694770	3272.643980
437.071222	3259.602515
437.447614	3191.955272
437.823946	3148.510608
438.200218	3128.867752
438.576429	3080.815473
438.952580	3060.882751
439.328670	3027.943852
439.704700	3002.594410
440.080670	2967.651652
440.456580	2954.264868
440.832429	2924.416196
441.208218	2879.983466
441.583947	2861.711804
441.959616	2844.990297
442.335224	2821.377532
442.710773	2804.905562
443.086261	2791.685136
443.461689	2757.158273
443.837057	2749.163003
444.212365	2737.827969
444.587612	2718.480020
444.962800	2695.885569
445.337927	2688.651513
445.712995	2657.277892
446.088002	2668.010508
446.462949	2654.830412
446.837837	2642.167033
447.212664	2630.879890
447.587431	2639.951446
447.962139	2649.194402
448.336786	2657.035917
448.711374	2642.837507
449.085901	2614.251644
449.460369	2603.214037
449.834776	2593.408993
450.209124	2597.260435
450.583412	2590.495206
450.957640	2586.185020
451.331808	2576.826118
451.705917	2563.099056
452.079965	2560.293654
452.453954	2558.388097
452.827883	2555.302911
453.201752	2549.218239
453.575562	2548.625903
453.949311	2548.114226
454.323001	2547.867209
454.696632	2542.269008
455.070202	2544.061138
455.443713	2544.469472
455.817164	2544.892929
456.190556	2546.508618
456.563888	2541.152392
456.937160	2543.960315
457.310373	2535.934798
457.683526	2535.667617
458.056619	2531.793490
458.429653	2533.242822
458.802628	2537.973945
459.175542	2530.145033
459.548398	2536.015457
459.921194	2537.714326
460.293930	2537.076620
460.666607	2541.772454
461.039224	2545.754966
461.411782	2544.507280
461.784280	2542.926879
462.156719	2541.245654
462.529099	2542.616848
462.901419	2535.029911
463.273680	2528.647810
463.645882	2528.743592
464.018024	2527.163191
464.390106	2525.539939
464.762130	2532.650487
465.134094	2541.951415
465.505999	2550.559186
465.877845	2563.588048
466.249631	2566.842112
466.621358	2564.278686
466.993026	2557.818447
467.364634	2558.803993
467.736184	2547.012734
468.107674	2547.917621
468.479105	2545.712116
468.850477	2541.800181
469.221790	2540.146682
469.593043	2534.621578
469.964238	2536.849768
470.335373	2533.303316
470.706449	2536.290200
471.077467	2538.823379
471.448425	2549.256047
471.819324	2553.520863
472.190164	2553.437684
472.560945	2545.523073
472.931667	2541.013761
473.302330	2537.583256
473.672934	2537.540406
474.043479	2536.300282
474.413965	2535.849099
474.784393	2531.488501
475.154761	2535.995292
475.525070	2537.356404
475.895321	2535.886907
476.265513	2535.423121
476.635645	2538.624254
477.005719	2538.054603
477.375734	2536.706095
477.745691	2539.098122
478.115588	2543.534338
478.485427	2547.388300
478.855207	2551.272509
479.224928	2558.287274
479.594591	2561.891699
479.964194	2561.430434
480.333739	2562.821792
480.703226	2564.427400
481.072653	2564.470250
481.442022	2566.325394
481.811333	2565.012174
482.180584	2559.439178
482.549777	2563.971175
482.918912	2558.282233
483.287988	2564.140054
483.657005	2561.183417
484.025964	2559.789538
484.394864	2561.594271
484.763706	2561.271637
485.132489	2557.523540
485.501213	2558.882131
485.869879	2556.348951
486.238487	2557.563869
486.607036	2558.073025
486.975527	2556.293498
487.343959	2558.685526
487.712333	2560.729713
488.080648	2559.328273
488.448905	2560.863304
488.817104	2557.962120
489.185244	2565.332287
489.553326	2567.081567
489.921350	2569.450910
490.289315	2579.729822
490.657222	2581.826942
491.025070	2582.835173
491.392861	2582.187385
491.760593	2580.990111
492.128267	2577.289904
492.495883	2575.676735
492.863440	2570.375961
493.230939	2569.191290
493.598380	2569.420663
493.965763	2563.862791
494.333088	2564.596278
494.700354	2564.981927
495.067563	2563.799776
495.434713	2563.086453
495.801805	2565.009653
496.168839	2562.095866
496.535815	2563.396484
496.902733	2561.853891
497.269593	2561.934549
497.636395	2562.395815
498.003139	2562.746175
498.369825	2566.340518
498.736453	2563.421690
499.103023	2565.629715
499.469535	2564.951680
499.835989	2565.160888
500.202385	2562.841957
500.568723	2558.216698
500.935003	2561.695094
501.301226	2559.512275
501.667390	2566.612740
502.033497	2569.082905
502.399546	2567.946125
502.765537	2564.482852
503.131470	2563.464539
503.497345	2567.084088
503.863163	2565.072667
504.228923	2566.673234
504.594625	2567.210117
504.960269	2564.984447
505.325856	2568.780436
505.691385	2564.432441
506.056856	2566.874880
506.422270	2568.417473
506.787625	2564.412276
507.152924	2566.325394
507.518164	2571.863102
507.883347	2569.118193
508.248472	2565.922102
508.613540	2569.229099
508.978550	2571.732032
509.343503	2568.782957
509.708398	2568.505693
510.073236	2568.858574
510.438016	2570.963256
510.802738	2568.540981
511.167403	2571.212793
511.532010	2568.578790
511.896561	2574.124059
512.261053	2574.424008
512.625488	2571.079202
512.989866	2571.379151
513.354186	2572.798236
513.718449	2569.813873
514.082655	2573.231775
514.446803	2572.939388
514.810894	2571.462330
515.174927	2571.099367
515.538904	2571.338822
515.902822	2572.210941
516.266684	2574.411405
516.630488	2574.963411
516.994235	2575.568350
517.357925	2571.651373
517.721558	2573.899728
518.085133	2573.987948
518.448651	2571.404357
518.812112	2566.128789
519.175516	2570.348235
519.538863	2567.464695
519.902152	2575.447362
520.265385	2570.741445
520.628560	2570.827145
520.991678	2573.592218
521.354739	2570.184398
521.717743	2571.023750
522.080690	2570.960735
522.443580	2571.910993
522.806413	2568.709860
523.169189	2570.544840
523.531908	2569.690364
523.894569	2569.801270
524.257174	2568.538461
524.619722	2569.471074
524.982213	2570.081054
525.344647	2566.791701
525.707025	2567.797411
526.069345	2570.204562
526.431608	2569.440827
526.793815	2566.327915
527.155964	2566.345559
527.518057	2567.900755
527.880093	2564.145095
528.242072	2566.441341
528.603995	2567.459654
528.965860	2566.516958
529.327669	2563.056206
529.689421	2567.222720
530.051117	2565.458316
530.412755	2565.934705
530.774337	2566.335477
531.135862	2564.412276
531.497331	2561.412790
531.858743	2563.429251
532.220098	2562.907492
532.581396	2563.368758
532.942638	2562.194169
533.303824	2564.936556
533.664953	2564.808007
534.026025	2560.918757
534.387040	2567.467216
534.747999	2563.686350
535.108902	2564.185424
535.469748	2560.278530
535.830537	2560.825495
536.191270	2559.136709
536.551947	2560.994374
536.912567	2558.050340
537.273131	2561.105279
537.633638	2557.483210
537.994089	2561.556463
538.354483	2558.914898
538.714821	2561.112841
539.075103	2561.518654
539.435328	2559.141750
539.795497	2563.328428
540.155609	2558.892213
540.515665	2560.507903
540.875665	2562.857080
541.235609	2558.630073
541.595496	2560.888510
541.955328	2562.050496
542.315102	2562.080743
542.674821	2557.455484
543.034483	2560.618808
543.394090	2555.859959
543.753640	2560.298695
544.113134	2560.676781
544.472571	2559.106462
544.831953	2560.344065
545.191278	2559.557645
545.550548	2559.986143
545.909761	2561.256514
546.268918	2559.018242
546.628019	2562.695763
546.987064	2558.181410
547.346053	2557.604198
547.704986	2558.236863
548.063863	2557.684857
548.422684	2560.034034
548.781449	2557.536143
549.140158	2557.664692
549.498811	2557.783159
549.857408	2556.958930
550.215949	2560.248283
550.574434	2557.589075
550.932864	2557.826009
551.291237	2556.999260
551.649555	2560.281051
552.007817	2559.844991
552.366022	2559.227450
552.724173	2555.910370
553.082267	2561.344734
553.440305	2558.811554
553.798288	2557.599157
554.156215	2557.352140
554.514086	2557.178221
554.871902	2555.118909
555.229661	2555.459187
555.587365	2551.310317
555.945014	2558.614949
556.302606	2557.745350
556.660143	2559.429096
557.017625	2558.501523
557.375050	2556.104455
557.732421	2557.183262
558.089735	2556.805175
558.446994	2559.174518
558.804197	2558.602347
559.161345	2558.156204
559.518437	2556.676626
559.875474	2559.013201
560.232455	2557.790721
560.589381	2558.390618
560.946251	2555.358364
561.303065	2557.415155
561.659825	2558.435988
562.016528	2557.543704
562.373177	2555.648230
562.729770	2557.140412
563.086307	2556.205278
563.442789	2555.159238
563.799216	2555.444064
564.155587	2556.840463
564.511904	2557.314332
564.868164	2556.477500
565.224370	2560.954045
565.580520	2557.611760
565.936615	2559.169476
566.292654	2555.532284
566.648638	2557.808365
567.004567	2555.935576
567.360441	2558.292316
567.716260	2558.403221
568.072023	2555.862479
568.427732	2559.298026
568.783385	2557.720145
569.138982	2553.609084
569.494525	2559.676112
569.850013	2556.114537
570.205445	2556.648899
570.560823	2557.407593
570.916145	2556.038920
571.271412	2554.947510
571.626625	2555.610422
571.981782	2557.679815
572.336884	2549.399720
572.691931	2550.244113
573.046923	2554.574465
573.401860	2548.278063
573.756743	2554.408107
574.111570	2552.374001
574.466342	2554.776111
574.821059	2552.172355
575.175722	2552.610935
575.530330	2553.692263
575.884882	2553.190668
576.239380	2553.261244
576.593823	2552.137067
576.948211	2552.280740
577.302544	2550.158414
577.656823	2550.085317
578.011047	2551.706048
578.365216	2550.823846
578.719330	2551.398538
579.073389	2553.024310
579.427394	2548.935934
579.781344	2550.861655
580.135239	2553.009186
580.489080	2547.922662
580.842866	2548.041129
581.196597	2554.153528
581.550273	2550.682694
581.903895	2551.990873
582.257463	2549.245965
582.610975	2549.268650
582.964434	2551.121274
583.317837	2548.036088
583.671186	2549.492982
584.024481	2548.207487
584.377721	2549.661860
584.730906	2550.624721
585.084037	2547.892415
585.437113	2548.953578
585.790135	2546.427960
586.143103	2547.032898
586.496016	2549.944165
586.848874	2547.045501
587.201679	2546.475851
587.554428	2544.787064
587.907124	2548.293187
588.259765	2547.486602
588.612352	2547.862168
588.964884	2547.567261
589.317362	2548.598177
589.669786	2545.215562
590.022155	2543.219266
590.374470	2540.406302
590.726731	2545.538196
591.078937	2538.659542
591.431090	2544.207332
591.783188	2544.764379
592.135232	2543.133566
592.487222	2542.871426
592.839157	2545.271015
593.191038	2545.165151
593.542866	2543.052907
593.894639	2543.768751
594.246358	2545.195398
594.598022	2542.291693
594.949633	2543.491488
595.301190	2542.652136
595.652692	2541.409491
596.004141	2545.235727
596.355535	2541.906045
596.706876	2540.025695
597.058162	2540.083668
597.409395	2540.076106
597.760573	2539.695499
598.111698	2542.652136
598.462768	2541.386806
598.813785	2542.236241
599.164748	2538.962011
599.515657	2539.322454
599.866511	2539.130890
600.217312	2539.990407
600.568060	2539.302289
600.918753	2541.664070
601.269392	2540.847403
601.619978	2538.346990
601.970510	2540.711292
602.320988	2539.335057
602.671412	2539.330015
603.021783	2542.150541
603.372100	2540.605427
603.722363	2541.845551
604.072572	2540.081147
604.422728	2538.662063
604.772830	2536.769109
605.122878	2538.321785
605.472872	2539.297248
605.822813	2537.714326
606.172701	2537.873122
606.522534	2534.208203
606.872314	2539.279604
607.222041	2538.455375
607.571714	2539.748431
607.921333	2534.989582
608.270899	2536.391023
608.620411	2534.200641
608.969870	2538.750283
609.319276	2540.739018
609.668627	2540.670962
610.017926	2539.783719
610.367171	2539.647608
610.716362	2539.549306
611.065500	2539.929913
611.414585	2540.292876
611.763616	2541.101981
612.112594	2540.703730
612.461518	2539.264480
612.810389	2540.373534
613.159207	2539.360262
613.507971	2539.035108
613.856682	2541.840510
614.205340	2540.769265
614.553945	2541.540561
614.902496	2541.550644
615.250994	2541.472506
615.599439	2542.954605
615.947830	2542.059800
616.296169	2541.469985
616.644454	2540.096271
616.992686	2541.762372
617.340864	2538.793133
617.688990	2541.588452
618.037063	2544.096426
618.385082	2539.811446
618.733048	2543.972918
619.080961	2539.955118
619.428821	2540.378575
619.776628	2539.428318
620.124382	2540.892773
620.472083	2540.431507
620.819731	2542.180788
621.167326	2541.490150
621.514868	2538.256250
621.862357	2538.702392
622.209793	2542.541230
622.557176	2537.774819
622.904506	2539.196425
623.251783	2540.577701
623.599007	2535.554191
623.946179	2536.791794
624.293297	2539.894625
624.640363	2535.690302
624.987376	2535.246681
625.334336	2531.092770
625.681243	2534.218285
626.028097	2527.357275
626.374899	2533.315919
626.721647	2533.847761
627.068343	2536.620395
627.414987	2532.557225
627.761577	2532.852133
628.108115	2534.901362
628.454600	2535.105528
628.801032	2533.298275
629.147412	2533.499921
629.493739	2530.901206
629.840014	2532.254756
630.186236	2532.204344
630.532405	2532.857174
630.878521	2530.374406
631.224585	2532.416073
631.570597	2529.615712
631.916556	2531.397760
632.262462	2533.043697
632.608316	2532.153933
632.954117	2529.353572
633.299866	2530.926412
633.645562	2531.566638
633.991206	2531.753161
634.336797	2529.008253
634.682336	2529.542615
635.027823	2527.692512
635.373257	2525.272758
635.718639	2526.807789
636.063968	2526.966586
636.409245	2526.699404
636.754470	2527.816020
637.099642	2524.851822
637.444762	2526.525485
637.789829	2526.258303
638.134845	2526.117151
638.479808	2527.029600
638.824719	2523.742768
639.169577	2525.224867
639.514383	2528.113448
639.859137	2523.679753
640.203839	2523.483148
640.548489	2524.808972
640.893086	2522.038858
641.237632	2522.847963
641.582125	2522.694208
641.926566	2523.094979
642.270955	2522.878210
642.615292	2518.865451
642.959576	2520.612211
643.303809	2517.297653
643.647990	2520.466018
643.992118	2520.783610
644.336195	2521.393590
644.680219	2521.794362
645.024192	2522.520288
645.368112	2520.617252
645.711981	2523.289064
646.055797	2524.342665
646.399562	2525.774353
646.743274	2526.394415
647.086935	2526.026410
647.430544	2525.005577
647.774101	2528.771319
648.117606	2528.277286
648.461059	2526.331400
648.804460	2530.840712
649.147810	2524.022552
649.491108	2523.936852
649.834354	2525.366019
650.177548	2527.193438
650.520690	2524.622449
650.863781	2521.887623
651.206820	2524.425844
651.549807	2521.005421
651.892742	2519.697242
652.235626	2520.947448
652.578458	2520.251769
652.921238	2522.114475
653.263967	2520.261851
653.606644	2521.869979
653.949269	2520.516429
654.291843	2517.743795
654.634365	2517.814371
654.976836	2518.250431
655.319255	2519.727489
655.661622	2517.161541
656.003938	2519.901408
656.346203	2517.655574
656.688416	2519.281347
657.030577	2521.010462
657.372687	2519.724968
657.714746	2517.668177
658.056753	2520.980215
658.398708	2516.574247
658.740612	2519.367046
659.082465	2517.176665
659.424266	2519.500637
659.766016	2514.840090
660.107715	2517.327899
660.449362	2514.590553
660.790958	2517.940400
661.132503	2517.940400
661.473996	2518.938548
661.815438	2517.791686
662.156829	2516.939731
662.498168	2518.573064
662.839456	2518.235307
663.180693	2515.951664
663.521879	2520.377798
663.863013	2515.636592
664.204097	2518.386542
664.545129	2515.621469
664.886110	2518.018537
665.227040	2517.723630
665.567918	2518.212622
665.908746	2517.481655
666.249522	2519.785462
666.590248	2516.465862
666.930922	2519.117509
667.271545	2520.924763
667.612118	2523.309228
667.952639	2517.648013
668.293109	2516.619617
668.633528	2519.435102
668.973896	2518.094155
669.314213	2518.764628
669.654480	2519.722447
669.994695	2519.394773
670.334859	2520.944927
670.674973	2520.642458
671.015035	2519.467869
671.355047	2519.283867
671.695008	2518.172293
672.034918	2515.523166
672.374777	2520.322345
672.714585	2516.929648
673.054342	2517.774042
673.394049	2517.474093
673.733705	2517.264885
674.073310	2519.238497
674.412864	2516.743126
674.752368	2518.499968
675.091820	2518.915863
675.431223	2515.407220
675.770574	2516.281860
676.109875	2517.806809
676.449125	2514.429236
676.788324	2512.024606
677.127473	2514.013341
677.466571	2509.370438
677.805619	2512.679956
678.144616	2517.998373
678.483562	2517.695904
678.822458	2514.555265
679.161303	2515.928979
679.500098	2512.004441
679.838842	2514.688855
680.177535	2513.662981
680.516179	2515.306397
680.854771	2517.521984
681.193314	2516.037364
681.531805	2518.043743
681.870247	2517.562313
682.208638	2517.108609
682.546978	2518.913342
682.885268	2519.795544
683.223508	2522.210257
683.561697	2518.459638
683.899836	2521.423837
684.237925	2517.993332
684.575963	2516.813702
684.913951	2518.441994
685.251889	2518.525173
685.589776	2516.702796
685.927614	2517.166582
686.265401	2518.036182
686.603137	2516.682632
686.940824	2518.515091
687.278460	2520.261851
687.616046	2517.101048
687.953582	2522.643796
688.291068	2518.308404
688.628504	2520.924763
688.965889	2520.435771
689.303224	2520.138343
689.640510	2517.862262
689.977745	2519.666995
690.314930	2521.247397
690.652065	2520.506347
690.989150	2516.962416
691.326185	2516.801099
691.663170	2515.482837
692.000105	2512.584174
692.336990	2511.500326
692.673825	2514.661129
693.010610	2509.657784
693.347345	2507.842968
693.684030	2506.461692
694.020665	2505.070334
694.357251	2504.745179
694.693786	2511.424708
695.030272	2506.930520
695.366707	2509.007475
695.703093	2504.321723
696.039429	2506.217196
696.375716	2507.777433
696.711952	2506.738956
697.048139	2506.580159
697.384276	2504.432628
697.720363	2503.648728
698.056400	2502.900117
698.392388	2506.267608
698.728326	2502.539675
699.064214	2506.086126
699.400053	2505.622340
699.735842	2505.818945
700.071581	2504.571260
700.407270	2504.755262
700.742910	2504.800632
701.078501	2502.738800
701.414042	2499.348624
701.749533	2500.329129
702.084974	2499.693943
702.420366	2504.939264
702.755709	2503.081599
703.091002	2500.528254
703.426246	2502.043121
703.761440	2501.022287
704.096584	2501.463388
704.431679	2503.316012
704.766725	2498.035404
705.101721	2500.084633
705.436668	2501.012205
705.771565	2502.065806
706.106413	2499.746875
706.441212	2504.016733
706.775961	2500.654283
707.110661	2499.537668
707.445311	2503.424397
707.779913	2501.299551
708.114465	2502.519510
708.448967	2503.021105
708.783421	2504.241064
709.117825	2501.264263
709.452180	2505.040087
709.786485	2503.754593
710.120742	2503.986486
710.454949	2500.021618
710.789107	2505.667711
711.123216	2503.333656
711.457275	2509.206601
711.791286	2508.238699
712.125247	2511.787671
712.459159	2508.289111
712.793023	2509.360356
713.126837	2507.578308
713.460602	2510.061076
713.794318	2509.466220
714.127985	2511.109636
714.461602	2508.531086
714.795171	2508.611744
715.128691	2505.024963
715.462162	2506.711229
715.795584	2505.488750
716.128957	2503.424397
716.462281	2504.107473
716.795556	2502.632936
717.128782	2503.363903
717.461960	2502.206958
717.795088	2499.663696
718.128167	2501.221413
718.461198	2500.969355
718.794180	2501.107987
719.127113	2499.121772
719.459997	2499.237719
719.792833	2497.604385
720.125619	2499.124293
720.458357	2498.128665
720.791046	2498.569766
721.123686	2497.155722
721.456278	2496.502893
721.788821	2498.867194
722.121315	2494.723366
722.453761	2499.126813
722.786158	2499.439365
723.118506	2495.958448
723.450805	2496.195382
723.783056	2496.497852
724.115259	2496.654127
724.447412	2496.742348
724.779518	2496.313850
725.111574	2497.826196
725.443582	2496.157574
725.775542	2500.369458
726.107453	2496.744868
726.439315	2497.077584
726.771129	2499.230157
727.102895	2493.228663
727.434612	2497.657317
727.766281	2497.059940
728.097901	2500.308964
728.429473	2500.918944
728.760996	2499.704026
729.092471	2501.228975
729.423897	2498.237050
729.755276	2499.855260
730.086606	2502.527072
730.417887	2500.286279
730.749120	2499.189828
731.080305	2502.905158
731.411442	2504.384737
731.742530	2503.681496
732.073570	2501.241577
732.404562	2505.103101
732.735506	2506.033194
733.066401	2505.551764
733.397249	2505.314830
733.728048	2504.225941
734.058798	2503.169819
734.389501	2500.394664
734.720156	2501.475991
735.050762	2499.633449
735.381320	2499.310816
735.711831	2497.342245
736.042293	2497.853922
736.372707	2495.529950
736.703073	2496.631442
737.033391	2495.320742
737.363661	2498.922647
737.693883	2496.074395
738.024056	2495.204796
738.354182	2499.152019
738.684260	2497.977430
739.014290	2498.310147
739.344272	2499.187307
739.674207	2500.066989
740.004093	2495.111534
740.333931	2501.097905
740.663722	2498.511793
740.993464	2502.527072
741.323159	2498.857112
741.652806	2498.189159
741.982405	2496.397029
742.311956	2498.947853
742.641460	2499.857781
742.970915	2497.871566
743.300323	2495.608088
743.629683	2492.013745
743.958996	2493.773108
744.288260	2491.149188
744.617477	2496.192862
744.946647	2493.447954
745.275768	2496.328973
745.604842	2494.839312
745.933869	2497.707729
746.262847	2495.497183
746.591778	2492.159939
746.920662	2493.755464
747.249498	2493.165649
747.578286	2493.601709
747.907027	2496.553304
748.235720	2495.421565
748.564365	2493.684888
748.892963	2494.483911
749.221514	2496.223109
749.550017	2495.809734
749.878473	2495.265290
750.206881	2494.541884
750.535242	2495.434168
750.863555	2496.505413
751.191821	2494.771257
751.520039	2493.886534
751.848210	2491.675988
752.176334	2493.276554
752.504411	2494.108345
752.832440	2493.579024
753.160421	2493.989878
753.488356	2493.268993
753.816243	2493.110196
754.144082	2493.813437
754.471875	2493.256390
754.799620	2492.780001
755.127318	2492.553149
755.454969	2490.377891
755.782572	2493.684888
756.110129	2491.804538
756.437638	2491.791935
756.765100	2492.006184
757.092515	2493.616832
757.419882	2494.345279
757.747203	2492.681698
758.074477	2491.333190
758.401703	2493.977275
758.728882	2491.938128
759.056014	2495.960969
759.383099	2492.117089
759.710138	2494.473828
760.037129	2492.046513
760.364073	2489.530977
760.690970	2489.848570
761.017820	2492.245638
761.344623	2496.792759
761.671379	2495.035917
761.998088	2497.511124
762.324751	2500.064468
762.651366	2505.887001
762.977935	2512.468227
763.304456	2515.755059
763.630931	2523.019362
763.957359	2518.424350
764.283740	2517.655574
764.610074	2512.120388
764.936362	2510.489574
765.262602	2505.488750
765.588796	2499.847698
765.914943	2499.089005
766.241044	2495.502224
766.567097	2495.618170
766.893104	2491.701194
767.219064	2491.214723
767.544978	2492.613643
767.870845	2489.596512
768.196665	2489.495689
768.522438	2488.406800
768.848165	2490.420741
769.173846	2489.122644
769.499479	2490.027531
769.825066	2490.135916
770.150607	2489.669609
770.476101	2485.538383
770.801548	2487.207005
771.126949	2488.789928
771.452303	2487.925370
771.777611	2485.142653
772.102872	2485.293887
772.428087	2486.667602
772.753256	2488.815133
773.078378	2487.055771
773.403453	2486.387818
773.728482	2485.455204
774.053465	2484.842704
774.378401	2485.639206
774.703291	2482.475882
775.028135	2481.717189
775.352932	2484.986377
775.677683	2485.341778
776.002388	2482.780872
776.327046	2480.207363
776.651658	2480.608135
776.976224	2478.752990
777.300743	2484.288177
777.625216	2484.162148
777.949643	2482.123002
778.274024	2484.479741
778.598359	2482.296921
778.922647	2482.120481
779.246889	2483.910091
779.571086	2483.284988
779.895236	2484.101654
780.219339	2482.080152
780.543397	2480.744246
780.867409	2483.234576
781.191374	2484.527632
781.515294	2483.526963
781.839167	2482.112919
782.162995	2483.322796
782.486776	2481.258444
782.810511	2485.351861
783.134201	2484.144504
783.457844	2482.042343
783.781441	2482.712817
784.104993	2479.632672
784.428498	2486.294556
784.751958	2480.928248
785.075372	2481.833135
785.398739	2482.798516
785.722061	2482.294401
786.045337	2482.720378
786.368568	2486.080307
786.691752	2482.722899
787.014891	2485.697180
787.337983	2482.133084
787.661030	2483.968064
787.984031	2488.459732
788.306987	2486.395379
788.629897	2487.854793
788.952760	2486.632314
789.275579	2487.869917
789.598351	2487.990905
789.921078	2485.810606
790.243759	2486.463435
790.566395	2485.457725
790.888984	2484.283136
791.211529	2483.322796
791.534027	2482.231386
791.856480	2481.573516
792.178888	2479.872126
792.501249	2476.620582
792.823566	2478.720223
793.145836	2478.684935
793.468062	2482.057467
793.790241	2483.116109
794.112375	2483.537045
794.434464	2483.242138
794.756507	2482.753146
795.078505	2484.356233
795.400457	2482.407827
795.722364	2482.007055
796.044226	2483.224494
796.366042	2484.812457
796.687812	2484.567961
797.009538	2484.961171
797.331218	2486.312200
797.652852	2486.551655
797.974442	2486.453353
798.295986	2483.201808
798.617484	2483.564772
798.938938	2483.723568
799.260346	2487.322952
799.581709	2484.371356
799.903026	2483.907570
800.224299	2483.209370
800.545526	2485.220791
800.866708	2480.535038
801.187845	2484.222642
801.508936	2482.344812
801.829983	2483.589977
802.150984	2483.295070
802.471940	2483.022848
802.792851	2482.974957
803.113717	2482.533856
803.434538	2481.810450
803.755314	2484.472179
804.076045	2482.352374
804.396731	2480.320789
804.717372	2483.960502
805.037967	2479.874647
805.358518	2479.960347
805.679024	2483.148876
805.999485	2479.967908
806.319901	2483.421099
806.640272	2480.318268
806.960598	2480.870275
807.280879	2480.963536
807.601115	2482.760708
807.921306	2482.899339
808.241453	2479.662918
808.561554	2480.799699
808.881611	2482.551500
809.201623	2478.130408
809.521590	2480.713999
809.841513	2481.069400
810.161390	2483.589977
810.481223	2483.647951
810.801011	2483.302632
811.120755	2481.145018
811.440453	2479.317599
811.760107	2479.403299
812.079716	2482.448156
812.399281	2481.565954
812.718801	2482.022178
813.038276	2483.068218
813.357707	2483.375728
813.677093	2479.947744
813.996434	2481.371870
814.315731	2480.209884
814.634983	2479.191571
814.954191	2481.732312
815.273354	2482.491006
815.592473	2480.167034
815.911547	2481.558392
816.230577	2481.674339
816.549562	2485.419916
816.868502	2485.273723
817.187399	2482.375059
817.506250	2483.912611
817.825058	2485.188023
818.143821	2483.126191
818.462539	2483.307673
818.781213	2486.561737
819.099843	2485.982005
819.418429	2492.240597
819.736970	2492.056595
820.055466	2493.773108
820.373919	2500.896258
820.692327	2505.042608
821.010691	2516.032323
821.329011	2535.977648
821.647286	2572.979717
821.965517	2618.196347
822.283704	2650.096768
822.601847	2671.607372
822.919945	2658.036586
823.237999	2638.993627
823.556010	2617.931686
823.873976	2595.221288
824.191897	2574.431570
824.509775	2556.858107
824.827609	2544.461910
825.145398	2533.446989
825.463144	2533.189890
825.780845	2527.929446
826.098502	2535.284489
826.416116	2542.606765
826.733685	2552.321069
827.051210	2559.860114
827.368692	2559.781977
827.686129	2547.219421
828.003522	2534.886238
828.320872	2529.167049
828.638177	2516.067611
828.955439	2509.778772
829.272656	2505.072854
829.589830	2501.503718
829.906960	2494.972903
830.224046	2494.047851
830.541088	2491.693632
830.858086	2488.179948
831.175041	2487.128867
831.491952	2487.179279
831.808819	2488.479897
832.125642	2486.987715
832.442421	2488.868065
832.759157	2494.607419
833.075849	2503.893224
833.392497	2510.222393
833.709101	2518.729340
834.025662	2518.137005
834.342179	2519.518281
834.658653	2512.657270
834.975083	2504.167967
835.291469	2501.092863
835.607811	2495.570279
835.924110	2493.014414
836.240366	2489.687253
836.556578	2488.021152
836.872746	2486.433188
837.188871	2485.011583
837.504952	2480.656026
837.820990	2481.812971
838.136984	2481.147538
838.452935	2479.287353
838.768842	2481.666777
839.084706	2481.361787
839.400526	2485.067035
839.716303	2488.205154
840.032037	2492.888386
840.347727	2489.588950
840.663373	2487.658188
840.978977	2482.821201
841.294537	2482.788434
841.610054	2485.871099
841.925527	2483.610142
842.240957	2480.585450
842.556344	2480.406489
842.871687	2479.625110
843.186987	2478.596714
843.502244	2476.650829
843.817458	2478.178299
844.132629	2475.103195
844.447756	2475.952629
844.762840	2472.507001
845.077881	2475.304841
845.392879	2473.510190
845.707833	2477.908597
846.022745	2474.422639
846.337613	2474.861219
846.652438	2472.696044
846.967221	2473.626137
847.281960	2472.449027
847.596656	2476.802064
847.911309	2475.640078
848.225919	2469.545323
848.540485	2475.466158
848.855009	2472.930458
849.169490	2473.991620
849.483928	2474.878863
849.798323	2473.600931
850.112675	2473.767289
850.426984	2471.324850
850.741251	2474.551188
851.055474	2472.575056
851.369654	2476.474389
851.683792	2476.003041
851.997887	2472.882567
852.311938	2473.817701
852.625947	2475.057824
852.939914	2470.523307
853.253837	2469.898203
853.567718	2471.188739
853.881555	2473.734522
854.195350	2472.154120
854.509103	2472.587659
854.822812	2472.209572
855.136479	2473.391723
855.450103	2472.766620
855.763685	2470.737556
856.077224	2468.385857
856.390720	2472.769141
856.704173	2468.607668
857.017584	2473.878194
857.330953	2472.227217
857.644278	2473.273256
857.957561	2477.810294
858.270802	2473.449696
858.584000	2476.310551
858.897155	2473.220324
859.210268	2472.696044
859.523339	2471.327371
859.836367	2470.906434
860.149352	2472.638071
860.462295	2473.142186
860.775195	2475.534213
861.088054	2472.980869
861.400869	2473.560602
861.713642	2473.565643
862.026373	2473.192597
862.339062	2471.549181
862.651708	2471.430714
862.964312	2473.653863
863.276873	2475.183853
863.589392	2473.142186
863.901869	2473.590849
864.214303	2475.723257
864.526696	2473.439614
864.839045	2473.129583
865.151353	2473.711836
865.463619	2473.555561
865.775842	2474.523462
866.088023	2474.417598
866.400162	2475.148565
866.712258	2475.579584
867.024313	2474.830972
867.336325	2472.358287
867.648296	2476.829790
867.960224	2474.525983
868.272110	2475.998000
868.583954	2476.464306
868.895755	2474.596559
869.207515	2474.157978
869.519233	2474.916672
869.830909	2476.035808
870.142542	2474.218472
870.454134	2473.510190
870.765684	2474.755355
871.077191	2474.641929
871.388657	2476.214769
871.700081	2470.742597
872.011463	2472.887608
872.322803	2470.513224
872.634101	2475.637557
872.945357	2475.897177
873.256571	2477.046560
873.567744	2476.237454
873.878874	2477.868268
874.189963	2474.765438
874.501010	2479.264667
874.812015	2476.192084
875.122979	2479.254585
875.433900	2477.084368
875.744780	2476.582773
876.055618	2478.705099
876.366415	2478.442959
876.677169	2478.344657
876.987882	2479.960347
877.298554	2478.513535
877.609183	2480.862713
877.919771	2478.896663
878.230317	2478.097640
878.540822	2480.091417
878.851285	2482.294401
879.161707	2482.420430
879.472087	2488.726913
879.782425	2490.335041
880.092722	2501.319715
880.402977	2514.754390
880.713191	2533.240302
881.023363	2549.803012
881.333494	2566.937894
881.643583	2569.574418
881.953631	2570.396126
882.263637	2565.717935
882.573602	2560.949004
882.883526	2553.309135
883.193408	2546.697662
883.503248	2538.480581
883.813048	2533.618388
884.122806	2525.108920
884.432522	2521.073477
884.742197	2514.048629
885.051831	2508.016888
885.361424	2502.161588
885.670975	2496.913747
885.980485	2493.962151
886.289954	2493.732779
886.599382	2490.345123
886.908768	2486.347488
887.218113	2483.141315
887.527417	2482.294401
887.836680	2477.044039
888.145901	2482.977477
888.455082	2477.376755
888.764221	2481.296252
889.073319	2477.001189
889.382376	2477.878350
889.691392	2481.586119
890.000366	2477.187712
890.309300	2479.713330
890.618193	2477.480099
890.927044	2478.571509
891.235855	2480.046046
891.544625	2478.357260
891.853353	2476.403812
892.162041	2478.808443
892.470687	2480.822384
892.779293	2479.622589
893.087858	2482.808598
893.396381	2483.302632
893.704864	2488.064001
894.013306	2493.969713
894.321707	2499.600682
894.630068	2502.159067
894.938387	2503.651249
895.246665	2503.177381
895.554903	2502.653101
895.863100	2499.215034
896.171256	2495.908037
896.479371	2491.875114
896.787446	2490.224136
897.095480	2487.113744
897.403473	2490.332521
897.711425	2484.605770
898.019336	2483.831953
898.327207	2485.006542
898.635038	2485.001500
898.942827	2480.703917
899.250576	2483.126191
899.558284	2477.452372
899.865952	2481.389514
900.173579	2478.311889
900.481165	2478.788278
900.788711	2476.194605
901.096216	2478.034626
901.403681	2475.317444
901.711105	2477.835500
902.018489	2476.948257
902.325832	2475.675366
902.633135	2474.077320
902.940397	2475.619913
903.247619	2477.172588
903.554800	2486.617190
903.861941	2497.390136
904.169041	2504.314161
904.476101	2509.004954
904.783121	2511.714575
905.090100	2506.983452
905.397039	2504.230982
905.703938	2500.697133
906.010796	2498.133706
906.317614	2493.326966
906.624391	2490.808910
906.931129	2489.457880
907.237826	2483.388331
907.544483	2485.316573
907.851099	2480.409009
908.157675	2479.282311
908.464211	2477.764924
908.770707	2475.889615
909.077163	2473.043883
909.383578	2474.977166
909.689954	2475.672845
909.996289	2473.285859
910.302584	2473.343832
910.608839	2473.716878
910.915054	2473.154789
911.221229	2472.791826
911.527363	2472.703606
911.833458	2474.135293
912.139513	2474.193267
912.445527	2475.264512
912.751502	2475.607310
913.057436	2472.575056
913.363331	2474.730149
913.669186	2477.943885
913.975000	2475.461117
914.280775	2480.769452
914.586510	2483.388331
914.892205	2485.916470
915.197859	2490.990391
915.503475	2495.101452
915.809050	2506.222238
916.114585	2507.948833
916.420081	2509.340191
916.725536	2508.392454
917.030952	2508.921775
917.336328	2504.082268
917.641665	2502.927843
917.946961	2496.840650
918.252218	2496.641525
918.557435	2494.405773
918.862612	2493.813437
919.167750	2491.393683
919.472848	2493.899137
919.777906	2486.559217
920.082925	2485.107365
920.387904	2481.565954
920.692843	2481.041674
920.997743	2483.237097
921.302603	2480.741725
921.607423	2478.896663
921.912204	2474.619244
922.216946	2475.808956
922.521647	2476.970942
922.826310	2476.270222
923.130932	2473.721919
923.435516	2476.499594
923.740059	2473.300982
924.044564	2475.614872
924.349028	2474.697382
924.653454	2471.781074
924.957840	2474.319295
925.262186	2472.315437
925.566493	2471.216465
925.870761	2471.516414
926.174989	2470.823255
926.479178	2468.995837
926.783328	2471.365179
927.087438	2468.958028
927.391509	2469.189921
927.695541	2469.424335
927.999533	2469.638584
928.303486	2468.332925
928.607400	2470.586321
928.911275	2469.573049
929.215110	2471.032463
929.518906	2467.939715
929.822663	2471.581949
930.126381	2469.608337
930.430060	2470.165385
930.733699	2469.678913
931.037299	2471.453399
931.340861	2466.669344
931.644383	2473.008595
931.947866	2468.045579
932.251309	2470.649335
932.554714	2468.441310
932.858080	2465.668675
933.161407	2464.753706
933.464694	2466.374437
933.767943	2467.080198
934.071153	2471.433235
934.374323	2467.029787
934.677455	2468.501804
934.980548	2469.772175
935.283602	2468.831999
935.586617	2468.647997
935.889593	2468.529530
936.192530	2465.865280
936.495428	2469.638584
936.798287	2468.267390
937.101108	2467.727987
937.403890	2468.635394
937.706632	2469.031125
938.009336	2472.396095
938.312002	2470.218317
938.614628	2470.921558
938.917216	2471.609675
939.219765	2469.580611
939.522275	2471.297124
939.824747	2469.855354
940.127179	2472.519603
940.429573	2472.680920
940.731929	2473.477423
941.034246	2470.966928
941.336524	2473.119501
941.638763	2472.975828
941.940964	2471.060189
942.243126	2469.958697
942.545250	2473.525314
942.847335	2468.615230
943.149381	2470.777885
943.451389	2469.343677
943.753359	2470.203193
944.055290	2470.467854
944.357182	2470.732514
944.659036	2469.136989
944.960851	2470.593883
945.262628	2470.931640
945.564367	2469.983903
945.866067	2469.925930
946.167729	2470.384675
946.469352	2467.957359
946.770937	2466.702112
947.072484	2467.637246
947.373992	2470.888790
947.675462	2468.501804
947.976893	2466.888635
948.278286	2466.417287
948.579641	2467.208748
948.880958	2464.630198
949.182236	2468.451392
949.483476	2469.772175
949.784678	2468.630353
950.085841	2468.811835
950.386967	2467.659931
950.688054	2468.584983
950.989103	2469.905765
951.290114	2469.386526
951.591087	2469.172277
951.892021	2467.213789
952.192917	2470.261167
952.493776	2468.423666
952.794596	2471.115642
953.095378	2468.486680
953.396122	2469.436938
953.696828	2468.915178
953.997496	2467.632205
954.298126	2470.099850
954.598718	2469.517596
954.899272	2468.814355
955.199788	2468.035497
955.500266	2467.468367
955.800706	2470.964407
956.101108	2465.308233
956.401472	2468.353090
956.701798	2469.951136
957.002087	2468.199335
957.302337	2468.562298
957.602550	2471.707978
957.902724	2467.914509
958.202861	2469.426856
958.502960	2465.502317
958.803022	2469.603296
959.103045	2466.361834
959.403031	2467.473408
959.702979	2469.384006
960.002889	2465.668675
960.302762	2465.696402
960.602596	2466.538274
960.902393	2467.828810
961.202153	2465.696402
961.501875	2465.262863
961.801559	2466.936526
962.101205	2467.501135
962.400814	2466.442492
962.700385	2466.762606
962.999918	2464.738582
963.299414	2461.096349
963.598873	2466.533233
963.898293	2459.359671
964.197677	2465.645990
964.497022	2465.298151
964.796331	2468.015332
965.095601	2465.320836
965.394835	2465.855198
965.694030	2466.031638
965.993189	2465.401494
966.292309	2465.197328
966.591393	2463.195989
966.890439	2463.407718
967.189447	2466.336628
967.488419	2463.059878
967.787353	2463.294292
968.086249	2466.082050
968.385108	2465.225054
968.683930	2468.375775
968.982714	2464.257152
969.281462	2463.523664
969.580172	2465.008284
969.878844	2463.624487
970.177480	2466.235805
970.476078	2465.557770
970.774639	2464.955352
971.073162	2466.505507
971.371649	2465.880404
971.670098	2467.289406
971.968510	2465.036011
972.266885	2463.775722
972.565223	2468.400981
972.863524	2465.338480
973.161788	2465.419138
973.460014	2464.940229
973.758204	2467.518779
974.056356	2466.777729
974.354471	2464.284879
974.652550	2465.046093
974.950591	2465.958542
975.248595	2465.703963
975.546563	2467.508697
975.844493	2465.696402
976.142386	2465.497276
976.440243	2463.856381
976.738062	2465.840075
977.035845	2466.566001
977.333590	2466.979375
977.631299	2465.237657
977.928971	2463.611885
978.226606	2460.622480
978.524204	2462.223047
978.821765	2461.451750
979.119290	2465.973665
979.416777	2466.646659
979.714228	2466.293778
980.011642	2466.417287
980.309020	2465.182204
980.606360	2465.676237
980.903664	2464.761268
981.200931	2465.046093
981.498162	2465.545167
981.795356	2466.346711
982.092513	2467.722946
982.389633	2468.799232
982.686717	2471.218986
982.983764	2471.241671
983.280775	2469.734366
983.577749	2468.748820
983.874686	2471.468523
984.171587	2469.028604
984.468451	2469.303347
984.765279	2469.888121
985.062070	2468.678244
985.358824	2469.063892
985.655543	2468.887452
985.952224	2467.002061
986.248869	2468.958028
986.545478	2465.068778
986.842050	2468.579942
987.138586	2465.252780
987.435086	2465.903089
987.731549	2466.702112
988.027975	2465.668675
988.324366	2464.163891
988.620719	2467.387709
988.917037	2462.308746
989.213318	2463.589199
989.509563	2462.034003
989.805772	2466.906279
990.101944	2465.759416
990.398080	2466.298820
990.694180	2465.966103
990.990244	2463.929477
991.286271	2461.295474
991.582262	2464.350414
991.878217	2465.489714
992.174136	2465.358644
992.470019	2464.027780
992.765865	2463.566514
993.061676	2460.937552
993.357450	2466.324025
993.653188	2457.305401
993.948890	2466.271093
994.244556	2464.819241
994.540186	2464.849488
994.835780	2467.009622
995.131337	2463.823613
995.426859	2465.167081
995.722345	2468.839561
996.017795	2465.638428
996.313208	2469.827627
996.608586	2466.865949
996.903928	2468.476598
997.199234	2465.509879
997.494504	2465.134313
997.789738	2467.097842
998.084936	2466.623974
998.380099	2466.911320
998.675225	2466.001392
998.970316	2464.423510
999.265371	2468.584983
999.560390	2463.647173
999.855373	2465.237657
1000.150320	2463.783284
1000.445232	2465.703963
1000.740108	2464.133644
1001.034948	2467.289406
1001.329752	2464.007615
1001.624521	2465.782101
1001.919254	2464.993161
1002.213951	2468.032977
1002.508613	2463.989971
1002.803239	2462.636421
1003.097829	2464.668006
1003.392384	2463.102728
1003.686903	2462.540639
1003.981386	2465.242698
1004.275834	2463.281689
1004.570246	2462.402008
1004.864623	2465.479632
1005.158964	2464.083233
1005.453270	2462.132306
1005.747540	2464.902420
1006.041775	2462.800259
1006.335974	2463.543829
1006.630138	2465.550208
1006.924266	2462.916205
1007.218359	2463.158181
1007.512416	2462.979220
1007.806438	2459.616770
1008.100425	2460.572069
1008.394376	2459.727676
1008.688292	2464.713377
1008.982172	2464.884776
1009.276017	2464.148767
1009.569827	2465.671196
1009.863602	2463.178345
1010.157341	2459.876390
1010.451045	2460.420834
1010.744714	2461.814713
1011.038347	2464.920064
1011.331945	2464.105918
1011.625508	2463.415280
1011.919036	2462.490228
1012.212528	2465.036011
1012.505986	2464.572224
1012.799408	2463.223716
1013.092795	2463.780763
1013.386147	2462.457460
1013.679464	2464.683130
1013.972745	2464.252111
1014.265992	2462.807821
1014.559204	2463.238839
1014.852380	2463.253963
1015.145521	2463.364868
1015.438628	2462.283541
1015.731699	2463.606843
1016.024736	2465.189766
1016.317737	2464.758747
1016.610703	2462.318829
1016.903635	2462.873356
1017.196531	2461.335804
1017.489393	2463.306895
1017.782219	2461.308077
1018.075011	2464.254632
1018.367768	2464.201700
1018.660490	2463.458129
1018.953177	2463.458129
1019.245829	2463.458129
