Dividing Wavelength (nm)	Counts (n)	Blue Motor Position (mm): 0.000000	Red Motor Position (mm): 26.500000	
326.493990	2053.088042
326.888308	2053.088042
327.282561	2053.088042
327.676750	2024.958403
328.070874	2027.852026
328.464933	2032.825124
328.858929	2039.923068
329.252859	2051.704245
329.646726	2062.217571
330.040528	2079.924624
330.434265	2095.373240
330.827938	2120.100100
331.221547	2137.300517
331.615091	2159.569814
332.008571	2179.268123
332.401986	2197.524661
332.795338	2220.633310
333.188625	2241.057545
333.581847	2260.859198
333.975006	2275.695313
334.368100	2293.256173
334.761129	2311.253092
335.154095	2326.389156
335.546996	2341.878102
335.939833	2362.685464
336.332606	2378.618031
336.725315	2389.953065
337.117960	2401.063768
337.510540	2409.900911
337.903056	2417.457601
338.295508	2426.335072
338.687896	2433.102822
339.080220	2436.951742
339.472480	2443.038936
339.864676	2444.508432
340.256807	2448.420368
340.648875	2449.965481
341.040879	2448.929524
341.432818	2452.365070
341.824694	2454.668878
342.216506	2453.189299
342.608253	2452.876748
342.999937	2452.342385
343.391557	2451.727364
343.783113	2451.860955
344.174605	2448.831222
344.566033	2446.136725
344.957397	2449.080759
345.348697	2445.425922
345.739934	2444.979780
346.131106	2441.120777
346.522215	2439.696651
346.913260	2435.996444
347.304241	2438.524583
347.695159	2434.579880
348.086012	2434.355548
348.476802	2428.578386
348.867528	2426.811462
349.258191	2426.977820
349.648789	2426.650145
350.039324	2420.154618
350.429796	2427.668458
350.820203	2422.440781
351.210548	2423.481779
351.600828	2425.518406
351.991045	2426.342634
352.381198	2425.841039
352.771288	2422.342479
353.161314	2425.702408
353.551276	2426.148550
353.941175	2423.103693
354.331010	2421.762746
354.720782	2424.689136
355.110490	2425.462953
355.500135	2423.927922
355.889717	2425.289033
356.279235	2423.368353
356.668689	2426.047727
357.058080	2423.771646
357.447408	2423.811975
357.836672	2427.111410
358.225873	2424.888261
358.615010	2426.148550
359.004084	2427.960845
359.393095	2429.498397
359.782043	2425.959507
360.170927	2431.305650
360.559748	2431.842533
360.948505	2430.118458
361.337199	2435.235230
361.725830	2430.012594
362.114398	2431.887903
362.502903	2437.362597
362.891344	2432.520568
363.279722	2433.780857
363.668037	2435.169695
364.056289	2437.239088
364.444478	2435.820003
364.832603	2437.838986
365.220665	2434.587441
365.608665	2438.310333
365.996601	2435.603234
366.384474	2437.997782
366.772284	2437.914603
367.160031	2441.231682
367.547715	2440.551126
367.935336	2439.452155
368.322893	2437.158430
368.710388	2436.321598
369.097820	2441.824018
369.485189	2435.275559
369.872495	2440.873760
370.259738	2443.003648
370.646918	2444.027002
371.034035	2445.035233
371.421090	2445.062959
371.808081	2444.195881
372.195010	2445.846858
372.581875	2447.041612
372.968678	2447.124791
373.355418	2455.029320
373.742096	2452.712910
374.128710	2456.982767
374.515262	2458.921091
374.901751	2462.853191
375.288177	2463.821092
375.674540	2468.806794
376.060841	2469.305868
376.447079	2474.762917
376.833254	2480.857672
377.219367	2485.929073
377.605417	2488.951244
377.991404	2495.671103
378.377329	2503.038749
378.763191	2509.042763
379.148991	2519.311593
379.534727	2526.336441
379.920402	2539.700540
380.306013	2542.211035
380.691563	2559.454302
381.077049	2566.302709
381.462474	2580.143197
381.847835	2594.860846
382.233134	2607.425922
382.618371	2617.495626
383.003545	2635.913482
383.388657	2649.411171
383.773706	2668.350786
384.158693	2684.313600
384.543618	2699.744572
384.928480	2715.072200
385.313280	2736.809656
385.698017	2753.924373
386.082692	2777.643002
386.467305	2792.151442
386.851856	2818.579692
387.236344	2846.041377
387.620770	2861.144674
388.005133	2883.562685
388.389435	2918.200453
388.773674	2929.548091
389.157851	2963.177628
389.541965	2993.361537
389.926018	3002.498628
390.310008	3033.587424
390.693936	3060.940724
391.077802	3088.611618
391.461606	3121.313583
391.845348	3137.198259
392.229027	3167.241015
392.612645	3208.845658
392.996200	3235.989751
393.379694	3275.101543
393.763125	3318.452945
394.146494	3345.166019
394.529801	3379.881925
394.913047	3423.467742
395.296230	3431.031993
395.679351	3454.979994
396.062410	3504.539578
396.445408	3482.194663
396.828343	3524.739481
397.211217	3560.466138
397.594028	3537.251625
397.976778	3581.833069
398.359466	3617.224490
398.742092	3626.414513
399.124656	3639.403046
399.507158	3700.489228
399.889598	3705.762275
400.271977	3769.981533
400.654294	3760.662961
401.036549	3818.449707
401.418742	3820.473730
401.800874	3890.233217
402.182944	3916.676590
402.564952	4003.633973
402.946898	3994.675843
403.328783	3988.291221
403.710606	4039.476577
404.092367	4109.851085
404.474067	4178.511600
404.855705	4158.760359
405.237282	4131.427223
405.618797	4231.766349
406.000250	4303.761588
406.381642	4393.605032
406.762972	4391.903642
407.144240	4357.628837
407.525447	4421.747273
407.906593	4439.572793
408.287677	4525.721071
408.668700	4550.803332
409.049661	4591.969394
409.430560	4624.056339
409.811399	4609.868011
410.192176	4657.615300
410.572891	4742.188217
410.953545	4849.252243
411.334138	4745.187704
411.714669	4857.766752
412.095139	4771.396663
412.475547	4882.009660
412.855894	4885.167943
413.236180	4985.076051
413.616405	4911.641563
413.996568	5022.325137
414.376670	5018.027553
414.756711	5015.617881
415.136691	5089.957257
415.516609	5172.533877
415.896466	5206.642324
416.276262	5287.202483
416.655997	5400.220111
417.035670	5493.554554
417.415283	5636.914887
417.794834	5711.609664
418.174324	5669.072407
418.553753	5673.314538
418.933121	5834.649106
419.312428	5852.401529
419.691674	5775.153408
420.070859	6005.481207
420.449983	5873.226535
420.829045	6073.950158
421.208047	6006.285271
421.586988	6159.443086
421.965867	6231.602162
422.344686	6320.863353
422.723444	6485.699001
423.102141	6099.899498
423.480777	6493.923644
423.859352	6303.695703
424.237866	6679.181007
424.616319	6671.473082
424.994712	6838.489030
425.373044	6748.708600
425.751314	7063.964718
426.129524	6780.919053
426.507673	7050.421658
426.885762	7094.493946
427.263789	7139.524052
427.641756	7223.648307
428.019662	7299.129504
428.397508	7348.759663
428.775292	7317.133985
429.153016	7493.652507
429.530679	7425.027280
429.908282	7475.451421
430.285824	7418.985457
430.663305	7701.985752
431.040726	7584.408400
431.418086	7591.778567
431.795385	7722.546097
432.172624	7916.564986
432.549802	7796.862787
432.926920	7930.627284
433.303977	7870.534210
433.680974	7916.532218
434.057910	8117.858259
434.434786	8168.438676
434.811601	8124.278168
435.188355	8461.344838
435.565050	8352.342489
435.941683	8357.030762
436.318257	8692.995939
436.694770	8648.525401
437.071222	8878.291111
437.447614	8650.740988
437.823946	8618.608673
438.200218	8775.968290
438.576429	8651.655957
438.952580	8809.796953
439.328670	8812.942633
439.704700	8894.054799
440.080670	8786.098489
440.456580	9059.760046
440.832429	9033.369606
441.208218	8767.950335
441.583947	8884.166575
441.959616	8999.556066
442.335224	9035.524699
442.710773	9116.233572
443.086261	9294.697980
443.461689	9009.214917
443.837057	9175.351183
444.212365	9390.507629
444.587612	9369.740596
444.962800	9268.524309
445.337927	9396.246983
445.712995	8929.179038
446.088002	9602.498231
446.462949	9655.758021
446.837837	9640.115321
447.212664	9652.224173
447.587431	10471.578031
447.962139	11472.587347
448.336786	12404.157290
448.711374	12177.711179
449.085901	10981.515948
449.460369	10886.810311
449.834776	10649.714763
450.209124	11543.367668
450.583412	11352.275169
450.957640	11655.503094
451.331808	11237.077242
451.705917	10653.556123
452.079965	10523.827070
452.453954	10704.544873
452.827883	10625.020671
453.201752	10584.499877
453.575562	10561.043388
453.949311	10880.453416
454.323001	10919.953377
454.696632	10810.323404
455.070202	11354.687361
455.443713	11375.595547
455.817164	11502.441060
456.190556	11778.945828
456.563888	11620.754420
456.937160	11835.202584
457.310373	11311.202368
457.683526	11284.774119
458.056619	11257.211611
458.429653	11273.940680
458.802628	11358.919410
459.175542	11349.913389
459.548398	11788.148454
459.921194	12238.066394
460.293930	12432.596959
460.666607	13161.404132
461.039224	13814.160459
461.411782	14055.863621
461.784280	13715.487434
462.156719	13603.682203
462.529099	13456.760295
462.901419	12819.250938
463.273680	12374.296015
463.645882	12483.391625
464.018024	12300.942185
464.390106	12534.461034
464.762130	13334.650946
465.134094	14464.728924
465.505999	16188.622058
465.877845	17936.669881
466.249631	18880.620897
466.621358	18398.374038
466.993026	17627.785782
467.364634	16892.588946
467.736184	16132.045188
468.107674	15528.407345
468.479105	15297.255317
468.850477	14964.534122
469.221790	14519.916956
469.593043	13921.625256
469.964238	13527.437272
470.335373	13442.907204
470.706449	13810.626610
471.077467	14264.695940
471.448425	15839.749006
471.819324	17013.246442
472.190164	16830.338257
472.560945	15520.248237
472.931667	14314.174865
473.302330	13950.337148
473.672934	13452.465232
474.043479	13597.867232
474.413965	13329.266994
474.784393	13079.003952
475.154761	13364.050955
475.525070	13311.844766
475.895321	13076.926997
476.265513	13258.582455
476.635645	13473.194457
477.005719	13367.662942
477.375734	13442.012399
477.745691	13647.799861
478.115588	13855.651675
478.485427	14348.653836
478.855207	15164.100800
479.224928	15977.967362
479.594591	16577.174032
479.964194	16219.559619
480.333739	16272.796724
480.703226	16190.136925
481.072653	16205.033534
481.442022	16268.786487
481.811333	16270.961744
482.180584	15864.455701
482.549777	15567.970320
482.918912	15253.218318
483.287988	15036.988106
483.657005	14777.724084
484.025964	14429.939922
484.394864	14320.241893
484.763706	14101.375158
485.132489	13687.667826
485.501213	13531.266028
485.869879	13424.426334
486.238487	13213.484293
486.607036	13142.671205
486.975527	12820.372595
487.343959	12779.224177
487.712333	12728.275756
488.080648	12520.882686
488.448905	12500.859223
488.817104	12265.008841
489.185244	12370.736960
489.553326	12504.413237
489.921350	12963.115387
490.289315	13606.081792
490.657222	13706.045353
491.025070	13691.678064
491.392861	13391.374009
491.760593	12931.376282
492.128267	12405.026889
492.495883	11904.175651
492.863440	11443.371340
493.230939	10978.864301
493.598380	10628.052925
493.965763	10402.700746
494.333088	10093.652809
494.700354	9869.089570
495.067563	9687.446714
495.434713	9482.460796
495.801805	9379.613696
496.168839	9177.501235
496.535815	8977.032191
496.902733	8838.745779
497.269593	8643.184298
497.636395	8510.612034
498.003139	8405.758555
498.369825	8197.037142
498.736453	8115.957744
499.103023	7932.023684
499.469535	7794.692571
499.835989	7656.958165
500.202385	7484.381825
500.568723	7337.956471
500.935003	7244.352326
501.301226	7077.669095
501.667390	7051.480300
502.033497	6940.947961
502.399546	6772.361694
502.765537	6580.205513
503.131470	6511.008114
503.497345	6428.355876
503.863163	6169.696793
504.228923	6129.123066
504.594625	6048.237753
504.960269	5875.215271
505.325856	5817.184028
505.691385	5664.545451
506.056856	5579.874231
506.422270	5508.862018
506.787625	5357.161096
507.152924	5284.079488
507.518164	5191.798647
507.883347	5053.008119
508.248472	4964.465293
508.613540	4914.779681
508.978550	4835.870500
509.343503	4728.766145
509.708398	4660.277029
510.073236	4607.949852
510.438016	4528.539076
510.802738	4421.563271
511.167403	4372.868245
511.532010	4306.201506
511.896561	4256.959516
512.261053	4217.835121
512.625488	4134.426710
512.989866	4059.174886
513.354186	3995.827746
513.718449	3928.460287
514.082655	3898.404928
514.446803	3829.744412
514.810894	3796.135040
515.174927	3740.808376
515.538904	3684.791075
515.902822	3659.091272
516.266684	3599.519957
516.630488	3563.710121
516.994235	3518.569109
517.357925	3493.691015
517.721558	3459.138946
518.085133	3428.342537
518.448651	3397.614184
518.812112	3356.768235
519.175516	3326.493586
519.538863	3304.257056
519.902152	3279.694034
520.265385	3265.293978
520.628560	3236.831623
520.991678	3210.499156
521.354739	3193.197916
521.717743	3175.039680
522.080690	3150.567399
522.443580	3141.689927
522.806413	3122.697380
523.169189	3104.362703
523.531908	3092.107658
523.894569	3070.758372
524.257174	3060.368553
524.619722	3049.572923
524.982213	3037.597662
525.344647	3024.258768
525.707025	3014.864578
526.069345	3007.325533
526.431608	2993.873214
526.793815	2989.525218
527.155964	2973.743886
527.518057	2966.950932
527.880093	2955.936010
528.242072	2953.415433
528.603995	2943.882612
528.965860	2930.034562
529.327669	2927.395518
529.689421	2917.237593
530.051117	2912.463620
530.412755	2906.041190
530.774337	2898.461815
531.135862	2892.092318
531.497331	2887.706514
531.858743	2881.382386
532.220098	2880.081768
532.581396	2870.536344
532.942638	2864.151722
533.303824	2861.217771
533.664953	2852.229393
534.026025	2848.105730
534.387040	2842.683969
534.747999	2842.673886
535.108902	2839.855881
535.469748	2828.311639
535.830537	2827.119406
536.191270	2824.863490
536.551947	2816.684218
536.912567	2813.755307
537.273131	2810.813794
537.633638	2801.780046
537.994089	2802.223668
538.354483	2796.025569
538.714821	2800.182001
539.075103	2795.375260
539.435328	2791.886782
539.795497	2785.121553
540.155609	2784.791358
540.515665	2786.346554
540.875665	2776.501180
541.235609	2777.116201
541.595496	2773.166457
541.955328	2775.432456
542.315102	2768.160591
542.674821	2763.976434
543.034483	2760.160280
543.394090	2759.890578
543.753640	2754.720875
544.113134	2759.305805
544.472571	2752.709455
544.831953	2755.151894
545.191278	2750.332551
545.550548	2744.648650
545.909761	2746.786099
546.268918	2744.144534
546.628019	2745.548496
546.987064	2739.783936
547.346053	2735.002402
547.704986	2735.327556
548.063863	2735.650190
548.422684	2731.397977
548.781449	2727.637276
549.140158	2728.743809
549.498811	2726.697101
549.857408	2724.441185
550.215949	2723.732902
550.574434	2723.932028
550.932864	2718.721996
551.291237	2721.640824
551.649555	2721.673591
552.007817	2719.841132
552.366022	2716.050184
552.724173	2715.903991
553.082267	2715.583877
553.440305	2712.725543
553.798288	2712.551623
554.156215	2711.598845
554.514086	2709.239585
554.871902	2702.940663
555.229661	2704.253884
555.587365	2700.730117
555.945014	2703.898483
556.302606	2702.602906
556.660143	2705.105839
557.017625	2703.228009
557.375050	2699.873121
557.732421	2701.050231
558.089735	2700.314222
558.446994	2699.903368
558.804197	2703.265818
559.161345	2698.030580
559.518437	2695.157122
559.875474	2693.841381
560.232455	2694.799200
560.589381	2694.993284
560.946251	2694.020342
561.303065	2695.336083
561.659825	2694.602595
562.016528	2691.983716
562.373177	2688.233097
562.729770	2690.441122
563.086307	2691.683767
563.442789	2690.589837
563.799216	2690.529343
564.155587	2686.927438
564.511904	2687.691173
564.868164	2687.418951
565.224370	2687.492047
565.580520	2687.113961
565.936615	2686.662778
566.292654	2683.007941
566.648638	2686.700586
567.004567	2684.061542
567.360441	2687.910463
567.716260	2682.531552
568.072023	2686.592202
568.427732	2684.910977
568.783385	2680.419309
569.138982	2684.149762
569.494525	2688.051616
569.850013	2683.481810
570.205445	2682.544155
570.560823	2683.388548
570.916145	2680.252951
571.271412	2679.350584
571.626625	2680.958712
571.981782	2679.940399
572.336884	2675.461334
572.691931	2675.824297
573.046923	2676.706499
573.401860	2670.044614
573.756743	2675.284893
574.111570	2676.230110
574.466342	2676.051149
574.821059	2674.730367
575.175722	2673.286076
575.530330	2677.074503
575.884882	2671.110818
576.239380	2670.677279
576.593823	2671.977897
576.948211	2670.357166
577.302544	2668.504542
577.656823	2671.496466
578.011047	2671.430931
578.365216	2669.779953
578.719330	2668.844819
579.073389	2668.698626
579.427394	2668.272648
579.781344	2667.955056
580.135239	2664.181752
580.489080	2665.300888
580.842866	2663.173521
581.196597	2666.682164
581.550273	2666.730055
581.903895	2665.557987
582.257463	2664.716114
582.610975	2664.063285
582.964434	2666.271310
583.317837	2662.087153
583.671186	2664.995898
584.024481	2662.286278
584.377721	2661.114210
584.730906	2660.436175
585.084037	2662.918943
585.437113	2660.562204
585.790135	2662.283758
586.143103	2661.038593
586.496016	2659.909374
586.848874	2657.711431
587.201679	2663.039931
587.554428	2660.441216
587.907124	2660.176555
588.259765	2658.747388
588.612352	2659.438026
588.964884	2656.793941
589.317362	2658.238232
589.669786	2656.027686
590.022155	2655.049702
590.374470	2653.728920
590.726731	2655.334527
591.078937	2648.821356
591.431090	2653.113899
591.783188	2650.127015
592.135232	2655.029537
592.487222	2653.398724
592.839157	2653.943169
593.191038	2653.035761
593.542866	2648.639875
593.894639	2649.363280
594.246358	2649.340595
594.598022	2648.869247
594.949633	2649.509474
595.301190	2647.067035
595.652692	2647.140132
596.004141	2649.506953
596.355535	2644.402785
596.706876	2645.501757
597.058162	2645.295069
597.409395	2643.447486
597.760573	2649.045688
598.111698	2644.758186
598.462768	2643.860861
598.813785	2643.946561
599.164748	2641.040335
599.515657	2640.853813
599.866511	2641.693165
600.217312	2643.346663
600.568060	2638.907927
600.918753	2644.213742
601.269392	2644.140645
601.619978	2641.264667
601.970510	2640.601755
602.320988	2642.540079
602.671412	2641.388175
603.021783	2642.512352
603.372100	2641.771303
603.722363	2641.829276
604.072572	2640.498411
604.422728	2641.519245
604.772830	2637.781229
605.122878	2641.950264
605.472872	2641.262146
605.822813	2639.969090
606.172701	2638.993627
606.522534	2642.570326
606.872314	2641.350366
607.222041	2640.236271
607.571714	2636.311733
607.921333	2635.336270
608.270899	2638.756693
608.620411	2635.147227
608.969870	2637.806435
609.319276	2639.117135
609.668627	2642.706437
610.017926	2640.594193
610.367171	2642.701396
610.716362	2639.991775
611.065500	2641.733494
611.414585	2642.257774
611.763616	2641.914976
612.112594	2638.907927
612.461518	2641.146200
612.810389	2641.902373
613.159207	2640.284162
613.507971	2640.531179
613.856682	2643.886067
614.205340	2643.059317
614.553945	2645.829432
614.902496	2642.202321
615.250994	2643.830614
615.599439	2644.841365
615.947830	2644.576705
616.296169	2642.461941
616.644454	2644.029740
616.992686	2644.632157
617.340864	2646.986376
617.688990	2643.933958
618.037063	2648.118115
618.385082	2646.850265
618.733048	2646.147024
619.080961	2646.998979
619.428821	2646.527631
619.776628	2645.670635
620.124382	2645.161479
620.472083	2648.871768
620.819731	2646.222642
621.167326	2645.027888
621.514868	2645.630306
621.862357	2642.494708
622.209793	2641.957825
622.557176	2640.596714
622.904506	2641.458751
623.251783	2638.040849
623.599007	2638.635705
623.946179	2637.377937
624.293297	2636.639408
624.640363	2633.680251
624.987376	2631.111783
625.334336	2629.022225
625.681243	2631.394087
626.028097	2628.240846
626.374899	2628.119858
626.721647	2630.519447
627.068343	2628.044241
627.414987	2627.623304
627.761577	2624.452419
628.108115	2626.456277
628.454600	2624.336472
628.801032	2625.692542
629.147412	2627.277985
629.493739	2625.279168
629.840014	2620.669033
630.186236	2623.303036
630.532405	2619.668364
630.878521	2623.159363
631.224585	2622.947634
631.570597	2621.125257
631.916556	2623.073663
632.262462	2621.707510
632.608316	2618.198867
632.954117	2620.275823
633.299866	2616.754577
633.645562	2623.151801
633.991206	2619.358333
634.336797	2616.673918
634.682336	2615.567385
635.027823	2612.414143
635.373257	2615.252313
635.718639	2613.167796
636.063968	2613.066973
636.409245	2610.697630
636.754470	2609.114708
637.099642	2608.691251
637.444762	2609.394492
637.789829	2609.374328
638.134845	2606.427773
638.479808	2603.796291
638.824719	2608.310644
639.169577	2605.676641
639.514383	2603.332505
639.859137	2602.304109
640.203839	2601.752103
640.548489	2603.317381
640.893086	2602.009202
641.237632	2602.689757
641.582125	2602.697319
641.926566	2598.835795
642.270955	2596.600044
642.615292	2597.860332
642.959576	2597.207503
643.303809	2594.460074
643.647990	2600.849736
643.992118	2598.868563
644.336195	2597.293202
644.680219	2600.358224
645.024192	2599.917123
645.368112	2602.170519
645.711981	2603.675303
646.055797	2605.759820
646.399562	2604.708740
646.743274	2607.012547
647.086935	2607.889708
647.430544	2606.400047
647.774101	2607.685541
648.117606	2610.843824
648.461059	2609.606221
648.804460	2609.276025
649.147810	2606.024481
649.491108	2604.802001
649.834354	2604.179418
650.177548	2603.062803
650.520690	2598.770260
650.863781	2601.484922
651.206820	2600.756475
651.549807	2599.856629
651.892742	2599.521392
652.235626	2595.959817
652.578458	2596.229519
652.921238	2591.508478
653.263967	2594.248345
653.606644	2593.401432
653.949269	2594.749940
654.291843	2589.832295
654.634365	2591.074939
654.976836	2591.674836
655.319255	2591.871441
655.661622	2592.952769
656.003938	2588.264496
656.346203	2590.772470
656.688416	2592.504106
657.030577	2591.657192
657.372687	2590.346492
657.714746	2591.442943
658.056753	2589.698704
658.398708	2586.951275
658.740612	2589.290371
659.082465	2590.157449
659.424266	2584.269381
659.766016	2584.718044
660.107715	2587.954465
660.449362	2584.052612
660.790958	2589.824733
661.132503	2588.209043
661.473996	2588.672829
661.815438	2587.805751
662.156829	2590.253231
662.498168	2588.869434
662.839456	2585.817016
663.180693	2589.330700
663.521879	2590.641400
663.863013	2589.166862
664.204097	2590.880855
664.545129	2591.188365
664.886110	2589.486976
665.227040	2589.991091
665.567918	2591.684919
665.908746	2589.849939
666.249522	2589.907912
666.590248	2588.471183
666.930922	2592.191555
667.271545	2593.436720
667.612118	2592.005032
667.952639	2589.716348
668.293109	2592.317583
668.633528	2590.137284
668.973896	2589.214753
669.314213	2590.918663
669.654480	2589.350864
669.994695	2587.715010
670.334859	2589.355906
670.674973	2588.400607
671.015035	2590.656523
671.355047	2588.972778
671.695008	2588.700556
672.034918	2586.779876
672.374777	2590.026379
672.714585	2589.426482
673.054342	2588.418251
673.394049	2588.042685
673.733705	2589.224836
674.073310	2588.947572
674.412864	2589.633169
674.752368	2585.759042
675.091820	2588.642582
675.431223	2584.518918
675.770574	2586.167376
676.109875	2583.861048
676.449125	2582.152097
676.788324	2579.112281
677.127473	2580.334761
677.466571	2575.830490
677.805619	2579.921386
678.144616	2581.577405
678.483562	2580.922055
678.822458	2579.331571
679.161303	2580.105388
679.500098	2579.588670
679.838842	2580.359967
680.177535	2578.066242
680.516179	2579.901222
680.854771	2578.461972
681.193314	2582.149576
681.531805	2585.265009
681.870247	2588.725761
682.208638	2591.135433
682.546978	2591.039651
682.885268	2594.906216
683.223508	2591.818509
683.561697	2594.084508
683.899836	2589.537387
684.237925	2588.892119
684.575963	2586.794999
684.913951	2584.065215
685.251889	2585.625452
685.589776	2585.817016
685.927614	2586.278281
686.265401	2584.050091
686.603137	2585.340627
686.940824	2587.465473
687.278460	2591.022007
687.616046	2588.942531
687.953582	2591.102665
688.291068	2592.521750
688.628504	2592.272213
688.965889	2593.708942
689.303224	2593.683736
689.640510	2589.411358
689.977745	2591.427820
690.314930	2589.665937
690.652065	2586.900864
690.989150	2583.490523
691.326185	2579.180337
691.663170	2578.668659
692.000105	2576.417784
692.336990	2574.353432
692.673825	2570.776733
693.010610	2569.778585
693.347345	2566.784139
693.684030	2562.098387
694.020665	2564.664334
694.357251	2556.895916
694.693786	2564.858418
695.030272	2561.231308
695.366707	2557.495813
695.703093	2558.947666
696.039429	2558.251986
696.375716	2560.402038
696.711952	2556.527912
697.048139	2559.396328
697.384276	2555.938097
697.720363	2555.728889
698.056400	2556.580844
698.392388	2554.087993
698.728326	2555.713765
699.064214	2555.628066
699.400053	2556.278375
699.735842	2551.774104
700.071581	2552.051367
700.407270	2553.097407
700.742910	2549.566078
701.078501	2550.009700
701.414042	2547.393341
701.749533	2546.652291
702.084974	2550.624721
702.420366	2547.824360
702.755709	2547.708413
703.091002	2543.647764
703.426246	2545.636499
703.761440	2544.918134
704.096584	2544.386293
704.431679	2541.845551
704.766725	2543.153731
705.101721	2543.274718
705.436668	2541.485109
705.771565	2543.705737
706.106413	2543.151210
706.441212	2544.764379
706.775961	2545.739843
707.110661	2541.222969
707.445311	2547.867209
707.779913	2547.431150
708.114465	2545.197918
708.448967	2547.607590
708.783421	2550.196223
709.117825	2550.415513
709.452180	2550.259237
709.786485	2551.083466
710.120742	2555.267623
710.454949	2553.495658
710.789107	2556.046482
711.123216	2555.489434
711.457275	2560.545711
711.791286	2565.720456
712.125247	2565.387740
712.459159	2562.289951
712.793023	2566.912689
713.126837	2563.454457
713.460602	2564.306412
713.794318	2563.005794
714.127985	2563.202399
714.461602	2558.811554
714.795171	2557.944476
715.128691	2555.751574
715.462162	2553.906512
715.795584	2552.182437
716.128957	2554.511450
716.462281	2546.548948
716.795556	2547.910059
717.128782	2545.661705
717.461960	2544.474513
717.795088	2543.191539
718.128167	2545.946530
718.461198	2540.257588
718.794180	2540.290355
719.127113	2540.005530
719.459997	2537.573173
719.792833	2538.563760
720.125619	2539.095602
720.458357	2534.709798
720.791046	2535.216434
721.123686	2531.743079
721.456278	2532.489170
721.788821	2534.813142
722.121315	2530.538243
722.453761	2531.430527
722.786158	2532.317770
723.118506	2534.903882
723.450805	2532.282482
723.783056	2533.515044
724.115259	2530.722245
724.447412	2533.676361
724.779518	2531.478418
725.111574	2534.641742
725.443582	2534.608975
725.775542	2535.082843
726.107453	2535.012267
726.439315	2536.383461
726.771129	2535.672658
727.102895	2532.884900
727.434612	2537.719367
727.766281	2537.172402
728.097901	2541.795140
728.429473	2543.869574
728.760996	2543.536858
729.092471	2543.983000
729.423897	2541.729605
729.755276	2541.432177
730.086606	2544.345963
730.417887	2543.473844
730.749120	2548.061294
731.080305	2545.986859
731.411442	2549.520708
731.742530	2548.915769
732.073570	2551.206974
732.404562	2552.590771
732.735506	2553.087324
733.066401	2550.990204
733.397249	2550.826367
733.728048	2547.002652
734.058798	2545.233207
734.389501	2542.102650
734.720156	2539.506456
735.050762	2535.037473
735.381320	2534.906403
735.711831	2532.544622
736.042293	2532.698378
736.372707	2532.469005
736.703073	2531.977492
737.033391	2534.125024
737.363661	2534.263656
737.693883	2532.353058
738.024056	2535.292051
738.354182	2536.398584
738.684260	2534.150230
739.014290	2537.295910
739.344272	2536.091074
739.674207	2538.387320
740.004093	2538.984696
740.333931	2540.796991
740.663722	2540.227341
740.993464	2539.330015
741.323159	2539.723225
741.652806	2539.226672
741.982405	2539.239275
742.311956	2536.902700
742.641460	2537.578214
742.970915	2534.838347
743.300323	2532.060672
743.629683	2526.996832
743.958996	2528.872142
744.288260	2525.552542
744.617477	2527.442975
744.946647	2530.535723
745.275768	2527.611853
745.604842	2523.372243
745.933869	2524.642614
746.262847	2526.754857
746.591778	2524.110772
746.920662	2526.129754
747.249498	2525.340813
747.578286	2527.223684
747.907027	2529.293078
748.235720	2526.659075
748.564365	2526.999353
748.892963	2528.463808
749.221514	2526.858201
749.550017	2529.008253
749.878473	2528.441123
750.206881	2526.470032
750.535242	2526.396935
750.863555	2524.877027
751.191821	2527.193438
751.520039	2522.371574
751.848210	2526.230577
752.176334	2527.029600
752.504411	2524.314939
752.832440	2527.284178
753.160421	2523.752850
753.488356	2525.895340
753.816243	2523.891482
754.144082	2521.801923
754.471875	2523.367202
754.799620	2523.523477
755.127318	2523.301667
755.454969	2523.004239
755.782572	2525.872655
756.110129	2521.733868
756.437638	2523.483148
756.765100	2522.152284
757.092515	2523.256296
757.419882	2523.984743
757.747203	2521.323014
758.074477	2525.113962
758.401703	2523.533560
758.728882	2523.755371
759.056014	2524.526667
759.383099	2522.479959
759.710138	2522.308559
760.037129	2524.655217
760.364073	2524.050278
760.690970	2524.259486
761.017820	2525.487007
761.344623	2529.489683
761.671379	2528.665454
761.998088	2530.719725
762.324751	2537.331198
762.651366	2549.397200
762.977935	2566.209448
763.304456	2581.932807
763.630931	2590.165011
763.957359	2590.301122
764.283740	2579.477765
764.610074	2574.958370
764.936362	2562.375650
765.262602	2553.649413
765.588796	2545.512991
765.914943	2538.722556
766.241044	2533.041176
766.567097	2529.030938
766.893104	2524.075484
767.219064	2519.666995
767.544978	2520.261851
767.870845	2518.328568
768.196665	2516.307066
768.522438	2516.896881
768.848165	2512.077538
769.173846	2513.539472
769.499479	2513.476458
769.825066	2510.043432
770.150607	2510.993690
770.476101	2508.778103
770.801548	2509.677948
771.126949	2509.919924
771.452303	2505.221568
771.777611	2507.553102
772.102872	2508.586539
772.428087	2506.050838
772.753256	2505.826507
773.078378	2503.835251
773.403453	2505.065293
773.728482	2508.430263
774.053465	2504.281393
774.378401	2503.442041
774.703291	2501.322236
775.028135	2499.227637
775.352932	2502.244767
775.677683	2501.801146
776.002388	2499.706546
776.327046	2495.688747
776.651658	2500.752586
776.976224	2496.079436
777.300743	2500.538337
777.625216	2497.831237
777.949643	2497.601864
778.274024	2497.291833
778.598359	2500.712256
778.922647	2501.791063
779.246889	2496.069354
779.571086	2497.712770
779.895236	2501.493635
780.219339	2500.687051
780.543397	2502.688389
780.867409	2499.512462
781.191374	2497.682523
781.515294	2498.557163
781.839167	2500.472802
782.162995	2497.183449
782.486776	2501.004643
782.810511	2498.612616
783.134201	2500.109838
783.457844	2497.012049
783.781441	2499.101608
784.104993	2498.514313
784.428498	2498.526916
784.751958	2497.385095
785.075372	2498.642863
785.398739	2496.591113
785.722061	2501.352483
786.045337	2495.552635
786.368568	2500.893738
786.691752	2497.977430
787.014891	2500.871053
787.337983	2501.445744
787.661030	2503.648728
787.984031	2508.604183
788.306987	2507.802639
788.629897	2509.645181
788.952760	2513.002589
789.275579	2512.223731
789.598351	2509.120901
789.921078	2507.117042
790.243759	2507.366579
790.566395	2501.420538
790.888984	2501.355003
791.211529	2504.392299
791.534027	2502.340549
791.856480	2497.954745
792.178888	2496.044148
792.501249	2494.131030
792.823566	2498.093377
793.145836	2490.526605
793.468062	2494.693119
793.790241	2496.467605
794.112375	2499.353665
794.434464	2497.783346
794.756507	2498.506752
795.078505	2496.505413
795.400457	2502.327946
795.722364	2502.577483
796.044226	2502.264932
796.366042	2506.174347
796.687812	2503.966321
797.009538	2503.953718
797.331218	2504.190653
797.652852	2504.251146
797.974442	2504.515807
798.295986	2504.490601
798.617484	2500.818121
798.938938	2500.193017
799.260346	2502.993378
799.581709	2500.888697
799.903026	2502.305261
800.224299	2498.529437
800.545526	2501.786022
800.866708	2498.272338
801.187845	2498.360558
801.508936	2499.121772
801.829983	2496.558346
802.150984	2496.495331
802.471940	2497.793428
802.792851	2494.430979
803.113717	2495.408963
803.434538	2495.058602
803.755314	2492.177583
804.076045	2495.754282
804.396731	2494.577172
804.717372	2495.363592
805.037967	2494.491473
805.358518	2496.109683
805.679024	2495.713952
805.999485	2496.054230
806.319901	2497.609426
806.640272	2495.381236
806.960598	2494.746051
807.280879	2497.203613
807.601115	2500.024139
807.921306	2495.512306
808.241453	2493.352172
808.561554	2492.338900
808.881611	2495.255207
809.201623	2487.985863
809.521590	2495.504744
809.841513	2495.240084
810.161390	2496.049189
810.481223	2499.245281
810.801011	2494.115907
811.120755	2497.813593
811.440453	2495.333345
811.760107	2493.778149
812.079716	2496.749909
812.399281	2493.974754
812.718801	2496.059271
813.038276	2494.025166
813.357707	2495.847543
813.677093	2495.497183
813.996434	2493.891575
814.315731	2495.479539
814.634983	2492.941318
814.954191	2496.570948
815.273354	2494.025166
815.592473	2493.805876
815.911547	2499.061278
816.230577	2496.316370
816.549562	2498.572287
816.868502	2498.048007
817.187399	2500.172853
817.506250	2497.367451
817.825058	2499.676299
818.143821	2501.455827
818.462539	2505.513955
818.781213	2509.284738
819.099843	2510.096364
819.418429	2513.305059
819.736970	2521.849814
820.055466	2526.906092
820.373919	2536.524613
820.692327	2551.713610
821.010691	2570.330591
821.329011	2616.656274
821.647286	2691.895495
821.965517	2795.216464
822.283704	2866.458050
822.601847	2905.138824
822.919945	2881.417674
823.237999	2839.492918
823.556010	2792.968109
823.873976	2751.113930
824.191897	2705.945191
824.509775	2670.490756
824.827609	2641.967908
825.145398	2618.282046
825.463144	2611.237034
825.780845	2610.324585
826.098502	2615.103599
826.416116	2634.191928
826.733685	2655.329486
827.051210	2665.749551
827.368692	2661.603202
827.686129	2641.660397
828.003522	2620.255658
828.320872	2595.884200
828.638177	2576.516087
828.955439	2563.194838
829.272656	2547.998279
829.589830	2539.599717
829.906960	2530.455064
830.224046	2521.449043
830.541088	2516.085255
830.858086	2510.071158
831.175041	2513.915038
831.491952	2505.813904
831.808819	2512.395130
832.125642	2511.061745
832.442421	2516.201202
832.759157	2524.478776
833.075849	2540.451672
833.392497	2563.424210
833.709101	2580.468351
834.025662	2581.637899
834.342179	2578.436766
834.658653	2562.158881
834.975083	2546.702703
835.291469	2540.557536
835.607811	2525.232429
835.924110	2523.904085
836.240366	2515.671880
836.556578	2509.325068
836.872746	2506.131497
837.188871	2500.319046
837.504952	2497.531288
837.820990	2497.606906
838.136984	2492.903509
838.452935	2494.950217
838.768842	2491.973416
839.084706	2499.237719
839.400526	2500.833244
839.716303	2512.097702
840.032037	2519.059536
840.347727	2519.646830
840.663373	2515.255985
840.978977	2507.112001
841.294537	2503.820128
841.610054	2502.247288
841.925527	2497.569097
842.240957	2496.192862
842.556344	2491.670947
842.871687	2488.648775
843.186987	2486.939824
843.502244	2487.156594
843.817458	2486.289515
844.132629	2484.116778
844.447756	2484.026037
844.762840	2483.232055
845.077881	2482.753146
845.392879	2482.828763
845.707833	2480.144349
846.022745	2479.065542
846.337613	2480.716520
846.652438	2481.528145
846.967221	2480.025882
847.281960	2479.546972
847.596656	2479.352888
847.911309	2478.891622
848.225919	2480.461941
848.540485	2477.084368
848.855009	2480.802219
849.169490	2475.655201
849.483928	2479.975470
849.798323	2478.798361
850.112675	2479.221818
850.426984	2477.260809
850.741251	2476.461786
851.055474	2477.404482
851.369654	2478.125367
851.683792	2478.677373
851.997887	2477.003710
852.311938	2477.497743
852.625947	2476.086220
852.939914	2479.136118
853.253837	2476.865078
853.567718	2478.697537
853.881555	2478.868937
854.195350	2480.000676
854.509103	2479.892291
854.822812	2477.066724
855.136479	2476.403812
855.450103	2476.355922
855.763685	2475.347691
856.077224	2475.057824
856.390720	2477.099492
856.704173	2473.424491
857.017584	2475.980356
857.330953	2476.923051
857.644278	2478.637044
857.957561	2480.618217
858.270802	2477.654019
858.584000	2477.996817
858.897155	2481.565954
859.210268	2479.262147
859.523339	2479.370532
859.836367	2479.436067
860.149352	2478.818525
860.462295	2477.792650
860.775195	2476.416415
861.088054	2475.529172
861.400869	2479.163844
861.713642	2479.831797
862.026373	2479.342805
862.339062	2476.247537
862.651708	2477.495222
862.964312	2476.285345
863.276873	2479.635192
863.589392	2478.848772
863.901869	2481.563433
864.214303	2476.844913
864.526696	2477.540593
864.839045	2480.761890
865.151353	2480.025882
865.463619	2484.446973
865.775842	2482.097796
866.088023	2480.514873
866.400162	2482.720378
866.712258	2478.395068
867.024313	2480.676190
867.336325	2481.850779
867.648296	2481.593680
867.960224	2481.364308
868.272110	2481.462610
868.583954	2480.769452
868.895755	2485.271202
869.207515	2482.216263
869.519233	2482.433033
869.830909	2481.132415
870.142542	2480.832466
870.454134	2482.901860
870.765684	2482.097796
871.077191	2484.686428
871.388657	2480.225007
871.700081	2479.869606
872.011463	2483.786582
872.322803	2478.962198
872.634101	2485.374546
872.945357	2483.564772
873.256571	2485.669453
873.567744	2485.780359
873.878874	2489.997284
874.189963	2485.634165
874.501010	2487.600215
874.812015	2485.901346
875.122979	2487.607777
875.433900	2487.756491
875.744780	2489.689773
876.055618	2488.008549
876.366415	2488.651296
876.677169	2487.511995
876.987882	2489.893940
877.298554	2485.067035
877.609183	2492.560711
877.919771	2492.570793
878.230317	2491.071050
878.540822	2496.197903
878.851285	2495.424086
879.161707	2502.653101
879.472087	2507.384223
879.782425	2518.439474
880.092722	2538.415046
880.402977	2564.795404
880.713191	2607.062958
881.023363	2644.382620
881.333494	2675.204235
881.643583	2690.889785
881.953631	2694.121165
882.263637	2683.733867
882.573602	2670.750376
882.883526	2655.042140
883.193408	2639.031436
883.503248	2622.080556
883.813048	2608.802157
884.122806	2596.607605
884.432522	2578.381314
884.742197	2565.851526
885.051831	2554.907181
885.361424	2543.350336
885.670975	2533.598223
885.980485	2524.733354
886.289954	2518.873013
886.599382	2513.965450
886.908768	2510.706344
887.218113	2502.396002
887.527417	2500.276197
887.836680	2496.644045
888.145901	2496.124806
888.455082	2496.397029
888.764221	2494.834271
889.073319	2491.297902
889.382376	2490.627428
889.691392	2490.703045
890.000366	2491.678509
890.309300	2489.510813
890.618193	2491.416369
890.927044	2489.485607
891.235855	2491.456698
891.544625	2490.587099
891.853353	2492.159939
892.162041	2493.521050
892.470687	2495.633294
892.779293	2494.738489
893.087858	2497.904334
893.396381	2502.164109
893.704864	2512.049811
894.013306	2522.192613
894.321707	2534.523275
894.630068	2542.271529
894.938387	2547.688248
895.246665	2546.027188
895.554903	2542.677342
895.863100	2534.346835
896.171256	2531.226361
896.479371	2526.160001
896.787446	2520.644979
897.095480	2514.308248
897.403473	2513.209277
897.711425	2510.716426
898.019336	2508.246261
898.327207	2501.750734
898.635038	2502.567401
898.942827	2499.285610
899.250576	2497.276710
899.558284	2494.536843
899.865952	2492.303612
900.173579	2489.707417
900.481165	2489.629280
900.788711	2490.818992
901.096216	2490.672798
901.403681	2486.917139
901.711105	2485.976964
902.018489	2485.455204
902.325832	2487.242293
902.633135	2482.725419
902.940397	2490.330000
903.247619	2491.683550
903.554800	2510.509739
903.861941	2531.677544
904.169041	2551.922818
904.476101	2561.175856
904.783121	2563.983778
905.090100	2556.913560
905.397039	2545.724719
905.703938	2537.401774
906.010796	2530.949097
906.317614	2527.347193
906.624391	2517.799247
906.931129	2513.224400
907.237826	2508.707526
907.544483	2504.805673
907.851099	2496.165136
908.157675	2495.532471
908.464211	2490.745895
908.770707	2485.989567
909.077163	2484.449494
909.383578	2483.100985
909.689954	2483.317755
909.996289	2480.202322
910.302584	2478.384986
910.608839	2479.546972
910.915054	2477.880871
911.221229	2478.823566
911.527363	2480.109061
911.833458	2479.985552
912.139513	2480.761890
912.445527	2480.106540
912.751502	2482.690131
913.057436	2479.771303
913.363331	2483.516881
913.669186	2486.957468
913.975000	2489.687253
914.280775	2492.328818
914.586510	2498.340393
914.892205	2507.502691
915.197859	2520.702952
915.503475	2534.608975
915.809050	2549.908877
916.114585	2558.050340
916.420081	2561.833726
916.725536	2564.800445
917.030952	2560.631411
917.336328	2552.673950
917.641665	2544.509801
917.946961	2540.101312
918.252218	2537.961342
918.557435	2527.742923
918.862612	2527.889117
919.167750	2522.303518
919.472848	2520.040040
919.777906	2513.637775
920.082925	2507.976559
920.387904	2503.000940
920.692843	2500.709736
920.997743	2493.596668
921.302603	2493.364775
921.607423	2490.425782
921.912204	2489.591471
922.216946	2486.642396
922.521647	2485.021665
922.826310	2485.130050
923.130932	2483.960502
923.435516	2481.639051
923.740059	2482.249030
924.044564	2479.990593
924.349028	2482.017137
924.653454	2478.263998
924.957840	2478.798361
925.262186	2472.791826
925.566493	2477.396920
925.870761	2476.834831
926.174989	2474.798205
926.479178	2473.532875
926.783328	2473.396764
927.087438	2475.892135
927.391509	2472.068420
927.695541	2472.880046
927.999533	2474.135293
928.303486	2468.491722
928.607400	2473.651343
928.911275	2469.320991
929.215110	2473.633698
929.518906	2470.634212
929.822663	2472.025570
930.126381	2469.464664
930.430060	2472.174284
930.733699	2469.779736
931.037299	2472.867443
931.340861	2471.024901
931.644383	2475.501446
931.947866	2470.452730
932.251309	2472.801908
932.554714	2471.408029
932.858080	2469.973821
933.161407	2469.326032
933.464694	2470.508183
933.767943	2463.490897
934.071153	2472.754017
934.374323	2470.903914
934.677455	2471.902062
934.980548	2468.615230
935.283602	2471.975159
935.586617	2471.334932
935.889593	2472.000365
936.192530	2469.411732
936.495428	2472.194449
936.798287	2470.593883
937.101108	2472.214614
937.403890	2469.285703
937.706632	2472.731332
938.009336	2474.979687
938.312002	2471.077833
938.614628	2476.335757
938.917216	2478.475727
939.219765	2476.633185
939.522275	2474.778040
939.824747	2476.262660
940.127179	2475.239306
940.429573	2477.631333
940.731929	2477.918679
941.034246	2478.042188
941.336524	2476.610500
941.638763	2477.001189
941.940964	2476.494553
942.243126	2475.430870
942.545250	2479.156283
942.847335	2476.761734
943.149381	2472.885087
943.451389	2473.053966
943.753359	2475.241827
944.055290	2471.788636
944.357182	2473.517752
944.659036	2472.885087
944.960851	2475.007413
945.262628	2472.680920
945.564367	2474.220993
945.866067	2471.284521
946.167729	2473.936168
946.469352	2472.065900
946.770937	2474.684779
947.072484	2469.777216
947.373992	2471.644963
947.675462	2471.153451
947.976893	2472.280149
948.278286	2467.488532
948.579641	2471.455920
948.880958	2466.228243
949.182236	2471.750828
949.483476	2472.736373
949.784678	2472.222175
950.085841	2471.604634
950.386967	2471.292083
950.688054	2472.133955
950.989103	2471.556743
951.290114	2473.263174
951.591087	2472.259984
951.892021	2472.227217
952.192917	2473.981538
952.493776	2471.019860
952.794596	2474.072279
953.095378	2474.110088
953.396122	2477.986735
953.696828	2474.364666
953.997496	2473.116980
954.298126	2474.508339
954.598718	2471.060189
954.899272	2471.776033
955.199788	2475.942547
955.500266	2475.360294
955.800706	2472.880046
956.101108	2472.761579
956.401472	2469.459623
956.701798	2472.287710
957.002087	2469.547843
957.302337	2469.618419
957.602550	2469.144551
957.902724	2469.318471
958.202861	2467.574232
958.502960	2469.313430
958.803022	2467.244036
959.103045	2468.637915
959.403031	2465.154478
959.702979	2468.297637
960.002889	2466.147585
960.302762	2465.512400
960.602596	2467.775878
960.902393	2466.147585
961.202153	2465.514920
961.501875	2468.093470
961.801559	2466.694550
962.101205	2463.087605
962.400814	2462.643983
962.700385	2468.153964
962.999918	2464.103397
963.299414	2461.335804
963.598873	2462.948973
963.898293	2456.708024
964.197677	2465.303192
964.497022	2464.960393
964.796331	2467.153295
965.095601	2462.747327
965.394835	2464.224385
965.694030	2465.950980
965.993189	2465.961062
966.292309	2462.926288
966.591393	2463.526185
966.890439	2464.428552
967.189447	2468.337966
967.488419	2464.121041
967.787353	2464.562142
968.086249	2464.201700
968.385108	2463.866463
968.683930	2463.674899
968.982714	2462.220526
969.281462	2466.140023
969.580172	2464.557101
969.878844	2466.160188
970.177480	2464.607513
970.476078	2465.845116
970.774639	2464.257152
971.073162	2466.142544
971.371649	2464.589868
971.670098	2462.749847
971.968510	2465.754375
972.266885	2464.269755
972.565223	2466.240846
972.863524	2463.861422
973.161788	2465.159519
973.460014	2466.737400
973.758204	2467.536423
974.056356	2463.919395
974.354471	2466.896196
974.652550	2467.269242
974.950591	2467.112966
975.248595	2467.473408
975.546563	2467.407873
975.844493	2467.675055
976.142386	2465.537605
976.440243	2464.350414
976.738062	2467.801083
977.035845	2465.212451
977.333590	2467.118007
977.631299	2464.199179
977.928971	2461.182048
978.226606	2461.645835
978.524204	2461.731534
978.821765	2461.129116
979.119290	2464.632718
979.416777	2465.081381
979.714228	2465.247739
980.011642	2463.831175
980.309020	2464.872173
980.606360	2464.126082
980.903664	2467.007102
981.200931	2467.730507
981.498162	2465.580455
981.795356	2471.191259
982.092513	2470.903914
982.389633	2469.915848
982.686717	2474.636888
982.983764	2474.417598
983.280775	2477.172588
983.577749	2476.822228
983.874686	2476.779378
984.171587	2475.047742
984.468451	2474.452886
984.765279	2473.893318
985.062070	2472.375931
985.358824	2473.374079
985.655543	2471.070272
985.952224	2472.113791
986.248869	2470.760241
986.545478	2468.073306
986.842050	2467.435600
987.138586	2468.569859
987.435086	2463.959724
987.731549	2465.134313
988.027975	2465.393932
988.324366	2463.783284
988.620719	2465.162039
988.917037	2463.349745
989.213318	2464.718418
989.509563	2462.764971
989.805772	2466.321505
990.101944	2464.763788
990.398080	2461.431586
990.694180	2463.826134
990.990244	2461.545012
991.286271	2462.873356
991.582262	2460.314970
991.878217	2462.119703
992.174136	2465.295630
992.470019	2463.284210
992.765865	2461.245063
993.061676	2462.328911
993.357450	2464.105918
993.653188	2457.529733
993.948890	2465.335959
994.244556	2462.863273
994.540186	2465.280507
994.835780	2466.434931
995.131337	2469.361321
995.426859	2467.793522
995.722345	2465.867801
996.017795	2465.005764
996.313208	2469.678913
996.608586	2469.651187
996.903928	2471.408029
997.199234	2470.180508
997.494504	2470.273769
997.789738	2469.651187
998.084936	2468.116156
998.380099	2469.026084
998.675225	2468.010291
998.970316	2468.537092
999.265371	2465.096504
999.560390	2467.556587
999.855373	2464.423510
1000.150320	2464.736062
1000.445232	2464.577266
1000.740108	2462.041565
1001.034948	2461.401339
1001.329752	2462.714559
1001.624521	2461.938222
1001.919254	2463.069961
1002.213951	2464.899899
1002.508613	2462.054168
1002.803239	2461.948304
1003.097829	2460.982923
1003.392384	2465.744293
1003.686903	2462.147429
1003.981386	2463.553911
1004.275834	2460.685495
1004.570246	2461.013170
1004.864623	2460.045268
1005.158964	2462.651545
1005.453270	2463.700105
1005.747540	2460.453602
1006.041775	2461.655917
1006.335974	2460.471246
1006.630138	2460.751030
1006.924266	2463.006946
1007.218359	2460.372943
1007.512416	2458.573251
1007.806438	2457.449074
1008.100425	2459.394959
1008.394376	2456.655092
1008.688292	2461.265227
1008.982172	2458.177521
1009.276017	2461.315639
1009.569827	2461.000567
1009.863602	2463.490897
1010.157341	2460.463684
1010.451045	2460.002418
1010.744714	2462.459981
1011.038347	2461.217337
1011.331945	2461.393777
1011.625508	2460.032665
1011.919036	2459.599126
1012.212528	2461.464353
1012.505986	2463.730352
1012.799408	2460.549384
1013.092795	2460.430917
1013.386147	2461.020732
1013.679464	2458.568210
1013.972745	2458.611060
1014.265992	2461.688684
1014.559204	2457.945628
1014.852380	2459.273972
1015.145521	2460.854373
1015.438628	2462.757409
1015.731699	2460.488890
1016.024736	2461.925619
1016.317737	2462.245732
1016.610703	2461.872687
1016.903635	2461.418983
1017.196531	2462.328911
1017.489393	2458.724486
1017.782219	2459.997377
1018.075011	2459.954527
1018.367768	2461.282872
1018.660490	2461.706328
1018.953177	2461.706328
1019.245829	2461.706328
