Dividing Wavelength (nm)	Counts (n)	Blue Motor Position (mm): 0.000000	Red Motor Position (mm): 36.000000	
326.493990	2053.120809
326.888308	2053.120809
327.282561	2053.120809
327.676750	2028.835051
328.070874	2030.027283
328.464933	2035.809487
328.858929	2043.398944
329.252859	2054.728937
329.646726	2063.724876
330.040528	2084.013000
330.434265	2098.095463
330.827938	2120.629421
331.221547	2140.080713
331.615091	2163.832109
332.008571	2181.284584
332.401986	2201.804601
332.795338	2221.500389
333.188625	2242.370766
333.581847	2263.251225
333.975006	2277.598349
334.368100	2296.454785
334.761129	2312.220993
335.154095	2329.154229
335.546996	2353.094669
335.939833	2390.351316
336.332606	2403.382699
336.725315	2413.528021
337.117960	2427.025711
337.510540	2435.986362
337.903056	2447.540686
338.295508	2451.157714
338.687896	2460.836729
339.080220	2463.836216
339.472480	2467.402832
339.864676	2476.340798
340.256807	2475.040180
340.648875	2475.292238
341.040879	2474.939357
341.432818	2482.357415
341.824694	2481.938999
342.216506	2481.437405
342.608253	2480.318268
342.999937	2480.582929
343.391557	2481.044195
343.783113	2476.718885
344.174605	2474.820890
344.566033	2474.548668
344.957397	2476.121508
345.348697	2472.529686
345.739934	2470.714870
346.131106	2469.381485
346.522215	2466.833182
346.913260	2465.023408
347.304241	2465.782101
347.695159	2460.186421
348.086012	2460.372943
348.476802	2456.723148
348.867528	2456.128292
349.258191	2452.717951
349.648789	2453.378342
350.039324	2450.991356
350.429796	2457.323045
350.820203	2453.645523
351.210548	2455.513271
351.600828	2452.899433
351.991045	2452.344906
352.381198	2454.084104
352.771288	2453.847170
353.161314	2451.324072
353.551276	2453.229628
353.941175	2451.767694
354.331010	2451.273661
354.720782	2452.879268
355.110490	2452.329782
355.500135	2452.349947
355.889717	2453.070832
356.279235	2454.101748
356.668689	2454.868003
357.058080	2456.282047
357.447408	2452.778445
357.836672	2456.012345
358.225873	2457.242387
358.615010	2456.045113
359.004084	2458.079218
359.393095	2456.478652
359.782043	2455.006635
360.170927	2457.983436
360.559748	2460.486369
360.948505	2460.756071
361.337199	2460.501493
361.725830	2460.196503
362.114398	2460.972841
362.502903	2461.098869
362.891344	2462.739765
363.279722	2461.633232
363.668037	2463.150619
364.056289	2460.962758
364.444478	2465.835033
364.832603	2463.710187
365.220665	2465.908130
365.608665	2466.540795
365.996601	2462.374281
366.384474	2467.387709
366.772284	2468.842082
367.160031	2466.147585
367.547715	2467.690178
367.935336	2468.080867
368.322893	2470.074644
368.710388	2463.223716
369.097820	2470.775364
369.485189	2469.225209
369.872495	2470.238481
370.259738	2469.845271
370.646918	2472.640591
371.034035	2476.862557
371.421090	2474.881384
371.808081	2474.430201
372.195010	2477.621251
372.581875	2476.610500
372.968678	2483.224494
373.355418	2479.804071
373.742096	2480.383803
374.128710	2485.147694
374.515262	2488.676502
374.901751	2489.591471
375.288177	2494.420896
375.674540	2496.991885
376.060841	2501.450785
376.447079	2502.307782
376.833254	2510.479492
377.219367	2513.549555
377.605417	2520.297139
377.991404	2525.388704
378.377329	2532.426155
378.763191	2537.603420
379.148991	2548.719164
379.534727	2556.842984
379.920402	2564.051834
380.306013	2575.248237
380.691563	2587.087386
381.077049	2596.421083
381.462474	2605.820314
381.847835	2622.080556
382.233134	2635.845426
382.618371	2648.428146
383.003545	2662.898778
383.388657	2677.132476
383.773706	2694.292564
384.158693	2709.773947
384.543618	2726.908829
384.928480	2740.736714
385.313280	2762.317894
385.698017	2780.987807
386.082692	2805.495377
386.467305	2819.383756
386.851856	2844.362673
387.236344	2872.736807
387.620770	2886.726009
388.005133	2908.607138
388.389435	2943.265070
388.773674	2955.177317
389.157851	2988.146463
389.541965	3015.976153
389.926018	3029.322608
390.310008	3062.926939
390.693936	3086.847214
391.077802	3115.896863
391.461606	3148.780310
391.845348	3163.646672
392.229027	3193.328986
392.612645	3233.751478
392.996200	3262.760798
393.379694	3299.470480
393.763125	3343.973787
394.146494	3368.879607
394.529801	3404.432345
394.913047	3448.789457
395.296230	3455.562248
395.679351	3478.907831
396.062410	3529.944472
396.445408	3507.942357
396.828343	3546.741597
397.211217	3582.412802
397.594028	3557.698545
397.976778	3605.960031
398.359466	3636.824496
398.742092	3646.019560
399.124656	3666.595030
399.507158	3720.545458
399.889598	3727.023341
400.271977	3791.318217
400.654294	3779.786578
401.036549	3840.424097
401.418742	3837.714477
401.800874	3908.083943
402.182944	3936.321966
402.564952	4020.524359
402.946898	4011.392309
403.328783	4007.293851
403.710606	4056.561047
404.092367	4131.424703
404.474067	4193.390566
404.855705	4180.449924
405.237282	4149.368690
405.618797	4243.532402
406.000250	4322.552489
406.381642	4407.218668
406.762972	4409.666148
407.144240	4376.407135
407.525447	4437.142957
407.906593	4455.333961
408.287677	4543.710429
408.668700	4567.355961
409.049661	4605.187300
409.430560	4645.453516
409.811399	4621.404692
410.192176	4676.375954
410.572891	4756.162296
410.953545	4859.321947
411.334138	4760.452318
411.714669	4868.310325
412.095139	4781.108446
412.475547	4893.480806
412.855894	4903.109410
413.236180	4998.639275
413.616405	4928.990694
413.996568	5029.506260
414.376670	5029.783524
414.756711	5027.956105
415.136691	5100.394966
415.516609	5182.215413
415.896466	5218.975507
416.276262	5299.926355
416.655997	5409.634466
417.035670	5502.626110
417.415283	5643.213809
417.794834	5711.750816
418.174324	5674.491648
418.553753	5678.998439
418.933121	5841.517678
419.312428	5856.883115
419.691674	5785.449965
420.070859	6012.188462
420.449983	5886.656169
420.829045	6081.605150
421.208047	6010.512278
421.586988	6162.966853
421.965867	6234.289097
422.344686	6320.432334
422.723444	6483.639690
423.102141	6105.434684
423.480777	6492.824672
423.859352	6309.193082
424.237866	6672.330078
424.616319	6668.188771
424.994712	6832.873184
425.373044	6746.596357
425.751314	7064.068062
426.129524	6784.767974
426.507673	7047.152470
426.885762	7095.582835
427.263789	7129.751776
427.641756	7220.492545
428.019662	7305.501522
428.397508	7344.152049
428.775292	7323.778225
429.153016	7493.344997
429.530679	7424.850839
429.908282	7479.025599
430.285824	7420.399501
430.663305	7703.457768
431.040726	7590.551046
431.418086	7590.513237
431.795385	7720.068370
432.172624	7916.877537
432.549802	7801.036863
432.926920	7931.537212
433.303977	7870.093109
433.680974	7914.702279
434.057910	8115.267106
434.434786	8167.861464
434.811601	8122.969989
435.188355	8462.889951
435.565050	8349.640430
435.941683	8362.548305
436.318257	8699.025159
436.694770	8644.787385
437.071222	8880.882264
437.447614	8655.046133
437.823946	8623.886761
438.200218	8769.324050
438.576429	8655.272985
438.952580	8818.175351
439.328670	8826.117689
439.704700	8898.952280
440.080670	8798.799676
440.456580	9066.426972
440.832429	9036.974031
441.208218	8782.988097
441.583947	8891.478769
441.959616	9013.318416
442.335224	9044.404692
442.710773	9122.076269
443.086261	9310.076020
443.461689	9027.335345
443.837057	9194.449595
444.212365	9412.749200
444.587612	9391.248679
444.962800	9288.147001
445.337927	9421.898894
445.712995	8958.427813
446.088002	9626.884813
446.462949	9690.920069
446.837837	9675.607565
447.212664	9701.138488
447.587431	10524.003510
447.962139	11532.516584
448.336786	12473.021972
448.711374	12259.841658
449.085901	11050.113449
449.460369	10971.695780
449.834776	10737.128371
450.209124	11656.486119
450.583412	11481.916002
450.957640	11798.039198
451.331808	11387.568287
451.705917	10817.776750
452.079965	10687.510814
452.453954	10894.195602
452.827883	10843.741213
453.201752	10807.631428
453.575562	10818.926133
453.949311	11155.143369
454.323001	11221.686599
454.696632	11139.185596
455.070202	11724.024977
455.443713	11779.535643
455.817164	11951.212137
456.190556	12266.765683
456.563888	12137.359263
456.937160	12402.128225
457.310373	11879.438709
457.683526	11898.217007
458.056619	11914.850294
458.429653	11978.474697
458.802628	12119.518620
459.175542	12170.192298
459.548398	12713.807644
459.921194	13291.342393
460.293930	13574.801433
460.666607	14431.220375
461.039224	15226.535491
461.411782	15585.453042
461.784280	15253.729995
462.156719	15212.115270
462.529099	15119.438698
462.901419	14477.931706
463.273680	14079.572167
463.645882	14290.592347
464.018024	14172.939378
464.390106	14541.414957
464.762130	15600.780670
465.134094	17122.526055
465.505999	19400.391585
465.877845	21681.468330
466.249631	22945.048665
466.621358	22493.872958
466.993026	21689.382942
467.364634	20947.181423
467.736184	20153.877727
468.107674	19521.775008
468.479105	19391.415811
468.850477	19120.539491
469.221790	18689.185600
469.593043	18019.344804
469.964238	17627.790823
470.335373	17685.030604
470.706449	18385.667810
471.077467	19249.076311
471.448425	21730.349878
471.819324	23611.569862
472.190164	23532.290156
472.560945	21796.600722
472.931667	20208.072651
473.302330	19877.287259
473.672934	19310.361618
474.043479	19738.227031
474.413965	19526.637201
474.784393	19338.614765
475.154761	20021.481903
475.525070	20140.163268
475.895321	19981.664350
476.265513	20500.686426
476.635645	21098.806727
477.005719	21166.053199
477.375734	21516.564626
477.745691	22156.834014
478.115588	22802.573054
478.485427	23990.964580
478.855207	25800.421218
479.224928	27620.340771
479.594591	29062.922397
479.964194	28717.557988
480.333739	29183.413535
480.703226	29397.402954
481.072653	29842.599853
481.442022	30356.437103
481.811333	30772.773396
482.180584	30340.507057
482.549777	30119.268459
482.918912	29878.331552
483.287988	29813.950976
483.657005	29672.571816
484.025964	29300.063315
484.394864	29506.405303
484.763706	29430.293962
485.132489	28876.797955
485.501213	28951.401991
485.869879	29136.180444
486.238487	29069.359950
486.607036	29338.557565
486.975527	29017.287351
487.343959	29381.183042
487.712333	29722.665762
488.080648	29667.611321
488.448905	30113.304774
488.817104	29978.043054
489.185244	30820.548411
489.553326	31766.677206
489.921350	33654.140659
490.289315	36184.416762
490.657222	37118.860163
491.025070	37697.340128
491.392861	37438.857485
491.760593	36657.818917
492.128267	35669.906518
492.495883	34667.641955
492.863440	33781.018940
493.230939	32761.566562
493.598380	32214.936606
493.965763	32039.111242
494.333088	31540.215973
494.700354	31337.748111
495.067563	31297.612964
495.434713	31175.485971
495.801805	31464.218058
496.168839	31288.823713
496.535815	31132.880660
496.902733	31276.399789
497.269593	31091.386922
497.636395	31248.580182
498.003139	31519.035565
498.369825	31263.133993
498.736453	31671.618689
499.103023	31513.076921
499.469535	31595.073809
499.835989	31714.118136
500.202385	31572.512125
500.568723	31625.938273
500.935003	31922.411052
501.301226	31785.657151
501.667390	32530.381767
502.033497	32738.384816
502.399546	32527.949410
502.765537	32124.422689
503.131470	32607.897069
503.497345	33051.657239
503.863163	31965.369244
504.228923	32757.299225
504.594625	33146.032681
504.960269	32624.129585
505.325856	33281.712816
505.691385	32939.993161
506.056856	33272.926085
506.422270	33772.312867
506.787625	33289.370328
507.152924	33733.475818
507.518164	33908.736572
507.883347	33488.634537
508.248472	33627.052019
508.613540	34324.261240
508.978550	34537.194537
509.343503	34386.743821
509.708398	34732.012448
510.073236	35336.923183
510.438016	35423.101708
510.802738	35088.386737
511.167403	35644.589844
511.532010	35885.269652
511.896561	36401.647643
512.261053	37168.359252
512.625488	36939.674870
512.989866	36848.745057
513.354186	36894.488487
513.718449	36850.443926
514.082655	37757.087883
514.446803	37436.072248
514.810894	38068.782426
515.174927	38067.028104
515.538904	38062.803617
515.902822	38699.942449
516.266684	38379.756083
516.630488	38735.154909
516.994235	38734.078622
517.357925	39301.793204
517.721558	39564.586033
518.085133	39941.666862
518.448651	40113.532399
518.812112	40009.979537
519.175516	40150.758800
519.538863	40605.995157
519.902152	40649.616261
520.265385	41176.759636
520.628560	41199.820394
520.991678	41125.811215
521.354739	41351.869156
521.717743	41698.829090
522.080690	41591.150044
522.443580	42271.166410
522.806413	42257.610747
523.169189	42393.931109
523.531908	42587.708022
523.894569	42438.840228
524.257174	42602.473561
524.619722	42951.641521
524.982213	43076.243720
525.344647	43113.253351
525.707025	43220.861821
526.069345	43641.283970
526.431608	43531.601065
526.793815	43904.510338
527.155964	43416.786265
527.518057	43646.751101
527.880093	43490.679498
528.242072	44110.897697
528.603995	43802.890759
528.965860	43680.047922
529.327669	43876.988159
529.689421	43923.770067
530.051117	43858.532495
530.412755	44098.796407
530.774337	44122.613339
531.135862	44015.829097
531.497331	44165.758054
531.858743	44113.367863
532.220098	44496.258621
532.581396	44183.386969
532.942638	43912.019137
533.303824	44127.679698
533.664953	44140.693437
534.026025	43769.503197
534.387040	44296.964165
534.747999	44324.519112
535.108902	44613.767917
535.469748	43890.387546
535.830537	44116.037154
536.191270	44310.582842
536.551947	43988.044778
536.912567	44216.139346
537.273131	44290.997960
537.633638	43890.208585
537.994089	43992.256662
538.354483	43696.129203
538.714821	44286.042505
539.075103	44498.766595
539.435328	44319.954347
539.795497	44006.737377
540.155609	44080.749077
540.515665	44586.752373
540.875665	43825.160056
541.235609	44016.260116
541.595496	44093.838433
541.955328	44575.361886
542.315102	43959.287516
542.674821	43773.871357
543.034483	43609.169299
543.394090	43567.115994
543.753640	43465.055313
544.113134	44414.818780
544.472571	43471.911283
544.831953	44469.878263
545.191278	43677.882747
545.550548	43298.956856
545.909761	43807.828569
546.268918	43848.866082
546.628019	44148.482020
546.987064	43518.743602
547.346053	42777.308338
547.704986	43552.670567
548.063863	43105.797485
548.422684	43206.010582
548.781449	42701.612893
549.140158	43091.392387
549.498811	42754.948300
549.857408	42087.129006
550.215949	42771.304324
550.574434	42499.664270
550.932864	42348.646424
551.291237	42887.681881
551.649555	42536.222717
552.007817	42579.256527
552.366022	42197.666387
552.724173	42119.929274
553.082267	42362.071017
553.440305	42572.607245
553.798288	41770.743670
554.156215	41996.504184
554.514086	42036.115050
554.871902	41529.433718
555.229661	41566.874368
555.587365	41135.792699
555.945014	41128.788016
556.302606	40993.743066
556.660143	40928.003900
557.017625	40993.803560
557.375050	40554.988762
557.732421	40780.179625
558.089735	40680.402587
558.446994	40418.489439
558.804197	40662.987921
559.161345	40407.870249
559.518437	39669.691570
559.875474	39735.985264
560.232455	39769.418196
560.589381	39636.218309
560.946251	39326.512502
561.303065	39720.087985
561.659825	39269.670972
562.016528	38926.507026
562.373177	38403.678879
562.729770	38783.562588
563.086307	38183.319962
563.442789	38470.166657
563.799216	38162.714245
564.155587	37919.360105
564.511904	37713.822181
564.868164	37562.915240
565.224370	37646.195102
565.580520	37227.774291
565.936615	37181.980450
566.292654	36727.225523
566.648638	36833.326688
567.004567	36582.763698
567.360441	36451.333255
567.716260	36038.049381
568.072023	36163.024626
568.427732	35884.909209
568.783385	35335.030230
569.138982	35439.606446
569.494525	35356.359352
569.850013	34836.223180
570.205445	34752.356024
570.560823	34369.830750
570.916145	34080.529013
571.271412	34067.013680
571.626625	33583.350256
571.981782	33421.267078
572.336884	32929.154680
572.691931	32957.241469
573.046923	32498.236850
573.401860	32171.892714
573.756743	31969.928968
574.111570	31888.234549
574.466342	31615.815636
574.821059	31502.382113
575.175722	30948.787803
575.530330	30807.973253
575.884882	30359.328205
576.239380	30076.527036
576.593823	29933.469172
576.948211	29677.991057
577.302544	29168.085907
577.656823	28971.496030
578.011047	28908.819365
578.365216	28609.969682
578.719330	28199.932311
579.073389	27992.980343
579.427394	27806.394636
579.781344	27536.869345
580.135239	27179.814501
580.489080	27002.323036
580.842866	26510.228282
581.196597	26582.039519
581.550273	26363.739913
581.903895	26120.116071
582.257463	26167.013926
582.610975	25632.603727
582.964434	25613.812826
583.317837	25119.038699
583.671186	24893.215172
584.024481	24841.308931
584.377721	24394.778647
584.730906	24308.489217
585.084037	24183.776112
585.437113	23824.109949
585.790135	23685.979813
586.143103	23247.603595
586.496016	23134.570844
586.848874	22987.548113
587.201679	22807.828457
587.554428	22348.044980
587.907124	22286.051390
588.259765	21978.566211
588.612352	21855.277232
588.964884	21400.827295
589.317362	21352.664112
589.669786	21158.758649
590.022155	20906.433776
590.374470	20938.319074
590.726731	20556.504602
591.078937	20063.000847
591.431090	20026.328973
591.783188	19631.304158
592.135232	19362.000678
592.487222	19285.092835
592.839157	19177.733902
593.191038	18835.555502
593.542866	18578.741481
593.894639	18139.634296
594.246358	18094.798274
594.598022	17911.582578
594.949633	17552.047486
595.301190	17363.130246
595.652692	17172.136050
596.004141	17196.210080
596.355535	16614.221472
596.706876	16448.722911
597.058162	16169.715211
597.409395	16186.592994
597.760573	16111.404184
598.111698	15807.518389
598.462768	15619.347239
598.813785	15471.117152
599.164748	15194.133474
599.515657	15122.712927
599.866511	14806.299865
600.217312	14872.301172
600.568060	14403.451179
600.918753	14507.833310
601.269392	14342.702754
601.619978	14102.758955
601.970510	14030.746072
602.320988	13923.230863
602.671412	13859.699722
603.021783	13680.506867
603.372100	13411.566351
603.722363	13303.521821
604.072572	13176.099096
604.422728	13031.012167
604.772830	12836.622755
605.122878	12748.642017
605.472872	12572.990573
605.822813	12513.419258
606.172701	12311.263948
606.522534	12264.144283
606.872314	12187.586800
607.222041	12029.236596
607.571714	11979.697177
607.921333	11730.013868
608.270899	11660.224134
608.620411	11631.761780
608.969870	11466.361522
609.319276	11356.431601
609.668627	11241.417676
610.017926	11219.009747
610.367171	11144.418314
610.716362	11038.544001
611.065500	10906.533826
611.414585	10839.763743
611.763616	10769.185068
612.112594	10645.381892
612.461518	10566.689480
612.810389	10529.747905
613.159207	10398.284695
613.507971	10279.830182
613.856682	10275.986303
614.205340	10140.457402
614.553945	10176.564666
614.902496	9955.744484
615.250994	9937.893758
615.599439	9856.748825
615.947830	9785.943299
616.296169	9696.926604
616.644454	9607.239436
616.992686	9542.826093
617.340864	9536.141523
617.688990	9370.267397
618.037063	9403.765864
618.385082	9287.511815
618.733048	9259.072146
619.080961	9158.266713
619.428821	9077.388961
619.776628	9001.524637
620.124382	8885.416782
620.472083	8815.624527
620.819731	8744.778672
621.167326	8590.960465
621.514868	8497.827668
621.862357	8330.116041
622.209793	8258.829085
622.557176	8114.384904
622.904506	7988.298084
623.251783	7861.019032
623.599007	7730.231337
623.946179	7640.821432
624.293297	7524.852208
624.640363	7379.495578
624.987376	7290.126003
625.334336	7190.608585
625.681243	7073.671460
626.028097	6995.498287
626.374899	6916.299239
626.721647	6853.534353
627.068343	6762.720488
627.414987	6669.537279
627.761577	6587.842861
628.108115	6567.078348
628.454600	6430.112718
628.801032	6401.683131
629.147412	6337.342885
629.493739	6272.155724
629.840014	6184.467374
630.186236	6167.526576
630.532405	6067.510084
630.878521	6043.862031
631.224585	5982.213761
631.570597	5910.379839
631.916556	5879.646445
632.262462	5827.228527
632.608316	5773.580568
632.954117	5720.000664
633.299866	5676.256052
633.645562	5619.573318
633.991206	5532.494947
634.336797	5448.358089
634.682336	5391.950098
635.027823	5321.999048
635.373257	5267.478969
635.718639	5198.432805
636.063968	5152.931350
636.409245	5059.115477
636.754470	5012.414228
637.099642	4954.292245
637.444762	4877.132344
637.789829	4849.852140
638.134845	4788.924755
638.479808	4744.625615
638.824719	4710.292837
639.169577	4639.890603
639.514383	4617.147437
639.859137	4557.959250
640.203839	4537.489645
640.548489	4487.738498
640.893086	4455.870843
641.237632	4410.525665
641.582125	4388.873909
641.926566	4346.208103
642.270955	4321.483764
642.615292	4283.087816
642.959576	4251.439452
643.303809	4224.010534
643.647990	4208.977813
643.992118	4180.207948
644.336195	4146.207886
644.680219	4121.932210
645.024192	4108.573152
645.368112	4113.682362
645.711981	4093.827777
646.055797	4101.145012
646.399562	4075.828337
646.743274	4099.428499
647.086935	4099.922532
647.430544	4077.043255
647.774101	4061.355185
648.117606	4054.380748
648.461059	4035.473901
648.804460	4000.546266
649.147810	3946.147175
649.491108	3913.011671
649.834354	3881.930437
650.177548	3824.786438
650.520690	3785.876292
650.863781	3762.361829
651.206820	3733.685226
651.549807	3701.391594
651.892742	3658.766118
652.235626	3639.274497
652.578458	3616.901856
652.921238	3572.811924
653.263967	3568.335380
653.606644	3544.513407
653.949269	3524.119419
654.291843	3494.290912
654.634365	3488.531394
654.976836	3463.565079
655.319255	3450.390024
655.661622	3432.314967
656.003938	3409.836462
656.346203	3391.302659
656.688416	3383.420815
657.030577	3365.769215
657.372687	3346.673324
657.714746	3337.485822
658.056753	3329.069615
658.398708	3298.726910
658.740612	3289.768780
659.082465	3283.348870
659.424266	3268.613578
659.766016	3253.585898
660.107715	3246.074579
660.449362	3232.289544
660.790958	3227.336610
661.132503	3215.477296
661.473996	3212.606358
661.815438	3205.326932
662.156829	3196.509954
662.498168	3182.787933
662.839456	3171.059689
663.180693	3162.943431
663.521879	3156.165600
663.863013	3146.743683
664.204097	3135.673310
664.545129	3138.140954
664.886110	3127.894809
665.227040	3124.668471
665.567918	3117.832666
665.908746	3110.931327
666.249522	3103.936726
666.590248	3098.033534
666.930922	3095.084459
667.271545	3087.623552
667.612118	3081.627099
667.952639	3073.331881
668.293109	3068.948597
668.633528	3057.290929
668.973896	3051.095351
669.314213	3040.748383
669.654480	3035.029194
669.994695	3028.150539
670.334859	3021.145856
670.674973	3008.840399
671.015035	3009.785616
671.355047	3005.230933
671.695008	2995.849346
672.034918	2989.043788
672.374777	2987.604539
672.714585	2983.304435
673.054342	2981.860144
673.394049	2974.779843
673.733705	2974.016109
674.073310	2967.588638
674.412864	2962.678554
674.752368	2952.155145
675.091820	2954.587502
675.431223	2944.351439
675.770574	2935.436158
676.109875	2930.490786
676.449125	2923.460897
676.788324	2915.430339
677.127473	2906.119328
677.466571	2902.073802
677.805619	2899.578431
678.144616	2893.466032
678.483562	2890.975702
678.822458	2882.521687
679.161303	2880.041439
679.500098	2876.999103
679.838842	2870.768237
680.177535	2869.583566
680.516179	2873.976931
680.854771	2867.720859
681.193314	2875.451469
681.531805	2884.840618
681.870247	2888.462687
682.208638	2897.274624
682.546978	2900.967269
682.885268	2900.148081
683.223508	2896.024418
683.561697	2889.755743
683.899836	2887.522512
684.237925	2874.962477
684.575963	2872.804863
684.913951	2865.641383
685.251889	2865.147350
685.589776	2865.195241
685.927614	2859.304653
686.265401	2860.519571
686.603137	2858.041844
686.940824	2861.442102
687.278460	2863.655169
687.616046	2862.364633
687.953582	2872.225130
688.291068	2865.359079
688.628504	2870.261601
688.965889	2867.519213
689.303224	2861.326156
689.640510	2857.865403
689.977745	2851.563961
690.314930	2843.044411
690.652065	2832.916733
690.989150	2826.020435
691.326185	2814.781182
691.663170	2808.487302
692.000105	2798.881383
692.336990	2788.496606
692.673825	2781.154165
693.010610	2777.164092
693.347345	2765.723193
693.684030	2755.081318
694.020665	2756.936462
694.357251	2746.057652
694.693786	2748.416912
695.030272	2745.288876
695.366707	2738.808473
695.703093	2732.940570
696.039429	2733.563152
696.375716	2731.279510
696.711952	2727.622153
697.048139	2726.392111
697.384276	2723.876575
697.720363	2725.492265
698.056400	2721.497151
698.392388	2718.054043
698.728326	2716.887016
699.064214	2715.200750
699.400053	2715.334340
699.735842	2710.265460
700.071581	2707.800336
700.407270	2704.972248
700.742910	2700.967052
701.078501	2695.671320
701.414042	2693.238963
701.749533	2688.180165
702.084974	2685.911646
702.420366	2689.195957
702.755709	2682.639937
703.091002	2678.511232
703.426246	2680.099195
703.761440	2677.051818
704.096584	2674.352280
704.431679	2672.701302
704.766725	2670.125272
705.101721	2671.047804
705.436668	2669.532937
705.771565	2668.701147
706.106413	2669.134686
706.441212	2670.450427
706.775961	2669.651404
707.110661	2668.708708
707.445311	2669.890859
707.779913	2670.962104
708.114465	2672.010664
708.448967	2674.342198
708.783421	2676.512414
709.117825	2680.333609
709.452180	2680.008455
709.786485	2684.706810
710.120742	2688.714527
710.454949	2687.403827
710.789107	2690.511699
711.123216	2695.779704
711.457275	2702.481918
711.791286	2706.870243
712.125247	2705.990562
712.459159	2705.655325
712.793023	2711.649257
713.126837	2703.044007
713.460602	2703.386806
713.794318	2700.576362
714.127985	2699.747092
714.461602	2693.238963
714.795171	2689.662264
715.128691	2678.526355
715.462162	2674.069975
715.795584	2671.846827
716.128957	2667.445899
716.462281	2667.072854
716.795556	2659.415341
717.128782	2659.518685
717.461960	2653.171872
717.795088	2650.865544
718.128167	2650.525266
718.461198	2644.581746
718.794180	2643.586118
719.127113	2639.815335
719.459997	2637.226702
719.792833	2633.365179
720.125619	2633.846609
720.458357	2632.840899
720.791046	2633.161012
721.123686	2625.299332
721.456278	2624.026441
721.788821	2626.027779
722.121315	2621.188272
722.453761	2622.143570
722.786158	2622.279681
723.118506	2622.141050
723.450805	2621.929321
723.783056	2621.737757
724.115259	2623.557614
724.447412	2619.844804
724.779518	2622.582151
725.111574	2623.093828
725.443582	2622.912346
725.775542	2624.898561
726.107453	2627.822430
726.439315	2625.379991
726.771129	2629.163377
727.102895	2631.646145
727.434612	2633.155971
727.766281	2629.244035
728.097901	2637.403143
728.429473	2637.332567
728.760996	2639.384316
729.092471	2640.747948
729.423897	2643.482774
729.755276	2637.221661
730.086606	2637.186373
730.417887	2639.038997
730.749120	2646.900677
731.080305	2648.256747
731.411442	2651.001655
731.742530	2652.027530
732.073570	2653.035761
732.404562	2653.744043
732.735506	2654.991729
733.066401	2651.286481
733.397249	2649.635503
733.728048	2646.547796
734.058798	2639.356590
734.389501	2630.320322
734.720156	2627.517440
735.050762	2620.719444
735.381320	2620.321193
735.711831	2616.174844
736.042293	2610.790892
736.372707	2613.876078
736.703073	2609.492795
737.033391	2612.240223
737.363661	2610.317023
737.693883	2614.123094
738.024056	2611.771396
738.354182	2613.072014
738.684260	2618.365225
739.014290	2617.251130
739.344272	2620.240535
739.674207	2625.513582
740.004093	2625.901750
740.333931	2625.967285
740.663722	2629.042389
740.993464	2626.410907
741.323159	2626.685650
741.652806	2625.097686
741.982405	2623.729013
742.311956	2620.749691
742.641460	2619.073507
742.970915	2614.498660
743.300323	2613.528238
743.629683	2608.224944
743.958996	2606.642022
744.288260	2603.577001
744.617477	2603.140941
744.946647	2600.199427
745.275768	2600.428800
745.604842	2597.588110
745.933869	2598.440065
746.262847	2596.652976
746.591778	2596.723552
746.920662	2595.070053
747.249498	2595.508634
747.578286	2596.763881
747.907027	2598.649273
748.235720	2600.953080
748.564365	2598.908892
748.892963	2597.154571
749.221514	2600.887545
749.550017	2597.169694
749.878473	2598.785384
750.206881	2592.005032
750.535242	2596.025352
750.863555	2596.027873
751.191821	2594.548294
751.520039	2596.163984
751.848210	2594.134919
752.176334	2592.438571
752.504411	2595.475866
752.832440	2592.410845
753.160421	2591.944538
753.488356	2591.319435
753.816243	2591.478231
754.144082	2590.772470
754.471875	2589.902871
754.799620	2590.114599
755.127318	2590.643920
755.454969	2589.267685
755.782572	2592.415886
756.110129	2586.779876
756.437638	2585.975812
756.765100	2588.864393
757.092515	2587.566296
757.419882	2590.689291
757.747203	2588.874475
758.074477	2590.573344
758.401703	2588.236769
758.728882	2591.437902
759.056014	2591.997470
759.383099	2592.375557
759.710138	2589.466811
760.037129	2590.553180
760.364073	2595.896803
760.690970	2591.276585
761.017820	2595.710280
761.344623	2597.356217
761.671379	2598.452668
761.998088	2605.054059
762.324751	2617.500668
762.651366	2639.054121
762.977935	2672.524862
763.304456	2699.142154
763.630931	2713.562375
763.957359	2706.340922
764.283740	2693.503623
764.610074	2677.059380
764.936362	2656.521719
765.262602	2640.321971
765.588796	2625.596761
765.914943	2614.259206
766.241044	2602.397371
766.567097	2594.923860
766.893104	2589.313056
767.219064	2582.207549
767.544978	2577.826787
767.870845	2576.437949
768.196665	2573.735890
768.522438	2570.728842
768.848165	2569.609706
769.173846	2567.134499
769.499479	2566.481670
769.825066	2563.335990
770.150607	2562.005125
770.476101	2560.724672
770.801548	2561.284240
771.126949	2559.822306
771.452303	2558.998077
771.777611	2555.532284
772.102872	2556.613611
772.428087	2555.081101
772.753256	2550.780996
773.078378	2554.889537
773.403453	2549.104813
773.728482	2550.513815
774.053465	2549.061963
774.378401	2547.668084
774.703291	2545.795295
775.028135	2546.039791
775.352932	2542.694986
775.677683	2544.224976
776.002388	2540.764224
776.327046	2540.754141
776.651658	2540.769265
776.976224	2536.993441
777.300743	2540.759182
777.625216	2538.684748
777.949643	2544.280428
778.274024	2541.079296
778.598359	2541.238092
778.922647	2539.007382
779.246889	2538.551157
779.571086	2541.220448
779.895236	2539.019984
780.219339	2540.439069
780.543397	2539.352701
780.867409	2539.955118
781.191374	2539.012423
781.515294	2540.560057
781.839167	2543.378062
782.162995	2538.692309
782.486776	2540.189532
782.810511	2538.450334
783.134201	2540.854964
783.457844	2539.929913
783.781441	2540.562577
784.104993	2538.120138
784.428498	2537.283307
784.751958	2539.377906
785.075372	2537.366486
785.398739	2536.877494
785.722061	2536.358255
786.045337	2538.165509
786.368568	2538.757844
786.691752	2538.399923
787.014891	2541.752290
787.337983	2543.678011
787.661030	2549.374514
787.984031	2558.010011
788.306987	2562.156360
788.629897	2562.582338
788.952760	2560.795248
789.275579	2563.267934
789.598351	2560.414641
789.921078	2553.619166
790.243759	2553.939279
790.566395	2548.663712
790.888984	2546.312013
791.211529	2543.178936
791.534027	2538.664583
791.856480	2541.361600
792.178888	2537.053934
792.501249	2533.323481
792.823566	2536.007895
793.145836	2532.839530
793.468062	2539.778678
793.790241	2535.720549
794.112375	2538.294058
794.434464	2537.298430
794.756507	2537.671476
795.078505	2537.827752
795.400457	2542.180788
795.722364	2545.656663
796.044226	2545.916283
796.366042	2549.152704
796.687812	2546.029709
797.009538	2553.936759
797.331218	2552.338713
797.652852	2550.697817
797.974442	2547.983156
798.295986	2547.206818
798.617484	2545.633978
798.938938	2544.114070
799.260346	2544.043494
799.581709	2544.403937
799.903026	2541.709440
800.224299	2539.365303
800.545526	2537.285828
800.866708	2538.523431
801.187845	2534.661907
801.508936	2536.965714
801.829983	2536.446475
802.150984	2531.327184
802.471940	2535.138296
802.792851	2530.906247
803.113717	2536.075951
803.434538	2532.156453
803.755314	2532.065713
804.076045	2530.190403
804.396731	2533.920857
804.717372	2529.746782
805.037967	2532.393388
805.358518	2531.521268
805.679024	2534.321629
805.999485	2532.537061
806.319901	2532.461443
806.640272	2531.808614
806.960598	2535.886907
807.280879	2534.430014
807.601115	2535.866743
807.921306	2536.668286
808.241453	2529.459436
808.561554	2531.367513
808.881611	2533.814993
809.201623	2530.102183
809.521590	2533.419262
809.841513	2535.196269
810.161390	2535.362627
810.481223	2535.813811
810.801011	2535.644932
811.120755	2532.663089
811.440453	2534.929088
811.760107	2533.981351
812.079716	2532.610157
812.399281	2530.054292
812.718801	2533.686444
813.038276	2530.495393
813.357707	2531.236443
813.677093	2528.594878
813.996434	2531.241484
814.315731	2531.044879
814.634983	2528.849457
814.954191	2530.765095
815.273354	2532.786598
815.592473	2531.831299
815.911547	2535.413039
816.230577	2536.363296
816.549562	2535.796167
816.868502	2539.844213
817.187399	2539.584594
817.506250	2540.968390
817.825058	2540.781868
818.143821	2545.639019
818.462539	2549.505584
818.781213	2552.694114
819.099843	2556.109496
819.418429	2568.845971
819.736970	2579.686973
820.055466	2593.363623
820.373919	2608.421549
820.692327	2630.030455
821.010691	2667.511434
821.329011	2752.026378
821.647286	2885.347254
821.965517	3061.767474
822.283704	3193.961651
822.601847	3268.928650
822.919945	3220.515929
823.237999	3146.695792
823.556010	3062.256466
823.873976	2979.528610
824.191897	2900.135478
824.509775	2842.933506
824.827609	2789.986267
825.145398	2750.176275
825.463144	2733.185066
825.780845	2730.863615
826.098502	2738.112794
826.416116	2772.984976
826.733685	2811.237251
827.051210	2833.824141
827.368692	2825.090342
827.686129	2791.077677
828.003522	2749.533528
828.320872	2707.853268
828.638177	2675.035356
828.955439	2647.440080
829.272656	2627.512399
829.589830	2609.654112
829.906960	2595.027204
830.224046	2580.521283
830.541088	2571.613565
830.858086	2564.434962
831.175041	2560.490259
831.491952	2556.452294
831.808819	2558.733417
832.125642	2556.827860
832.442421	2571.001064
832.759157	2586.711820
833.075849	2615.617797
833.392497	2653.451656
833.709101	2677.429904
834.025662	2684.853003
834.342179	2672.154337
834.658653	2649.756490
834.975083	2627.935856
835.291469	2610.259050
835.607811	2595.881679
835.924110	2580.017168
836.240366	2570.741445
836.556578	2560.268448
836.872746	2550.929710
837.188871	2542.316899
837.504952	2537.878163
837.820990	2533.136958
838.136984	2529.169570
838.452935	2529.088911
838.768842	2526.470032
839.084706	2529.799714
839.400526	2545.354194
839.716303	2561.248952
840.032037	2578.111612
840.347727	2580.060018
840.663373	2570.517114
840.978977	2559.832388
841.294537	2550.269319
841.610054	2538.808256
841.925527	2535.571835
842.240957	2530.361803
842.556344	2526.454908
842.871687	2524.007428
843.186987	2516.549041
843.502244	2513.032836
843.817458	2513.937723
844.132629	2512.604338
844.447756	2508.067300
844.762840	2507.270797
845.077881	2506.214676
845.392879	2505.304748
845.707833	2508.430263
846.022745	2504.606548
846.337613	2503.807525
846.652438	2504.293996
846.967221	2503.938595
847.281960	2503.111846
847.596656	2504.639315
847.911309	2502.242247
848.225919	2503.358862
848.540485	2503.275683
848.855009	2500.939108
849.169490	2502.186794
849.483928	2501.816269
849.798323	2499.555312
850.112675	2500.659324
850.426984	2498.811741
850.741251	2500.792915
851.055474	2501.448265
851.369654	2500.739983
851.683792	2499.724190
851.997887	2503.681496
852.311938	2503.966321
852.625947	2501.339880
852.939914	2499.313336
853.253837	2501.521362
853.567718	2501.599499
853.881555	2500.011536
854.195350	2502.166629
854.509103	2500.031701
854.822812	2500.737462
855.136479	2502.045642
855.450103	2502.118738
855.763685	2498.398367
856.077224	2497.375012
856.390720	2495.620691
856.704173	2499.043634
857.017584	2503.028667
857.330953	2501.642349
857.644278	2502.985817
857.957561	2505.582011
858.270802	2500.671927
858.584000	2503.477329
858.897155	2503.305930
859.210268	2500.195538
859.523339	2501.312154
859.836367	2504.004130
860.149352	2500.976917
860.462295	2501.649911
860.775195	2498.554643
861.088054	2500.114880
861.400869	2502.680827
861.713642	2498.612616
862.026373	2501.012205
862.339062	2501.032370
862.651708	2502.948008
862.964312	2502.708553
863.276873	2501.975065
863.589392	2503.220230
863.901869	2505.516476
864.214303	2503.817607
864.526696	2507.323730
864.839045	2505.556805
865.151353	2505.844151
865.463619	2507.719460
865.775842	2504.538492
866.088023	2508.042094
866.400162	2507.467402
866.712258	2505.647546
867.024313	2506.597803
867.336325	2507.192660
867.648296	2505.014881
867.960224	2507.752228
868.272110	2505.884480
868.583954	2509.524193
868.895755	2507.535458
869.207515	2509.884636
869.519233	2507.908503
869.830909	2508.813391
870.142542	2509.501508
870.454134	2508.705006
870.765684	2512.919410
871.077191	2509.055366
871.388657	2511.321365
871.700081	2507.802639
872.011463	2511.341529
872.322803	2509.695593
872.634101	2513.438649
872.945357	2515.253465
873.256571	2515.198012
873.567744	2516.302025
873.878874	2517.519463
874.189963	2517.988291
874.501010	2517.963085
874.812015	2515.566016
875.122979	2518.225225
875.433900	2517.716068
875.744780	2518.933507
876.055618	2517.635410
876.366415	2517.811850
876.677169	2516.738084
876.987882	2520.239166
877.298554	2519.447705
877.609183	2523.336955
877.919771	2524.587161
878.230317	2527.095135
878.540822	2532.337935
878.851285	2537.421939
879.161707	2545.941489
879.472087	2556.863148
879.782425	2573.665314
880.092722	2605.346446
880.402977	2656.113385
880.713191	2721.171996
881.023363	2789.409055
881.333494	2840.022239
881.643583	2868.116590
881.953631	2869.379399
882.263637	2856.509333
882.573602	2831.832885
882.883526	2807.519400
883.193408	2780.095523
883.503248	2752.306162
883.813048	2724.761298
884.122806	2702.746579
884.432522	2679.272446
884.742197	2657.411482
885.051831	2635.666465
885.361424	2617.299021
885.670975	2601.190014
885.980485	2587.934300
886.289954	2577.456262
886.599382	2566.872359
886.908768	2561.914385
887.218113	2549.014072
887.527417	2546.299411
887.836680	2537.807587
888.145901	2536.075951
888.455082	2532.534540
888.764221	2532.118645
889.073319	2528.398273
889.382376	2525.892820
889.691392	2527.720238
890.000366	2526.666637
890.309300	2522.802593
890.618193	2525.423993
890.927044	2522.409382
891.235855	2523.155473
891.544625	2523.515916
891.853353	2524.718231
892.162041	2521.839732
892.470687	2534.704757
892.779293	2534.019160
893.087858	2540.532331
893.396381	2547.564740
893.704864	2560.379353
894.013306	2582.270564
894.321707	2601.275714
894.630068	2620.608539
894.938387	2627.532564
895.246665	2628.727317
895.554903	2614.289453
895.863100	2607.395675
896.171256	2595.990064
896.479371	2586.300966
896.787446	2579.611355
897.095480	2572.132803
897.403473	2564.462688
897.711425	2557.576472
898.019336	2553.233518
898.327207	2548.139432
898.635038	2543.640202
898.942827	2534.803059
899.250576	2532.789118
899.558284	2529.953469
899.865952	2526.167563
900.173579	2526.142357
900.481165	2523.687315
900.788711	2521.431399
901.096216	2518.623476
901.403681	2517.988291
901.711105	2521.920391
902.018489	2519.117509
902.325832	2518.467200
902.633135	2516.975019
902.940397	2524.599764
903.247619	2536.799356
903.554800	2563.444375
903.861941	2598.329159
904.169041	2631.830147
904.476101	2646.338588
904.783121	2647.795482
905.090100	2639.457413
905.397039	2622.874537
905.703938	2608.741663
906.010796	2595.377564
906.317614	2583.586305
906.624391	2571.497618
906.931129	2565.642318
907.237826	2554.519012
907.544483	2547.978115
907.851099	2541.979142
908.157675	2531.942204
908.464211	2523.576410
908.770707	2518.061387
909.077163	2514.593073
909.383578	2513.000069
909.689954	2507.926147
909.996289	2506.827176
910.302584	2506.769203
910.608839	2505.158554
910.915054	2502.433810
911.221229	2502.592607
911.527363	2504.669562
911.833458	2505.609737
912.139513	2503.525220
912.445527	2504.379696
912.751502	2505.226610
913.057436	2508.455469
913.363331	2511.845645
913.669186	2514.429236
913.975000	2521.781759
914.280775	2529.431710
914.586510	2539.017464
914.892205	2554.002294
915.197859	2574.907959
915.503475	2597.699015
915.809050	2622.259517
916.114585	2638.862557
916.420081	2646.623413
916.725536	2651.735143
917.030952	2643.485295
917.336328	2634.633029
917.641665	2626.196658
917.946961	2614.410440
918.252218	2608.343412
918.557435	2593.008222
918.862612	2590.396904
919.167750	2579.364339
919.472848	2573.272104
919.777906	2563.920764
920.082925	2555.058415
920.387904	2547.322765
920.692843	2540.285314
920.997743	2535.667617
921.302603	2530.500434
921.607423	2524.955165
921.912204	2523.077335
922.216946	2518.210101
922.521647	2515.571057
922.826310	2513.899915
923.130932	2514.648526
923.435516	2511.094513
923.740059	2509.385562
924.044564	2507.139728
924.349028	2507.318688
924.653454	2503.510097
924.957840	2500.966835
925.262186	2501.155878
925.566493	2499.577997
925.870761	2495.308139
926.174989	2496.812924
926.479178	2495.169508
926.783328	2493.463077
927.087438	2495.610609
927.391509	2493.251349
927.695541	2492.621204
927.999533	2493.440392
928.303486	2491.398725
928.607400	2491.265134
928.911275	2490.481235
929.215110	2493.589106
929.518906	2488.815133
929.822663	2489.737664
930.126381	2489.624238
930.430060	2486.622231
930.733699	2490.095586
931.037299	2490.990391
931.340861	2489.455360
931.644383	2491.305463
931.947866	2489.631800
932.251309	2491.665906
932.554714	2493.387460
932.858080	2489.697335
933.161407	2486.344968
933.464694	2488.363950
933.767943	2483.400934
934.071153	2490.534167
934.374323	2490.904692
934.677455	2487.096100
934.980548	2489.178096
935.283602	2490.148518
935.586617	2489.180617
935.889593	2488.769763
936.192530	2489.936790
936.495428	2489.646924
936.798287	2489.596512
937.101108	2490.219095
937.403890	2496.051710
937.706632	2493.490803
938.009336	2495.683705
938.312002	2497.448109
938.614628	2497.934581
938.917216	2499.895589
939.219765	2501.717967
939.522275	2503.920951
939.824747	2500.455157
940.127179	2505.350118
940.429573	2500.729900
940.731929	2504.263749
941.034246	2498.335352
941.336524	2502.504387
941.638763	2500.442555
941.940964	2501.783502
942.243126	2499.451968
942.545250	2499.388953
942.847335	2500.392143
943.149381	2499.451968
943.451389	2494.075577
943.753359	2498.088336
944.055290	2495.323263
944.357182	2494.526761
944.659036	2494.851915
944.960851	2495.139261
945.262628	2493.019456
945.564367	2493.211019
945.866067	2494.302429
946.167729	2492.686739
946.469352	2491.655823
946.770937	2492.570793
947.072484	2494.453664
947.373992	2494.309991
947.675462	2491.466780
947.976893	2490.864362
948.278286	2488.056440
948.579641	2492.175062
948.880958	2483.970584
949.182236	2492.417038
949.483476	2488.868065
949.784678	2488.706748
950.085841	2492.734630
950.386967	2491.050885
950.688054	2492.926194
950.989103	2490.539208
951.290114	2494.458705
951.591087	2496.165136
951.892021	2493.369816
952.192917	2495.605567
952.493776	2496.535660
952.794596	2496.379385
953.095378	2495.156905
953.396122	2492.343941
953.696828	2494.879641
953.997496	2496.951556
954.298126	2495.063643
954.598718	2495.789570
954.899272	2492.137254
955.199788	2493.190855
955.500266	2492.853098
955.800706	2490.950062
956.101108	2489.820843
956.401472	2494.002481
956.701798	2487.663230
957.002087	2487.915287
957.302337	2483.156438
957.602550	2487.327993
957.902724	2484.613332
958.202861	2483.431181
958.502960	2482.690131
958.803022	2485.810606
959.103045	2480.280460
959.403031	2481.996973
959.702979	2482.400265
960.002889	2482.155769
960.302762	2481.732312
960.602596	2481.291211
960.902393	2480.572847
961.202153	2479.156283
961.501875	2478.715182
961.801559	2479.362970
962.101205	2481.762559
962.400814	2482.019658
962.700385	2478.768114
962.999918	2475.327526
963.299414	2472.721250
963.598873	2478.140490
963.898293	2475.098154
964.197677	2479.247023
964.497022	2479.471355
964.796331	2478.702579
965.095601	2478.614358
965.394835	2478.349698
965.694030	2478.246354
965.993189	2478.813484
966.292309	2475.708133
966.591393	2478.977322
966.890439	2475.708133
967.189447	2477.137300
967.488419	2478.115284
967.787353	2475.297279
968.086249	2476.129070
968.385108	2477.162506
968.683930	2476.860037
968.982714	2474.836014
969.281462	2476.043370
969.580172	2478.324492
969.878844	2477.870788
970.177480	2478.420274
970.476078	2482.054946
970.774639	2480.335913
971.073162	2477.913638
971.371649	2477.722074
971.670098	2477.139821
971.968510	2479.499081
972.266885	2480.109061
972.565223	2480.512353
972.863524	2479.093268
973.161788	2481.013948
973.460014	2479.113433
973.758204	2480.663587
974.056356	2479.012610
974.354471	2480.920686
974.652550	2477.217959
974.950591	2479.304997
975.248595	2479.748618
975.546563	2480.194760
975.844493	2477.838021
976.142386	2478.470686
976.440243	2478.402630
976.738062	2478.717702
977.035845	2477.843062
977.333590	2476.300469
977.631299	2478.823566
977.928971	2478.016982
978.226606	2474.248719
978.524204	2475.743421
978.821765	2471.856692
979.119290	2477.732157
979.416777	2477.885912
979.714228	2478.011941
980.011642	2477.512866
980.309020	2480.053608
980.606360	2477.409523
980.903664	2479.630151
981.200931	2481.918835
981.498162	2481.618886
981.795356	2481.918835
982.092513	2485.699700
982.389633	2488.913436
982.686717	2491.285299
982.983764	2495.822337
983.280775	2496.230671
983.577749	2498.277379
983.874686	2498.295023
984.171587	2495.497183
984.468451	2495.419045
984.765279	2494.907368
985.062070	2491.575165
985.358824	2491.247490
985.655543	2488.913436
985.952224	2485.984525
986.248869	2484.961171
986.545478	2481.848259
986.842050	2479.194091
987.138586	2480.658546
987.435086	2479.365490
987.731549	2476.028247
988.027975	2478.891622
988.324366	2475.695530
988.620719	2475.650160
988.917037	2473.144707
989.213318	2476.502115
989.509563	2474.011785
989.805772	2473.913483
990.101944	2475.700572
990.398080	2474.820890
990.694180	2476.469347
990.990244	2473.265694
991.286271	2472.559933
991.582262	2473.043883
991.878217	2472.869964
992.174136	2476.250057
992.470019	2472.322998
992.765865	2473.386682
993.061676	2468.433748
993.357450	2470.482977
993.653188	2466.916361
993.948890	2473.026239
994.244556	2475.745942
994.540186	2476.857516
994.835780	2474.455407
995.131337	2478.548823
995.426859	2479.037815
995.722345	2481.220635
996.017795	2484.240286
996.313208	2483.138794
996.608586	2481.513022
996.903928	2486.788589
997.199234	2485.157776
997.494504	2485.571151
997.789738	2485.210708
998.084936	2485.906387
998.380099	2483.426140
998.675225	2483.151397
998.970316	2480.414050
999.265371	2481.026551
999.560390	2476.887763
999.855373	2479.723412
1000.150320	2472.133955
1000.445232	2477.152424
1000.740108	2472.161682
1001.034948	2474.808287
1001.329752	2475.597228
1001.624521	2474.520942
1001.919254	2472.038173
1002.213951	2472.655715
1002.508613	2470.538430
1002.803239	2472.310396
1003.097829	2474.641929
1003.392384	2470.419963
1003.686903	2471.428194
1003.981386	2469.499952
1004.275834	2468.113635
1004.570246	2472.315437
1004.864623	2474.296610
1005.158964	2472.144038
1005.453270	2470.253605
1005.747540	2470.004068
1006.041775	2469.588173
1006.335974	2469.817545
1006.630138	2469.686475
1006.924266	2471.866774
1007.218359	2470.921558
1007.512416	2469.729325
1007.806438	2466.392081
1008.100425	2466.535754
1008.394376	2465.645990
1008.688292	2472.517083
1008.982172	2467.649849
1009.276017	2470.114973
1009.569827	2468.290075
1009.863602	2469.058851
1010.157341	2469.000878
1010.451045	2470.815693
1010.744714	2469.981382
1011.038347	2469.414253
1011.331945	2468.897534
1011.625508	2471.402988
1011.919036	2467.705302
1012.212528	2468.650518
1012.505986	2470.402319
1012.799408	2469.048769
1013.092795	2469.988944
1013.386147	2469.807463
1013.679464	2469.540282
1013.972745	2469.331074
1014.265992	2467.791001
1014.559204	2469.646146
1014.852380	2472.766620
1015.145521	2467.322174
1015.438628	2468.915178
1015.731699	2469.351238
1016.024736	2467.768316
1016.317737	2467.959880
1016.610703	2469.782257
1016.903635	2466.969293
1017.196531	2466.807976
1017.489393	2466.767647
1017.782219	2470.661938
1018.075011	2467.110445
1018.367768	2468.864767
1018.660490	2468.950467
1018.953177	2468.950467
1019.245829	2468.950467
