Dividing Wavelength (nm)	Counts (n)	Blue Motor Position (mm): 0.000000	Red Motor Position (mm): 18.000000	
326.493990	2053.075439
326.888308	2053.075439
327.282561	2053.075439
327.676750	2028.777077
328.070874	2028.923271
328.464933	2036.888294
328.858929	2043.174613
329.252859	2053.524102
329.646726	2066.016081
330.040528	2085.636252
330.434265	2100.217789
330.827938	2120.079935
331.221547	2144.690848
331.615091	2161.777839
332.008571	2181.813905
332.401986	2203.490867
332.795338	2219.798999
333.188625	2240.445045
333.581847	2261.764085
333.975006	2279.342588
334.368100	2297.904117
334.761129	2313.536735
335.154095	2331.319405
335.546996	2344.698627
335.939833	2358.294619
336.332606	2372.790457
336.725315	2382.673639
337.117960	2396.040258
337.510540	2404.166598
337.903056	2414.531211
338.295508	2419.668147
338.687896	2427.759198
339.080220	2430.287337
339.472480	2436.961825
339.864676	2440.137752
340.256807	2443.051539
340.648875	2447.339040
341.040879	2447.691921
341.432818	2450.598146
341.824694	2450.870368
342.216506	2450.764504
342.608253	2448.773248
342.999937	2449.814247
343.391557	2446.950871
343.783113	2442.088678
344.174605	2446.045984
344.566033	2443.782506
344.957397	2441.947526
345.348697	2437.770930
345.739934	2435.762030
346.131106	2439.137083
346.522215	2436.261104
346.913260	2432.991916
347.304241	2432.417225
347.695159	2427.539908
348.086012	2429.354724
348.476802	2424.056471
348.867528	2425.183169
349.258191	2421.435071
349.648789	2422.100503
350.039324	2418.997673
350.429796	2420.784762
350.820203	2420.053795
351.210548	2419.184196
351.600828	2419.126222
351.991045	2418.319638
352.381198	2419.476583
352.771288	2420.386511
353.161314	2420.305853
353.551276	2418.740574
353.941175	2417.583629
354.331010	2416.411561
354.720782	2417.603794
355.110490	2418.092786
355.500135	2419.993301
355.889717	2417.349216
356.279235	2418.559093
356.668689	2420.643610
357.058080	2421.475400
357.447408	2418.894329
357.836672	2420.928435
358.225873	2421.205698
358.615010	2421.422468
359.004084	2422.586975
359.393095	2420.716707
359.782043	2426.110741
360.170927	2424.895823
360.559748	2425.999836
360.948505	2425.954465
361.337199	2425.475556
361.725830	2423.912798
362.114398	2430.854467
362.502903	2427.975968
362.891344	2426.007397
363.279722	2428.719538
363.668037	2431.852615
364.056289	2428.986719
364.444478	2430.438572
364.832603	2432.434869
365.220665	2430.209199
365.608665	2432.938984
365.996601	2430.398243
366.384474	2430.872111
366.772284	2435.378902
367.160031	2435.273038
367.547715	2435.704057
367.935336	2435.159612
368.322893	2431.288006
368.710388	2428.883376
369.097820	2433.254056
369.485189	2430.526792
369.872495	2437.322267
370.259738	2436.046855
370.646918	2437.866712
371.034035	2439.711774
371.421090	2438.988369
371.808081	2439.477361
372.195010	2442.267639
372.581875	2441.677824
372.968678	2444.818463
373.355418	2444.200922
373.742096	2447.205449
374.128710	2448.115378
374.515262	2449.390790
374.901751	2452.745677
375.288177	2456.544187
375.674540	2461.202213
376.060841	2464.184056
376.447079	2468.227061
376.833254	2472.713688
377.219367	2477.989255
377.605417	2484.164669
377.991404	2489.462922
378.377329	2497.811072
378.763191	2505.292145
379.148991	2511.326406
379.534727	2519.820750
379.920402	2530.641587
380.306013	2537.774819
380.691563	2552.043805
381.077049	2561.342214
381.462474	2572.437793
381.847835	2585.423806
382.233134	2600.975765
382.618371	2609.472630
383.003545	2629.291926
383.388657	2641.065541
383.773706	2662.424910
384.158693	2676.131807
384.543618	2694.738706
384.928480	2708.261601
385.313280	2730.901423
385.698017	2751.761718
386.082692	2774.028494
386.467305	2790.583644
386.851856	2813.115081
387.236344	2840.342353
387.620770	2857.885568
388.005133	2874.526417
388.389435	2914.434711
388.773674	2923.725558
389.157851	2955.966257
389.541965	2984.080772
389.926018	2996.461846
390.310008	3030.855118
390.693936	3054.964437
391.077802	3084.402254
391.461606	3112.055504
391.845348	3135.958135
392.229027	3163.127433
392.612645	3205.052189
392.996200	3234.177456
393.379694	3270.924947
393.763125	3311.717964
394.146494	3339.545133
394.529801	3376.232130
394.913047	3420.654778
395.296230	3425.461518
395.679351	3448.615538
396.062410	3500.715862
396.445408	3479.515290
396.828343	3528.417003
397.211217	3554.888102
397.594028	3530.904812
397.976778	3578.939447
398.359466	3610.209724
398.742092	3618.578039
399.124656	3635.402890
399.507158	3693.010676
399.889598	3701.842778
400.271977	3767.745782
400.654294	3755.062239
401.036549	3815.465344
401.418742	3816.337464
401.800874	3884.776168
402.182944	3913.054521
402.564952	3993.407992
402.946898	3992.298939
403.328783	3984.898525
403.710606	4034.753016
404.092367	4103.395887
404.474067	4172.631094
404.855705	4152.239627
405.237282	4127.752222
405.618797	4220.585070
406.000250	4300.754540
406.381642	4380.571128
406.762972	4385.128332
407.144240	4349.152137
407.525447	4415.231582
407.906593	4428.245320
408.287677	4513.017363
408.668700	4534.656516
409.049661	4569.201023
409.430560	4605.139409
409.811399	4580.019339
410.192176	4635.174603
410.572891	4711.984144
410.953545	4815.259742
411.334138	4709.324935
411.714669	4810.256397
412.095139	4720.372624
412.475547	4821.319209
412.855894	4818.450793
413.236180	4908.553856
413.616405	4823.696113
413.996568	4917.799332
414.376670	4912.576697
414.756711	4889.813367
415.136691	4945.679433
415.516609	5016.681565
415.896466	5035.278381
416.276262	5090.295014
416.655997	5176.430689
417.035670	5246.913582
417.415283	5359.260736
417.794834	5398.077621
418.174324	5345.758006
418.553753	5318.316485
418.933121	5439.064722
419.312428	5424.679790
419.691674	5335.526984
420.070859	5498.452035
420.449983	5366.930852
420.829045	5503.054608
421.208047	5405.737654
421.586988	5503.503271
421.965867	5530.738105
422.344686	5560.349842
422.723444	5654.616899
423.102141	5310.127130
423.480777	5580.660651
423.859352	5395.723402
424.237866	5632.675277
424.616319	5583.400518
424.994712	5660.429349
425.373044	5548.840888
425.751314	5722.395212
426.129524	5473.536132
426.507673	5606.733499
426.885762	5585.371610
427.263789	5556.498401
427.641756	5557.078134
428.019662	5557.705757
428.397508	5524.628226
428.775292	5452.801866
429.153016	5494.746787
429.530679	5395.317589
429.908282	5363.926324
430.285824	5270.175986
430.663305	5361.715778
431.040726	5244.640021
431.418086	5175.409855
431.795385	5186.928892
432.172624	5220.376948
432.549802	5099.530408
432.926920	5098.217187
433.303977	5002.871324
433.680974	4960.843224
434.057910	4987.253829
434.434786	4944.552736
434.811601	4860.635168
435.188355	4933.212660
435.565050	4819.625382
435.941683	4759.958285
436.318257	4816.711595
436.694770	4734.878544
437.071222	4749.210545
437.447614	4605.356178
437.823946	4528.226525
438.200218	4512.321684
438.576429	4406.908637
438.952580	4394.341040
439.328670	4333.998429
439.704700	4288.300369
440.080670	4206.369016
440.456580	4212.483936
440.832429	4146.283503
441.208218	4022.762631
441.583947	3993.355060
441.959616	3964.776759
442.335224	3914.846651
442.710773	3876.775857
443.086261	3853.437835
443.461689	3750.391610
443.837057	3727.386304
444.212365	3717.992114
444.587612	3660.558248
444.962800	3587.774069
445.337927	3562.462435
445.712995	3444.418777
446.088002	3498.974144
446.462949	3464.512816
446.837837	3413.987852
447.212664	3369.459340
447.587431	3422.870365
447.962139	3490.010972
448.336786	3552.327196
448.711374	3483.233141
449.085901	3316.764159
449.460369	3260.620828
449.834776	3195.657999
450.209124	3229.857187
450.583412	3180.479085
450.957640	3170.011129
451.331808	3101.116200
451.705917	3026.232380
452.079965	2989.212667
452.453954	2967.293730
452.827883	2933.971703
453.201752	2905.799215
453.575562	2883.696276
453.949311	2873.538351
454.323001	2852.184023
454.696632	2823.958603
455.070202	2825.120589
455.443713	2804.935809
455.817164	2793.820064
456.190556	2786.903601
456.563888	2763.772267
456.937160	2752.550658
457.310373	2720.683004
457.683526	2707.785212
458.056619	2694.710980
458.429653	2679.703465
458.802628	2671.385561
459.175542	2661.262924
459.548398	2662.399704
459.921194	2661.842657
460.293930	2660.743685
460.666607	2661.925836
461.039224	2664.983296
461.411782	2663.728048
461.784280	2649.111223
462.156719	2638.061013
462.529099	2633.637401
462.901419	2618.052674
463.273680	2606.395006
463.645882	2601.484922
464.018024	2595.763212
464.390106	2593.038468
464.762130	2600.431321
465.134094	2615.897581
465.505999	2630.600106
465.877845	2643.676859
466.249631	2649.481747
466.621358	2643.288690
466.993026	2633.274438
467.364634	2626.148767
467.736184	2614.304576
468.107674	2602.793101
468.479105	2601.684047
468.850477	2595.750609
469.221790	2592.836822
469.593043	2584.251737
469.964238	2578.721592
470.335373	2575.154975
470.706449	2578.514904
471.077467	2580.279308
471.448425	2593.590475
471.819324	2604.562546
472.190164	2601.021136
472.560945	2590.308684
472.931667	2576.669842
473.302330	2574.613051
473.672934	2568.069633
474.043479	2569.599624
474.413965	2566.521999
474.784393	2563.643500
475.154761	2568.193142
475.525070	2564.810527
475.895321	2563.388922
476.265513	2565.420507
476.635645	2566.884962
477.005719	2563.474622
477.375734	2565.377657
477.745691	2568.624160
478.115588	2571.038873
478.485427	2573.002402
478.855207	2583.127560
479.224928	2587.790627
479.594591	2594.671802
479.964194	2591.485793
480.333739	2589.502099
480.703226	2592.272213
481.072653	2593.769436
481.442022	2592.925042
481.811333	2592.244487
482.180584	2585.736357
482.549777	2585.325503
482.918912	2581.388362
483.287988	2586.217787
483.657005	2585.338106
484.025964	2584.259299
484.394864	2582.855338
484.763706	2584.309711
485.132489	2579.361818
485.501213	2580.523804
485.869879	2581.564802
486.238487	2580.014647
486.607036	2580.836356
486.975527	2576.453072
487.343959	2578.862744
487.712333	2580.170923
488.080648	2582.966243
488.448905	2583.175451
488.817104	2578.943402
489.185244	2588.602253
489.553326	2586.852973
489.921350	2595.395208
490.289315	2604.403750
490.657222	2609.772579
491.025070	2606.778133
491.392861	2605.573297
491.760593	2605.094388
492.128267	2601.273193
492.495883	2598.971907
492.863440	2594.132399
493.230939	2590.157449
493.598380	2591.982347
493.965763	2587.677201
494.333088	2583.084710
494.700354	2583.631675
495.067563	2582.683938
495.434713	2580.866602
495.801805	2585.300297
496.168839	2585.133939
496.535815	2585.171748
496.902733	2580.725450
497.269593	2584.886923
497.636395	2582.777200
498.003139	2583.740060
498.369825	2583.301480
498.736453	2585.872468
499.103023	2583.414906
499.469535	2585.093610
499.835989	2584.503795
500.202385	2581.181675
500.568723	2578.552713
500.935003	2584.047571
501.301226	2578.600604
501.667390	2585.943044
502.033497	2589.996132
502.399546	2586.525298
502.765537	2585.484299
503.131470	2582.999011
503.497345	2586.590833
503.863163	2584.811305
504.228923	2584.468507
504.594625	2587.846080
504.960269	2585.927921
505.325856	2590.023858
505.691385	2585.375915
506.056856	2588.879517
506.422270	2587.657037
506.787625	2587.442788
507.152924	2588.821543
507.518164	2590.515371
507.883347	2586.038826
508.248472	2587.573858
508.613540	2589.522264
508.978550	2588.997984
509.343503	2590.028900
509.708398	2590.265834
510.073236	2592.720876
510.438016	2595.735486
510.802738	2593.466967
511.167403	2592.786411
511.532010	2595.029724
511.896561	2596.630291
512.261053	2597.633480
512.625488	2595.312029
512.989866	2594.467636
513.354186	2597.217585
513.718449	2594.268510
514.082655	2598.918974
514.446803	2595.979982
514.810894	2598.593820
515.174927	2599.246649
515.538904	2596.723552
515.902822	2599.796135
516.266684	2598.379571
516.630488	2600.398553
516.994235	2598.271186
517.357925	2600.030549
517.721558	2600.980806
518.085133	2597.356217
518.448651	2601.013574
518.812112	2598.593820
519.175516	2597.000815
519.538863	2593.517378
519.902152	2598.712287
520.265385	2600.078440
520.628560	2599.284458
520.991678	2596.718511
521.354739	2596.806731
521.717743	2599.551639
522.080690	2596.335383
522.443580	2597.638521
522.806413	2598.740013
523.169189	2597.252873
523.531908	2596.826896
523.894569	2596.605085
524.257174	2598.634149
524.619722	2598.069540
524.982213	2595.823706
525.344647	2597.033583
525.707025	2598.414859
526.069345	2595.798500
526.431608	2596.204313
526.793815	2595.344796
527.155964	2593.988726
527.518057	2595.674992
527.880093	2593.983685
528.242072	2592.133581
528.603995	2593.713983
528.965860	2589.829774
529.327669	2590.497727
529.689421	2590.926225
530.051117	2591.127871
530.412755	2591.722727
530.774337	2590.341451
531.135862	2587.493199
531.497331	2589.176945
531.858743	2587.042016
532.220098	2588.264496
532.581396	2590.772470
532.942638	2588.077973
533.303824	2585.847262
533.664953	2588.211564
534.026025	2584.564289
534.387040	2586.129567
534.747999	2584.584453
535.108902	2587.382294
535.469748	2585.471697
535.830537	2589.736513
536.191270	2585.491861
536.551947	2580.687642
536.912567	2580.425502
537.273131	2583.024216
537.633638	2582.149576
537.994089	2585.958168
538.354483	2582.371387
538.714821	2586.827767
539.075103	2584.685277
539.435328	2586.253075
539.795497	2584.889443
540.155609	2584.811305
540.515665	2586.578230
540.875665	2582.646130
541.235609	2583.175451
541.595496	2581.463979
541.955328	2583.304000
542.315102	2584.236614
542.674821	2582.434401
543.034483	2580.929617
543.394090	2582.666294
543.753640	2583.813157
544.113134	2584.362643
544.472571	2580.788465
544.831953	2584.503795
545.191278	2581.022878
545.550548	2580.143197
545.909761	2581.663105
546.268918	2584.274422
546.628019	2582.270564
546.987064	2579.097157
547.346053	2579.906263
547.704986	2582.888105
548.063863	2582.497416
548.422684	2581.451376
548.781449	2581.418609
549.140158	2580.438104
549.498811	2579.576067
549.857408	2578.613207
550.215949	2578.330902
550.574434	2581.481623
550.932864	2580.637230
551.291237	2582.399113
551.649555	2578.840059
552.007817	2579.250913
552.366022	2579.949112
552.724173	2582.452045
553.082267	2578.159503
553.440305	2584.292067
553.798288	2582.263002
554.156215	2579.936510
554.514086	2579.518094
554.871902	2577.355439
555.229661	2578.139338
555.587365	2575.170099
555.945014	2579.011458
556.302606	2576.616910
556.660143	2579.571026
557.017625	2579.510532
557.375050	2578.247723
557.732421	2580.826273
558.089735	2581.025399
558.446994	2580.914493
558.804197	2582.585636
559.161345	2579.649164
559.518437	2580.964905
559.875474	2577.078175
560.232455	2576.841241
560.589381	2580.296952
560.946251	2584.224011
561.303065	2584.153435
561.659825	2581.970615
562.016528	2578.845100
562.373177	2577.007599
562.729770	2580.438104
563.086307	2579.631520
563.442789	2579.651684
563.799216	2581.279977
564.155587	2579.291242
564.511904	2582.421798
564.868164	2582.603280
565.224370	2577.811663
565.580520	2581.010275
565.936615	2581.133784
566.292654	2577.567167
566.648638	2578.645974
567.004567	2580.808629
567.360441	2578.792168
567.716260	2579.712178
568.072023	2581.514391
568.427732	2578.436766
568.783385	2579.707137
569.138982	2577.519276
569.494525	2579.860892
569.850013	2580.843917
570.205445	2577.171437
570.560823	2576.992476
570.916145	2574.839903
571.271412	2577.942733
571.626625	2577.879719
571.981782	2578.073803
572.336884	2574.227403
572.691931	2571.696744
573.046923	2574.449214
573.401860	2570.983420
573.756743	2572.422670
574.111570	2577.408371
574.466342	2577.168916
574.821059	2575.734708
575.175722	2573.690520
575.530330	2573.647670
575.884882	2575.454924
576.239380	2571.928637
576.593823	2575.076837
576.948211	2576.747980
577.302544	2571.404357
577.656823	2570.325550
578.011047	2575.883422
578.365216	2570.277659
578.719330	2571.527865
579.073389	2572.899059
579.427394	2572.122721
579.781344	2569.372772
580.135239	2569.808832
580.489080	2573.556929
580.842866	2570.282700
581.196597	2570.043245
581.550273	2572.405026
581.903895	2572.515931
582.257463	2569.208934
582.610975	2568.740107
582.964434	2570.557443
583.317837	2567.840261
583.671186	2569.750858
584.024481	2569.534089
584.377721	2566.746331
584.730906	2570.557443
585.084037	2568.387226
585.437113	2567.699109
585.790135	2566.479149
586.143103	2565.949828
586.496016	2567.885631
586.848874	2564.818089
587.201679	2572.430232
587.554428	2565.375137
587.907124	2567.111814
588.259765	2567.542833
588.612352	2567.013512
588.964884	2566.595096
589.317362	2565.213820
589.669786	2566.597617
590.022155	2563.751885
590.374470	2563.114179
590.726731	2563.630897
591.078937	2556.638817
591.431090	2565.420507
591.783188	2564.707184
592.135232	2560.996895
592.487222	2561.380022
592.839157	2563.278017
593.191038	2562.121072
593.542866	2563.346072
593.894639	2559.290464
594.246358	2566.310271
594.598022	2558.831719
594.949633	2557.747871
595.301190	2558.304918
595.652692	2560.316339
596.004141	2559.290464
596.355535	2559.056050
596.706876	2556.195196
597.058162	2558.743499
597.409395	2557.460525
597.760573	2561.843808
598.111698	2558.020093
598.462768	2558.806513
598.813785	2556.737120
599.164748	2558.831719
599.515657	2559.577810
599.866511	2557.773077
600.217312	2556.265772
600.568060	2554.818961
600.918753	2556.979095
601.269392	2557.710062
601.619978	2555.562531
601.970510	2557.236194
602.320988	2553.785524
602.671412	2556.923642
603.021783	2559.217367
603.372100	2554.128323
603.722363	2556.953889
604.072572	2554.327448
604.422728	2558.751061
604.772830	2556.205278
605.122878	2555.534804
605.472872	2555.444064
605.822813	2556.507747
606.172701	2555.295350
606.522534	2556.863148
606.872314	2554.690411
607.222041	2556.162428
607.571714	2554.077911
607.921333	2551.242262
608.270899	2552.810061
608.620411	2551.637993
608.969870	2554.113199
609.319276	2554.057746
609.668627	2555.592778
610.017926	2555.489434
610.367171	2556.313663
610.716362	2556.999260
611.065500	2556.424568
611.414585	2558.456153
611.763616	2553.853580
612.112594	2555.300391
612.461518	2557.999929
612.810389	2557.127809
613.159207	2555.567572
613.507971	2555.915412
613.856682	2556.079249
614.205340	2557.132850
614.553945	2557.294167
614.902496	2556.076728
615.250994	2557.959599
615.599439	2555.572613
615.947830	2559.933211
616.296169	2557.296688
616.644454	2556.825340
616.992686	2558.025134
617.340864	2558.811554
617.688990	2557.377346
618.037063	2557.883982
618.385082	2557.397511
618.733048	2558.448591
619.080961	2557.382387
619.428821	2557.578992
619.776628	2559.383725
620.124382	2557.576472
620.472083	2559.043447
620.819731	2559.398849
621.167326	2558.962789
621.514868	2555.093703
621.862357	2557.364743
622.209793	2556.275854
622.557176	2555.933056
622.904506	2554.166131
623.251783	2555.086142
623.599007	2551.201933
623.946179	2551.834598
624.293297	2554.350133
624.640363	2552.510112
624.987376	2548.976263
625.334336	2549.329144
625.681243	2548.883002
626.028097	2545.714637
626.374899	2550.549103
626.721647	2548.341078
627.068343	2548.499874
627.414987	2549.762683
627.761577	2546.294369
628.108115	2549.858465
628.454600	2546.438042
628.801032	2546.180943
629.147412	2545.815460
629.493739	2546.269164
629.840014	2548.514998
630.186236	2548.845193
630.532405	2544.923176
630.878521	2544.708927
631.224585	2547.650440
631.570597	2543.829245
631.916556	2544.527445
632.262462	2544.928217
632.608316	2545.253371
632.954117	2544.471992
633.299866	2546.536345
633.645562	2545.384441
633.991206	2542.158103
634.336797	2543.209183
634.682336	2540.597866
635.027823	2543.095757
635.373257	2541.744728
635.718639	2542.387475
636.063968	2540.481919
636.409245	2540.557536
636.754470	2539.052752
637.099642	2538.420087
637.444762	2541.023843
637.789829	2536.315405
638.134845	2539.143493
638.479808	2533.809952
638.824719	2536.512010
639.169577	2538.714995
639.514383	2536.441434
639.859137	2536.436393
640.203839	2535.460930
640.548489	2533.900693
640.893086	2533.759540
641.237632	2533.109232
641.582125	2533.215096
641.926566	2533.310878
642.270955	2531.236443
642.615292	2531.697708
642.959576	2533.192411
643.303809	2528.340300
643.647990	2533.454551
643.992118	2532.315250
644.336195	2533.736855
644.680219	2534.530837
645.024192	2535.576876
645.368112	2535.322298
645.711981	2534.649304
646.055797	2534.188038
646.399562	2535.715508
646.743274	2537.822710
647.086935	2539.314892
647.430544	2535.972607
647.774101	2537.381609
648.117606	2538.634336
648.461059	2539.088040
648.804460	2539.408153
649.147810	2537.832793
649.491108	2538.220962
649.834354	2537.845396
650.177548	2533.094108
650.520690	2533.888090
650.863781	2529.351051
651.206820	2535.995292
651.549807	2533.784746
651.892742	2533.716691
652.235626	2532.219468
652.578458	2531.213758
652.921238	2531.165867
653.263967	2532.733666
653.606644	2529.320804
653.949269	2529.903058
654.291843	2527.006915
654.634365	2530.381967
654.976836	2527.861390
655.319255	2529.799714
655.661622	2528.481452
656.003938	2528.708304
656.346203	2532.040507
656.688416	2529.025897
657.030577	2529.308202
657.372687	2529.802235
657.714746	2528.693181
658.056753	2529.482121
658.398708	2527.720238
658.740612	2527.001874
659.082465	2530.540764
659.424266	2525.789476
659.766016	2524.539270
660.107715	2529.323325
660.449362	2522.164887
660.790958	2528.738551
661.132503	2528.100845
661.473996	2528.705784
661.815438	2525.965917
662.156829	2526.704446
662.498168	2526.616225
662.839456	2524.831657
663.180693	2527.080012
663.521879	2528.531864
663.863013	2525.474404
664.204097	2529.182173
664.545129	2529.721576
664.886110	2528.970444
665.227040	2527.881555
665.567918	2531.090249
665.908746	2530.281144
666.249522	2530.228212
666.590248	2527.145547
666.930922	2529.076308
667.271545	2528.645290
667.612118	2532.123686
667.952639	2529.903058
668.293109	2529.983716
668.633528	2529.663603
668.973896	2530.127389
669.314213	2527.705115
669.654480	2528.673016
669.994695	2527.687471
670.334859	2530.845753
670.674973	2526.225536
671.015035	2529.600588
671.355047	2526.719569
671.695008	2530.180321
672.034918	2529.101514
672.374777	2527.057326
672.714585	2526.782583
673.054342	2526.603622
673.394049	2528.426000
673.733705	2528.846936
674.073310	2527.924405
674.412864	2529.494724
674.752368	2526.404497
675.091820	2527.788294
675.431223	2525.401307
675.770574	2528.151257
676.109875	2527.054806
676.449125	2524.088087
676.788324	2522.512726
677.127473	2525.665968
677.466571	2522.200175
677.805619	2522.139681
678.144616	2526.114631
678.483562	2523.830988
678.822458	2521.829650
679.161303	2523.876358
679.500098	2523.596574
679.838842	2523.657068
680.177535	2525.723941
680.516179	2523.432737
680.854771	2525.055988
681.193314	2527.551359
681.531805	2525.703777
681.870247	2526.591020
682.208638	2528.176463
682.546978	2531.052441
682.885268	2529.872811
683.223508	2529.577903
683.561697	2528.458767
683.899836	2528.357944
684.237925	2525.897861
684.575963	2528.030269
684.913951	2524.360309
685.251889	2527.347193
685.589776	2528.466329
685.927614	2523.982222
686.265401	2528.373068
686.603137	2527.206040
686.940824	2528.221833
687.278460	2528.534384
687.616046	2529.693850
687.953582	2532.910106
688.291068	2531.594365
688.628504	2529.477080
688.965889	2533.061341
689.303224	2529.421627
689.640510	2530.513037
689.977745	2528.819210
690.314930	2528.587317
690.652065	2526.495238
690.989150	2527.364837
691.326185	2523.074815
691.663170	2521.791841
692.000105	2521.837212
692.336990	2519.609022
692.673825	2520.695390
693.010610	2518.290760
693.347345	2517.159021
693.684030	2513.249606
694.020665	2516.039885
694.357251	2509.088133
694.693786	2516.120543
695.030272	2515.921418
695.366707	2513.352950
695.703093	2512.541324
696.039429	2514.698938
696.375716	2515.853362
696.711952	2514.582991
697.048139	2511.429749
697.384276	2512.145593
697.720363	2511.752383
698.056400	2511.946468
698.392388	2511.913700
698.728326	2511.238186
699.064214	2510.403875
699.400053	2513.481499
699.735842	2509.478823
700.071581	2511.359173
700.407270	2508.788185
700.742910	2511.462517
701.078501	2508.170643
701.414042	2508.425222
701.749533	2509.627537
702.084974	2509.015037
702.420366	2507.825324
702.755709	2509.138545
703.091002	2506.088647
703.426246	2508.319358
703.761440	2504.404902
704.096584	2506.693585
704.431679	2506.171826
704.766725	2506.353307
705.101721	2506.524707
705.436668	2507.250633
705.771565	2506.698627
706.106413	2506.834738
706.441212	2509.355315
706.775961	2506.996055
707.110661	2507.323730
707.445311	2506.489419
707.779913	2506.668380
708.114465	2507.986641
708.448967	2507.905983
708.783421	2510.756755
709.117825	2508.705006
709.452180	2509.388082
709.786485	2509.864471
710.120742	2509.113339
710.454949	2506.731394
710.789107	2512.122908
711.123216	2510.862620
711.457275	2515.651716
711.791286	2515.313958
712.125247	2515.402179
712.459159	2516.642303
712.793023	2518.641120
713.126837	2516.334792
713.460602	2515.729854
713.794318	2516.430574
714.127985	2515.671880
714.461602	2513.040398
714.795171	2514.736746
715.128691	2513.973012
715.462162	2510.406395
715.795584	2513.327744
716.128957	2510.600480
716.462281	2512.463186
716.795556	2508.483195
717.128782	2509.370438
717.461960	2508.180726
717.795088	2505.645025
718.128167	2505.292145
718.461198	2505.629902
718.794180	2506.675941
719.127113	2505.634943
719.459997	2505.385406
719.792833	2504.034377
720.125619	2506.401198
720.458357	2501.657473
720.791046	2503.668893
721.123686	2500.923985
721.456278	2503.701661
721.788821	2501.342401
722.121315	2503.260560
722.453761	2500.336690
722.786158	2502.975734
723.118506	2500.893738
723.450805	2501.460868
723.783056	2501.430621
724.115259	2498.325270
724.447412	2503.623523
724.779518	2502.365755
725.111574	2503.875580
725.443582	2501.314674
725.775542	2500.160250
726.107453	2503.600838
726.439315	2500.750065
726.771129	2505.375324
727.102895	2499.913233
727.434612	2502.973214
727.766281	2500.066989
728.097901	2505.334994
728.429473	2506.514624
728.760996	2507.164933
729.092471	2506.852382
729.423897	2506.156703
729.755276	2506.212155
730.086606	2506.970849
730.417887	2505.269459
730.749120	2511.144924
731.080305	2507.175016
731.411442	2510.366066
731.742530	2509.486385
732.073570	2514.192302
732.404562	2512.843793
732.735506	2511.699451
733.066401	2511.671725
733.397249	2510.396313
733.728048	2508.861282
734.058798	2506.484378
734.389501	2506.388596
734.720156	2504.409943
735.050762	2503.416835
735.381320	2505.642505
735.711831	2502.572442
736.042293	2500.624036
736.372707	2503.215189
736.703073	2501.879283
737.033391	2502.408605
737.363661	2500.394664
737.693883	2498.889879
738.024056	2502.360714
738.354182	2500.646721
738.684260	2502.544716
739.014290	2503.915910
739.344272	2504.152844
739.674207	2506.323061
740.004093	2504.651918
740.333931	2505.014881
740.663722	2503.066475
740.993464	2507.490088
741.323159	2504.989675
741.652806	2503.346259
741.982405	2503.774757
742.311956	2504.326764
742.641460	2503.855416
742.970915	2504.558657
743.300323	2500.513131
743.629683	2499.109169
743.958996	2502.406084
744.288260	2496.081957
744.617477	2503.147134
744.946647	2497.584220
745.275768	2495.464415
745.604842	2499.429283
745.933869	2498.773933
746.262847	2499.361227
746.591778	2499.915754
746.920662	2498.458861
747.249498	2498.753768
747.578286	2496.263438
747.907027	2498.073212
748.235720	2498.441217
748.564365	2500.316526
748.892963	2498.751248
749.221514	2501.133193
749.550017	2500.651762
749.878473	2499.318377
750.206881	2498.489108
750.535242	2501.211331
750.863555	2497.748058
751.191821	2499.333501
751.520039	2498.657986
751.848210	2500.029180
752.176334	2500.314005
752.504411	2501.186125
752.832440	2497.248984
753.160421	2497.402739
753.488356	2497.614467
753.816243	2497.168325
754.144082	2497.516165
754.471875	2493.987357
754.799620	2496.185300
755.127318	2498.962976
755.454969	2498.461381
755.782572	2494.559528
756.110129	2497.072543
756.437638	2498.910044
756.765100	2498.302585
757.092515	2498.317708
757.419882	2495.429127
757.747203	2497.982472
758.074477	2496.281082
758.401703	2496.759992
758.728882	2496.346617
759.056014	2498.307626
759.383099	2497.566576
759.710138	2496.442399
760.037129	2493.352172
760.364073	2497.591782
760.690970	2495.555156
761.017820	2499.308295
761.344623	2499.421721
761.671379	2500.697133
761.998088	2503.235354
762.324751	2504.903976
762.651366	2511.742301
762.977935	2522.817716
763.304456	2527.569003
763.630931	2533.331042
763.957359	2531.453213
764.283740	2527.402645
764.610074	2524.788807
764.936362	2518.804957
765.262602	2512.717764
765.588796	2509.022598
765.914943	2505.748369
766.241044	2502.524551
766.567097	2501.849037
766.893104	2497.972389
767.219064	2496.510455
767.544978	2497.659838
767.870845	2494.050372
768.196665	2494.189003
768.522438	2491.625577
768.848165	2494.564569
769.173846	2491.978457
769.499479	2492.868221
769.825066	2490.698004
770.150607	2492.283447
770.476101	2489.473004
770.801548	2490.871924
771.126949	2488.384115
771.452303	2487.028044
771.777611	2489.546101
772.102872	2490.622387
772.428087	2487.517036
772.753256	2488.245483
773.078378	2489.528457
773.403453	2489.538539
773.728482	2488.636172
774.053465	2488.129536
774.378401	2488.142139
774.703291	2487.602736
775.028135	2485.374546
775.352932	2487.645586
775.677683	2486.387818
776.002388	2483.645430
776.327046	2483.431181
776.651658	2485.951758
776.976224	2481.835656
777.300743	2483.441263
777.625216	2485.477889
777.949643	2483.693321
778.274024	2487.433857
778.598359	2485.167858
778.922647	2483.136273
779.246889	2485.752632
779.571086	2487.360760
779.895236	2486.261789
780.219339	2486.317242
780.543397	2485.248517
780.867409	2483.814309
781.191374	2484.953609
781.515294	2485.354381
781.839167	2485.969402
782.162995	2483.496716
782.486776	2484.782210
782.810511	2485.994608
783.134201	2483.786582
783.457844	2484.013434
783.781441	2486.249186
784.104993	2485.586274
784.428498	2484.734319
784.751958	2486.266830
785.075372	2485.240955
785.398739	2482.652323
785.722061	2485.185502
786.045337	2485.089721
786.368568	2485.150214
786.691752	2483.363125
787.014891	2485.581233
787.337983	2486.095431
787.661030	2486.680205
787.984031	2488.487458
788.306987	2492.409476
788.629897	2492.205309
788.952760	2491.648262
789.275579	2489.543580
789.598351	2489.692294
789.921078	2492.235556
790.243759	2487.015441
790.566395	2488.996615
790.888984	2486.072746
791.211529	2486.206336
791.534027	2487.491830
791.856480	2485.482931
792.178888	2483.199288
792.501249	2480.756849
792.823566	2480.961016
793.145836	2478.468165
793.468062	2483.521922
793.790241	2485.019144
794.112375	2484.298259
794.434464	2483.400934
794.756507	2484.225163
795.078505	2485.331696
795.400457	2486.350009
795.722364	2485.112406
796.044226	2489.301605
796.366042	2489.258755
796.687812	2490.004846
797.009538	2489.243631
797.331218	2489.329331
797.652852	2487.990905
797.974442	2489.273878
798.295986	2487.953096
798.617484	2483.965543
798.938938	2486.171048
799.260346	2489.344454
799.581709	2483.423619
799.903026	2488.963847
800.224299	2485.472848
800.545526	2486.733137
800.866708	2485.959320
801.187845	2484.353712
801.508936	2483.146356
801.829983	2482.105357
802.150984	2483.872282
802.471940	2483.796665
802.792851	2483.206850
803.113717	2484.363794
803.434538	2482.889257
803.755314	2481.742394
804.076045	2483.814309
804.396731	2482.778352
804.717372	2483.234576
805.037967	2483.963023
805.358518	2485.530822
805.679024	2484.338589
805.999485	2483.436222
806.319901	2484.275574
806.640272	2483.844556
806.960598	2483.655512
807.280879	2483.670636
807.601115	2484.459576
807.921306	2483.211891
808.241453	2483.700883
808.561554	2482.347333
808.881611	2481.636530
809.201623	2476.756693
809.521590	2484.446973
809.841513	2482.201139
810.161390	2483.254741
810.481223	2484.396562
810.801011	2484.600729
811.120755	2483.665595
811.440453	2486.100472
811.760107	2483.000162
812.079716	2484.893116
812.399281	2483.373208
812.718801	2481.744915
813.038276	2481.601242
813.357707	2484.507467
813.677093	2482.753146
813.996434	2486.581902
814.315731	2482.909422
814.634983	2483.569813
814.954191	2482.561582
815.273354	2485.782879
815.592473	2485.974443
815.911547	2484.646099
816.230577	2484.237766
816.549562	2486.047540
816.868502	2483.887405
817.187399	2485.913949
817.506250	2487.396048
817.825058	2486.725575
818.143821	2488.391676
818.462539	2490.662716
818.781213	2488.613487
819.099843	2490.841677
819.418429	2492.820330
819.736970	2497.594303
820.055466	2500.603872
820.373919	2506.128976
820.692327	2512.521159
821.010691	2527.987419
821.329011	2549.069525
821.647286	2594.288675
821.965517	2648.382776
822.283704	2686.894671
822.601847	2706.988710
822.919945	2692.250897
823.237999	2670.236178
823.556010	2645.453866
823.873976	2620.167438
824.191897	2598.198089
824.509775	2576.601786
824.827609	2563.623336
825.145398	2547.242106
825.463144	2546.574153
825.780845	2542.125335
826.098502	2547.335368
826.416116	2556.974054
826.733685	2570.234809
827.051210	2576.077506
827.368692	2573.635067
827.686129	2562.504200
828.003522	2553.147818
828.320872	2537.096784
828.638177	2525.693694
828.955439	2519.062056
829.272656	2510.968484
829.589830	2505.826507
829.906960	2504.535972
830.224046	2500.833244
830.541088	2497.627070
830.858086	2490.808910
831.175041	2492.916112
831.491952	2488.263127
831.808819	2492.863180
832.125642	2492.719507
832.442421	2496.739827
832.759157	2499.835096
833.075849	2509.524193
833.392497	2517.390914
833.709101	2529.066226
834.025662	2527.692512
834.342179	2526.253262
834.658653	2517.111130
834.975083	2512.609379
835.291469	2508.770541
835.607811	2500.366937
835.924110	2498.095897
836.240366	2495.608088
836.556578	2490.496358
836.872746	2488.437047
837.188871	2490.201451
837.504952	2485.866058
837.820990	2481.205512
838.136984	2483.768938
838.452935	2482.191057
838.768842	2484.207519
839.084706	2481.175265
839.400526	2484.757004
839.716303	2491.428972
840.032037	2496.749909
840.347727	2495.398880
840.663373	2494.899806
840.978977	2488.016110
841.294537	2489.397387
841.610054	2487.479228
841.925527	2483.882364
842.240957	2483.332878
842.556344	2478.279122
842.871687	2483.766418
843.186987	2478.110243
843.502244	2478.558906
843.817458	2479.662918
844.132629	2478.742908
844.447756	2476.076138
844.762840	2477.462455
845.077881	2476.406333
845.392879	2475.952629
845.707833	2473.187556
846.022745	2472.754017
846.337613	2471.803760
846.652438	2474.836014
846.967221	2475.309882
847.281960	2475.312403
847.596656	2474.417598
847.911309	2475.042701
848.225919	2475.002372
848.540485	2475.438432
848.855009	2475.967753
849.169490	2474.641929
849.483928	2472.428863
849.798323	2473.588328
850.112675	2473.275777
850.426984	2472.945581
850.741251	2474.999851
851.055474	2473.056486
851.369654	2477.124698
851.683792	2474.291569
851.997887	2473.353914
852.311938	2474.795684
852.625947	2474.127732
852.939914	2474.326857
853.253837	2477.036477
853.567718	2477.596045
853.881555	2474.586477
854.195350	2473.427011
854.509103	2473.109418
854.822812	2473.885756
855.136479	2474.432721
855.450103	2470.107411
855.763685	2469.678913
856.077224	2470.929119
856.390720	2470.437607
856.704173	2468.219499
857.017584	2472.131435
857.330953	2473.550519
857.644278	2473.815180
857.957561	2476.383648
858.270802	2475.861888
858.584000	2472.340643
858.897155	2475.040180
859.210268	2473.553040
859.523339	2477.432208
859.836367	2471.818883
860.149352	2474.760396
860.462295	2473.956332
860.775195	2470.616568
861.088054	2473.069089
861.400869	2472.791826
861.713642	2473.013637
862.026373	2471.786116
862.339062	2473.847948
862.651708	2475.526652
862.964312	2476.053452
863.276873	2476.519759
863.589392	2474.442804
863.901869	2474.407516
864.214303	2475.193936
864.526696	2475.756024
864.839045	2475.662763
865.151353	2474.493215
865.463619	2478.485809
865.775842	2473.656384
866.088023	2474.208390
866.400162	2476.139152
866.712258	2476.572691
867.024313	2476.696199
867.336325	2476.766776
867.648296	2475.511528
867.960224	2477.008751
868.272110	2476.028247
868.583954	2476.585294
868.895755	2475.934985
869.207515	2477.326344
869.519233	2475.889615
869.830909	2475.088071
870.142542	2475.806436
870.454134	2476.577732
870.765684	2475.980356
871.077191	2475.382979
871.388657	2474.402474
871.700081	2471.264356
872.011463	2474.324337
872.322803	2471.836527
872.634101	2477.192753
872.945357	2474.674697
873.256571	2479.892291
873.567744	2477.689307
873.878874	2481.223156
874.189963	2476.892804
874.501010	2480.199801
874.812015	2476.920531
875.122979	2477.517908
875.433900	2474.727629
875.744780	2479.063021
876.055618	2477.170068
876.366415	2482.611993
876.677169	2479.294914
876.987882	2481.732312
877.298554	2481.752477
877.609183	2480.701396
877.919771	2480.721561
878.230317	2480.623258
878.540822	2483.935296
878.851285	2483.307673
879.161707	2486.367653
879.472087	2489.851090
879.782425	2495.827378
880.092722	2503.250477
880.402977	2522.580782
880.713191	2541.855633
881.023363	2566.642987
881.333494	2586.096800
881.643583	2591.649631
881.953631	2592.070567
882.263637	2587.223497
882.573602	2577.305027
882.883526	2568.946794
883.193408	2562.287430
883.503248	2554.801317
883.813048	2546.216232
884.122806	2538.717515
884.432522	2529.051103
884.742197	2520.468538
885.051831	2515.208094
885.361424	2508.304234
885.670975	2503.043790
885.980485	2499.673779
886.289954	2496.840650
886.599382	2495.459374
886.908768	2488.288333
887.218113	2485.024186
887.527417	2483.935296
887.836680	2480.585450
888.145901	2483.416058
888.455082	2484.807416
888.764221	2481.533187
889.073319	2481.329020
889.382376	2481.389514
889.691392	2479.153762
890.000366	2482.433032
890.309300	2480.343474
890.618193	2482.309524
890.927044	2480.179637
891.235855	2482.985039
891.544625	2480.164513
891.853353	2483.365646
892.162041	2481.152579
892.470687	2483.663074
892.779293	2481.439925
893.087858	2485.354381
893.396381	2487.212046
893.704864	2491.431492
894.013306	2498.441217
894.321707	2503.739469
894.630068	2508.105108
894.938387	2510.388751
895.246665	2513.473937
895.554903	2509.562002
895.863100	2506.723832
896.171256	2503.184942
896.479371	2497.851402
896.787446	2497.296875
897.095480	2495.938284
897.403473	2489.271358
897.711425	2491.025679
898.019336	2489.583909
898.327207	2487.020483
898.635038	2487.713641
898.942827	2482.836325
899.250576	2484.643578
899.558284	2480.862713
899.865952	2483.254741
900.173579	2480.923207
900.481165	2479.804071
900.788711	2478.846252
901.096216	2476.544965
901.403681	2480.114102
901.711105	2481.825573
902.018489	2475.715695
902.325832	2475.629995
902.633135	2476.668473
902.940397	2478.740387
903.247619	2480.812302
903.554800	2494.680516
903.861941	2502.254849
904.169041	2512.465707
904.476101	2517.839577
904.783121	2516.607014
905.090100	2513.834380
905.397039	2510.207270
905.703938	2507.497649
906.010796	2502.058244
906.317614	2498.481546
906.624391	2492.069198
906.931129	2488.726913
907.237826	2488.968888
907.544483	2485.901346
907.851099	2485.245996
908.157675	2482.730461
908.464211	2481.860862
908.770707	2477.311220
909.077163	2476.701241
909.383578	2477.061683
909.689954	2475.725777
909.996289	2475.448514
910.302584	2475.393061
910.608839	2471.952474
910.915054	2473.951291
911.221229	2473.558081
911.527363	2472.096147
911.833458	2472.693523
912.139513	2474.616723
912.445527	2473.684110
912.751502	2474.536065
913.057436	2474.228555
913.363331	2475.173771
913.669186	2473.681589
913.975000	2477.691827
914.280775	2481.243320
914.586510	2485.235914
914.892205	2488.426964
915.197859	2496.114724
915.503475	2501.551608
915.809050	2511.321365
916.114585	2515.878568
916.420081	2518.457118
916.725536	2516.627179
917.030952	2517.103568
917.336328	2515.220697
917.641665	2507.308606
917.946961	2505.196363
918.252218	2505.128307
918.557435	2499.472133
918.862612	2499.641011
919.167750	2497.614467
919.472848	2495.267810
919.777906	2490.254383
920.082925	2491.244969
920.387904	2486.516367
920.692843	2484.789772
920.997743	2482.228866
921.302603	2482.934627
921.607423	2480.643423
921.912204	2479.990593
922.216946	2479.085706
922.521647	2478.647126
922.826310	2475.647639
923.130932	2476.580253
923.435516	2474.614203
923.740059	2474.445324
924.044564	2474.228555
924.349028	2476.600417
924.653454	2475.221662
924.957840	2474.531024
925.262186	2472.002885
925.566493	2473.568163
925.870761	2472.693523
926.174989	2472.660756
926.479178	2465.648511
926.783328	2473.187556
927.087438	2467.911989
927.391509	2469.247895
927.695541	2468.811835
927.999533	2470.777885
928.303486	2470.974490
928.607400	2469.878039
928.911275	2470.142699
929.215110	2469.348718
929.518906	2472.421301
929.822663	2469.641105
930.126381	2469.691516
930.430060	2468.776547
930.733699	2470.571198
931.037299	2468.274952
931.340861	2470.130097
931.644383	2466.591207
931.947866	2472.660756
932.251309	2471.687813
932.554714	2470.853502
932.858080	2467.375106
933.161407	2466.303861
933.464694	2466.868470
933.767943	2464.554580
934.071153	2469.479788
934.374323	2470.044397
934.677455	2469.477267
934.980548	2470.384675
935.283602	2468.726135
935.586617	2465.744293
935.889593	2469.941053
936.192530	2469.986424
936.495428	2468.968111
936.798287	2466.298820
937.101108	2470.588842
937.403890	2469.900724
937.706632	2470.321660
938.009336	2470.193111
938.312002	2472.018009
938.614628	2467.639767
938.917216	2473.900880
939.219765	2468.932822
939.522275	2473.449696
939.824747	2474.495736
940.127179	2475.541775
940.429573	2471.332412
940.731929	2471.763430
941.034246	2471.082875
941.336524	2473.001034
941.638763	2471.282000
941.940964	2471.932309
942.243126	2471.034984
942.545250	2471.350056
942.847335	2471.350056
943.149381	2471.881898
943.451389	2468.963069
943.753359	2468.857205
944.055290	2468.799232
944.357182	2467.554067
944.659036	2467.980044
944.960851	2470.064562
945.262628	2469.414253
945.564367	2470.591362
945.866067	2467.952318
946.167729	2470.208234
946.469352	2470.165385
946.770937	2469.666310
947.072484	2467.302009
947.373992	2471.874336
947.675462	2468.141361
947.976893	2465.966103
948.278286	2466.538274
948.579641	2464.804117
948.880958	2464.791515
949.182236	2469.920889
949.483476	2470.772844
949.784678	2471.128245
950.085841	2468.176649
950.386967	2470.142699
950.688054	2469.936012
950.989103	2470.218317
951.290114	2469.167236
951.591087	2469.212607
951.892021	2473.134624
952.192917	2468.582462
952.493776	2471.158492
952.794596	2472.441466
953.095378	2468.499283
953.396122	2470.543471
953.696828	2470.525827
953.997496	2471.314768
954.298126	2469.714201
954.598718	2470.488018
954.899272	2469.280662
955.199788	2468.431228
955.500266	2469.333594
955.800706	2471.188739
956.101108	2469.933492
956.401472	2467.322174
956.701798	2467.226392
957.002087	2466.318984
957.302337	2467.163378
957.602550	2467.619602
957.902724	2466.402163
958.202861	2465.948459
958.502960	2468.912658
958.803022	2467.170939
959.103045	2468.527010
959.403031	2464.763788
959.702979	2467.617081
960.002889	2465.078860
960.302762	2467.145733
960.602596	2467.324694
960.902393	2467.017184
961.202153	2464.708336
961.501875	2464.743624
961.801559	2465.373768
962.101205	2464.151288
962.400814	2467.410394
962.700385	2463.531226
962.999918	2460.526698
963.299414	2458.837912
963.598873	2466.268573
963.898293	2462.273458
964.197677	2464.559622
964.497022	2464.552060
964.796331	2463.198510
965.095601	2464.269755
965.394835	2464.990640
965.694030	2463.674899
965.993189	2463.848819
966.292309	2464.173973
966.591393	2465.461988
966.890439	2462.691874
967.189447	2465.189766
967.488419	2464.259673
967.787353	2463.649693
968.086249	2464.655403
968.385108	2463.349745
968.683930	2464.365537
968.982714	2464.665486
969.281462	2467.687658
969.580172	2464.620115
969.878844	2463.473253
970.177480	2464.584827
970.476078	2463.745475
970.774639	2465.467029
971.073162	2464.184056
971.371649	2465.409056
971.670098	2465.600620
971.968510	2464.015177
972.266885	2465.903089
972.565223	2467.380147
972.863524	2466.288737
973.161788	2466.089612
973.460014	2466.129941
973.758204	2467.133131
974.056356	2467.370065
974.354471	2462.734724
974.652550	2466.283696
974.950591	2466.850826
975.248595	2466.470219
975.546563	2464.665486
975.844493	2464.723459
976.142386	2466.376958
976.440243	2464.410908
976.738062	2463.795887
977.035845	2464.849488
977.333590	2467.692699
977.631299	2464.163891
977.928971	2463.284210
978.226606	2459.571400
978.524204	2464.768829
978.821765	2458.676595
979.119290	2466.021556
979.416777	2464.892338
979.714228	2464.811679
980.011642	2465.572893
980.309020	2466.563480
980.606360	2466.777729
980.903664	2463.216154
981.200931	2466.276134
981.498162	2465.310753
981.795356	2465.905610
982.092513	2465.930815
982.389633	2467.095322
982.686717	2467.934674
982.983764	2470.172946
983.280775	2472.237299
983.577749	2471.123204
983.874686	2469.545323
984.171587	2472.897690
984.468451	2468.176649
984.765279	2470.659418
985.062070	2468.889973
985.358824	2468.768985
985.655543	2468.625312
985.952224	2468.423666
986.248869	2464.852008
986.545478	2463.490897
986.842050	2467.274283
987.138586	2465.366206
987.435086	2468.116156
987.731549	2464.302523
988.027975	2464.821762
988.324366	2463.201031
988.620719	2466.896196
988.917037	2465.673717
989.213318	2464.511731
989.509563	2463.216154
989.805772	2464.675568
990.101944	2462.706997
990.398080	2464.698253
990.694180	2465.366206
990.990244	2465.222533
991.286271	2463.621967
991.582262	2463.632049
991.878217	2465.257821
992.174136	2465.151957
992.470019	2463.881586
992.765865	2462.951493
993.061676	2458.563169
993.357450	2462.659107
993.653188	2460.113324
993.948890	2464.047944
994.244556	2466.059365
994.540186	2467.397791
994.835780	2465.260342
995.131337	2466.709674
995.426859	2463.011987
995.722345	2466.092132
996.017795	2467.332256
996.313208	2468.920220
996.608586	2468.985755
996.903928	2466.470219
997.199234	2470.316619
997.494504	2468.653038
997.789738	2468.559777
998.084936	2465.784622
998.380099	2468.733697
998.675225	2468.469036
998.970316	2466.835703
999.265371	2465.479632
999.560390	2467.659931
999.855373	2466.008953
1000.150320	2464.872173
1000.445232	2465.835033
1000.740108	2464.481484
1001.034948	2465.557770
1001.329752	2461.139199
1001.624521	2463.753037
1001.919254	2462.462502
1002.213951	2466.213120
1002.508613	2463.463171
1002.803239	2463.001905
1003.097829	2462.739765
1003.392384	2465.971145
1003.686903	2463.087605
1003.981386	2462.568366
1004.275834	2463.493417
1004.570246	2459.982254
1004.864623	2461.096349
1005.158964	2465.184725
1005.453270	2461.628191
1005.747540	2465.056175
1006.041775	2461.880248
1006.335974	2462.578448
1006.630138	2462.026442
1006.924266	2465.673717
1007.218359	2460.662810
1007.512416	2457.335648
1007.806438	2458.361523
1008.100425	2462.152471
1008.394376	2460.209106
1008.688292	2465.126751
1008.982172	2463.463171
1009.276017	2464.443675
1009.569827	2461.822275
1009.863602	2461.794549
1010.157341	2461.262707
1010.451045	2466.334108
1010.744714	2460.720783
1011.038347	2464.635239
1011.331945	2463.989971
1011.625508	2461.023252
1011.919036	2462.792697
1012.212528	2461.169446
1012.505986	2464.239508
1012.799408	2461.643314
1013.092795	2459.599126
1013.386147	2462.732203
1013.679464	2462.013839
1013.972745	2462.863273
1014.265992	2463.165743
1014.559204	2464.199179
1014.852380	2462.417131
1015.145521	2462.235650
1015.438628	2462.270938
1015.731699	2461.635752
1016.024736	2461.804631
1016.317737	2460.083077
1016.610703	2465.915692
1016.903635	2461.897892
1017.196531	2461.575258
1017.489393	2460.688015
1017.782219	2462.573407
1018.075011	2461.303036
1018.367768	2461.053499
1018.660490	2465.484673
1018.953177	2465.484673
1019.245829	2465.484673
