Dividing Wavelength (nm)	Counts (n)	Blue Motor Position (mm): 0.000000	Red Motor Position (mm): 50.000000	
326.493990	2055.162477
326.888308	2055.162477
327.282561	2055.162477
327.676750	2028.812365
328.070874	2029.162726
328.464933	2035.375948
328.858929	2043.971115
329.252859	2054.958310
329.646726	2068.597152
330.040528	2085.048957
330.434265	2101.042018
330.827938	2123.160080
331.221547	2145.263019
331.615091	2164.588283
332.008571	2181.115705
332.401986	2204.030270
332.795338	2219.244473
333.188625	2242.915210
333.581847	2261.012953
333.975006	2279.692948
334.368100	2296.800104
334.761129	2310.842238
335.154095	2330.154898
335.546996	2380.795809
335.939833	2492.328817
336.332606	2500.629077
336.725315	2516.642303
337.117960	2524.793848
337.510540	2533.668800
337.903056	2543.282280
338.295508	2551.907694
338.687896	2560.903633
339.080220	2563.666186
339.472480	2566.953018
339.864676	2570.542319
340.256807	2574.509707
340.648875	2577.292424
341.040879	2576.153124
341.432818	2580.047415
341.824694	2581.257292
342.216506	2581.027919
342.608253	2584.539083
342.999937	2578.459452
343.391557	2577.544482
343.783113	2576.503484
344.174605	2573.256981
344.566033	2574.708833
344.957397	2570.416291
345.348697	2570.426373
345.739934	2570.751527
346.131106	2566.456464
346.522215	2564.936556
346.913260	2562.778943
347.304241	2562.562173
347.695159	2561.256514
348.086012	2559.078736
348.476802	2557.493293
348.867528	2554.161090
349.258191	2549.014072
349.648789	2553.964485
350.039324	2545.034081
350.429796	2550.609597
350.820203	2551.549772
351.210548	2552.305945
351.600828	2548.318393
351.991045	2547.380738
352.381198	2547.905018
352.771288	2544.280428
353.161314	2547.448794
353.551276	2547.050542
353.941175	2549.460214
354.331010	2546.251520
354.720782	2551.290153
355.110490	2553.339382
355.500135	2550.221428
355.889717	2552.399207
356.279235	2546.609442
356.668689	2548.121788
357.058080	2553.790565
357.447408	2551.708569
357.836672	2551.305276
358.225873	2551.953065
358.615010	2552.374001
359.004084	2549.399720
359.393095	2552.467262
359.782043	2550.453321
360.170927	2554.314845
360.559748	2554.120761
360.948505	2553.878785
361.337199	2554.645041
361.725830	2556.245607
362.114398	2555.227294
362.502903	2558.892213
362.891344	2561.669889
363.279722	2557.740309
363.668037	2559.718962
364.056289	2560.520506
364.444478	2561.067471
364.832603	2561.193500
365.220665	2563.010836
365.608665	2558.763663
365.996601	2564.876062
366.384474	2565.188614
366.772284	2563.177194
367.160031	2562.428582
367.547715	2565.241546
367.935336	2563.119220
368.322893	2563.663665
368.710388	2560.875907
369.097820	2564.903789
369.485189	2562.758778
369.872495	2570.189439
370.259738	2566.776578
370.646918	2565.228943
371.034035	2570.844789
371.421090	2570.993503
371.808081	2570.749007
372.195010	2569.440827
372.581875	2573.645150
372.968678	2575.112125
373.355418	2577.171437
373.742096	2579.235789
374.128710	2579.079513
374.515262	2583.543455
374.901751	2586.066553
375.288177	2590.207861
375.674540	2591.584096
376.060841	2600.668255
376.447079	2600.017946
376.833254	2606.195880
377.219367	2611.574791
377.605417	2617.911522
377.991404	2622.209105
378.377329	2630.285034
378.763191	2636.964562
379.148991	2644.639719
379.534727	2653.295380
379.920402	2661.479694
380.306013	2671.614933
380.691563	2680.767148
381.077049	2692.908767
381.462474	2699.580734
381.847835	2717.128991
382.233134	2728.080898
382.618371	2736.671024
383.003545	2756.215577
383.388657	2770.416508
383.773706	2788.778911
384.158693	2797.946249
384.543618	2819.807212
384.928480	2835.568380
385.313280	2857.782224
385.698017	2876.232847
386.082692	2898.131620
386.467305	2916.113416
386.851856	2937.321550
387.236344	2968.455716
387.620770	2983.604383
388.005133	3004.459637
388.389435	3040.314843
388.773674	3051.314641
389.157851	3085.385279
389.541965	3112.481481
389.926018	3124.287864
390.310008	3157.814057
390.693936	3185.968902
391.077802	3212.613920
391.461606	3241.121645
391.845348	3258.606887
392.229027	3289.486475
392.612645	3331.028103
392.996200	3362.447095
393.379694	3398.859349
393.763125	3439.440638
394.146494	3468.560863
394.529801	3502.455061
394.913047	3546.723953
395.296230	3553.549675
395.679351	3578.599169
396.062410	3628.950213
396.445408	3606.728807
396.828343	3654.329903
397.211217	3685.111188
397.594028	3656.545490
397.976778	3707.347718
398.359466	3739.822831
398.742092	3749.829521
399.124656	3763.012138
399.507158	3823.972291
399.889598	3831.632324
400.271977	3898.551121
400.654294	3880.821383
401.036549	3945.456537
401.418742	3941.680713
401.800874	4015.964635
402.182944	4039.211916
402.564952	4123.328609
402.946898	4122.146459
403.328783	4115.494656
403.710606	4167.027852
404.092367	4235.605188
404.474067	4300.265548
404.855705	4284.552271
405.237282	4261.708283
405.618797	4354.576419
406.000250	4434.123306
406.381642	4520.861399
406.762972	4518.386192
407.144240	4486.579032
407.525447	4548.865008
407.906593	4564.626176
408.287677	4649.496522
408.668700	4675.294626
409.049661	4718.777099
409.430560	4753.157768
409.811399	4737.673864
410.192176	4787.982059
410.572891	4870.914081
410.953545	4977.045493
411.334138	4875.602354
411.714669	4977.897448
412.095139	4894.907452
412.475547	5003.337631
412.855894	5010.314588
413.236180	5111.926605
413.616405	5043.447571
413.996568	5146.632429
414.376670	5147.607892
414.756711	5144.726873
415.136691	5214.985434
415.516609	5301.506757
415.896466	5338.556717
416.276262	5412.563376
416.655997	5529.064442
417.035670	5623.626406
417.415283	5762.096819
417.794834	5840.121278
418.174324	5798.758611
418.553753	5799.086286
418.933121	5963.881605
419.312428	5980.933308
419.691674	5904.668212
420.070859	6133.556761
420.449983	6010.146794
420.829045	6205.960333
421.208047	6133.534076
421.586988	6285.620646
421.965867	6369.374376
422.344686	6443.275171
422.723444	6613.036027
423.102141	6232.411267
423.480777	6624.373582
423.859352	6436.633451
424.237866	6808.589946
424.616319	6799.588966
424.994712	6963.713812
425.373044	6880.607870
425.751314	7197.532610
426.129524	6915.291009
426.507673	7181.645413
426.885762	7223.819706
427.263789	7265.537775
427.641756	7354.814089
428.019662	7438.096471
428.397508	7475.577450
428.775292	7454.868390
429.153016	7632.989999
429.530679	7558.335552
429.908282	7615.343440
430.285824	7554.350520
430.663305	7844.844490
431.040726	7730.077581
431.418086	7735.010350
431.795385	7860.968620
432.172624	8051.264616
432.549802	7941.324613
432.926920	8069.334632
433.303977	8013.541662
433.680974	8058.173518
434.057910	8261.765557
434.434786	8312.129204
434.811601	8266.630270
435.188355	8603.573432
435.565050	8498.520827
435.941683	8510.102878
436.318257	8845.674845
436.694770	8795.028893
437.071222	9028.336014
437.447614	8801.519379
437.823946	8765.374306
438.200218	8921.909694
438.576429	8799.074419
438.952580	8967.874935
439.328670	8976.593611
439.704700	9053.957678
440.080670	8941.996172
440.456580	9218.011948
440.832429	9187.356691
441.208218	8925.287267
441.583947	9039.978558
441.959616	9160.169748
442.335224	9201.804638
442.710773	9280.113922
443.086261	9472.328077
443.461689	9176.561060
443.837057	9351.380714
444.212365	9566.365761
444.587612	9545.041680
444.962800	9443.827914
445.337927	9575.200383
445.712995	9115.913459
446.088002	9787.962281
446.462949	9846.187608
446.837837	9833.491462
447.212664	9856.385862
447.587431	10685.514518
447.962139	11710.305477
448.336786	12660.658759
448.711374	12457.182666
449.085901	11223.156096
449.460369	11146.467543
449.834776	10913.488097
450.209124	11832.308962
450.583412	11663.919300
450.957640	11981.965696
451.331808	11571.812378
451.705917	10993.619758
452.079965	10868.717610
452.453954	11073.237222
452.827883	11022.455158
453.201752	10994.895170
453.575562	10995.605973
453.949311	11344.854591
454.323001	11410.853377
454.696632	11319.976497
455.070202	11914.610840
455.443713	11969.458593
455.817164	12145.788073
456.190556	12468.394193
456.563888	12338.229080
456.937160	12618.713838
457.310373	12084.636356
457.683526	12097.730753
458.056619	12116.572066
458.429653	12182.023887
458.802628	12323.430772
459.175542	12372.282074
459.548398	12940.919187
459.921194	13511.766845
460.293930	13787.147436
460.666607	14646.381862
461.039224	15455.386231
461.411782	15824.996069
461.784280	15498.485576
462.156719	15451.144100
462.529099	15360.035327
462.901419	14713.456934
463.273680	14317.658302
463.645882	14529.195200
464.018024	14408.913269
464.390106	14768.541623
464.762130	15842.793863
465.134094	17354.494749
465.505999	19650.952055
465.877845	21942.665634
466.249631	23241.143357
466.621358	22802.099186
466.993026	22010.350686
467.364634	21265.762181
467.736184	20454.869900
468.107674	19826.792542
468.479105	19697.965855
468.850477	19421.483773
469.221790	18974.159507
469.593043	18305.596643
469.964238	17913.974606
470.335373	17963.695506
470.706449	18687.159057
471.077467	19541.221259
471.448425	22036.045448
471.819324	23920.892541
472.190164	23846.313711
472.560945	22099.427875
472.931667	20496.535036
473.302330	20163.375261
473.672934	19592.825030
474.043479	20033.500014
474.413965	19802.400919
474.784393	19619.467528
475.154761	20296.751589
475.525070	20425.948800
475.895321	20261.604664
476.265513	20797.398659
476.635645	21387.853886
477.005719	21450.351591
477.375734	21821.105771
477.745691	22455.832411
478.115588	23094.400409
478.485427	24294.041270
478.855207	26122.203109
479.224928	27944.459237
479.594591	29400.316741
479.964194	29064.885926
480.333739	29537.010148
480.703226	29766.188564
481.072653	30198.686796
481.442022	30734.803426
481.811333	31145.120581
482.180584	30716.471270
482.549777	30493.765696
482.918912	30259.914130
483.287988	30191.523317
483.657005	30047.951255
484.025964	29668.526290
484.394864	29887.614837
484.763706	29797.889860
485.132489	29267.162224
485.501213	29356.367962
485.869879	29522.877273
486.238487	29445.004049
486.607036	29725.146010
486.975527	29407.696990
487.343959	29761.833007
487.712333	30127.271290
488.080648	30074.621480
488.448905	30516.675219
488.817104	30397.315820
489.185244	31248.000449
489.553326	32182.469055
489.921350	34102.775625
490.289315	36646.625035
490.657222	37580.249248
491.025070	38182.556227
491.392861	37926.387474
491.760593	37170.887391
492.128267	36169.336150
492.495883	35169.708110
492.863440	34268.564052
493.230939	33294.151863
493.598380	32707.066648
493.965763	32540.131359
494.333088	32028.950797
494.700354	31826.218274
495.067563	31798.489408
495.434713	31658.020176
495.801805	31967.143730
496.168839	31792.843315
496.535815	31649.220842
496.902733	31779.272529
497.269593	31592.396956
497.636395	31749.776738
498.003139	32032.177135
498.369825	31788.122275
498.736453	32204.811449
499.103023	32045.097613
499.469535	32133.111118
499.835989	32246.365680
500.202385	32117.372635
500.568723	32168.066478
500.935003	32471.922027
501.301226	32336.398167
501.667390	33086.516818
502.033497	33294.434167
502.399546	33094.804475
502.765537	32692.046530
503.131470	33186.750080
503.497345	33633.240035
503.863163	32550.518656
504.228923	33340.921168
504.594625	33730.972885
504.960269	33216.250913
505.325856	33889.423912
505.691385	33536.099521
506.056856	33884.150865
506.422270	34380.142430
506.787625	33880.606934
507.152924	34361.356570
507.518164	34524.798340
507.883347	34118.403202
508.248472	34245.833489
508.613540	34951.690809
508.978550	35173.698183
509.343503	35017.308988
509.708398	35387.924537
510.073236	35975.597046
510.438016	36087.951763
510.802738	35745.405359
511.167403	36297.567981
511.532010	36549.050982
511.896561	37082.997394
512.261053	37868.111735
512.625488	37634.416446
512.989866	37544.968733
513.354186	37601.361600
513.718449	37568.984789
514.082655	38470.070875
514.446803	38140.424784
514.810894	38783.144173
515.174927	38796.639342
515.538904	38790.342940
515.902822	39430.907236
516.266684	39125.080597
516.630488	39482.868929
516.994235	39484.207356
517.357925	40070.410369
517.721558	40342.536895
518.085133	40720.880532
518.448651	40891.326985
518.812112	40794.753601
519.175516	40963.077728
519.538863	41417.661255
519.902152	41468.685294
520.265385	42016.779704
520.628560	42037.082952
520.991678	41994.853206
521.354739	42229.909607
521.717743	42592.418980
522.080690	42487.575583
522.443580	43193.879045
522.806413	43191.403839
523.169189	43319.353364
523.531908	43551.639651
523.894569	43414.013631
524.257174	43591.684057
524.619722	43950.546155
524.982213	44115.253254
525.344647	44158.781097
525.707025	44268.761430
526.069345	44720.552158
526.431608	44645.194470
526.793815	45032.148398
527.155964	44570.040948
527.518057	44822.973281
527.880093	44669.361762
528.242072	45319.151369
528.603995	45031.719900
528.965860	44947.373834
529.327669	45163.273851
529.689421	45238.066930
530.051117	45193.631679
530.412755	45473.400594
530.774337	45517.193098
531.135862	45472.294061
531.497331	45624.327699
531.858743	45617.348222
532.220098	46040.074178
532.581396	45757.187309
532.942638	45526.751125
533.303824	45774.864115
533.664953	45839.007756
534.026025	45496.390776
534.387040	46069.600216
534.747999	46124.808412
535.108902	46465.421533
535.469748	45777.384692
535.830537	46058.618062
536.191270	46308.079560
536.551947	46052.223358
536.912567	46319.918710
537.273131	46453.214379
537.633638	46091.287259
537.994089	46259.157683
538.354483	46012.849426
538.714821	46655.967066
539.075103	46946.745861
539.435328	46825.614496
539.795497	46565.977429
540.155609	46692.795216
540.515665	47294.104047
540.875665	46575.510251
541.235609	46855.165740
541.595496	47002.561517
541.955328	47591.015405
542.315102	47030.305507
542.674821	46920.350380
543.034483	46810.612022
543.394090	46821.470668
543.753640	46805.212947
544.113134	47864.291314
544.472571	46969.524315
544.831953	48112.658882
545.191278	47367.543576
545.550548	47060.154179
545.909761	47698.520532
546.268918	47840.020679
546.628019	48254.141385
546.987064	47674.368363
547.346053	46998.188316
547.704986	47928.240871
548.063863	47552.354796
548.422684	47771.677756
548.781449	47325.928851
549.140158	47851.484263
549.498811	47604.692056
549.857408	47008.079060
550.215949	47864.641674
550.574434	47681.239456
550.932864	47645.868200
551.291237	48353.033700
551.649555	48097.868136
552.007817	48255.928474
552.366022	47981.233480
552.724173	48050.158656
553.082267	48437.410013
553.440305	48827.668417
553.798288	48036.250113
554.156215	48453.191345
554.514086	48648.490686
554.871902	48227.700533
555.229661	48416.864790
555.587365	48091.256663
555.945014	48222.515706
556.302606	48249.770705
556.660143	48327.490173
557.017625	48574.650385
557.375050	48256.674565
557.732421	48656.808590
558.089735	48726.416842
558.446994	48589.446171
558.804197	49074.228731
559.161345	48920.516388
559.518437	48270.371380
559.875474	48511.542700
560.232455	48742.997197
560.589381	48779.636303
560.946251	48606.588615
561.303065	49263.511455
561.659825	48948.308270
562.016528	48746.583978
562.373177	48327.480091
562.729770	48960.414601
563.086307	48454.759143
563.442789	49028.865908
563.799216	48865.963542
564.155587	48778.486920
564.511904	48740.466538
564.868164	48778.386097
565.224370	49102.439028
565.580520	48814.848763
565.936615	49016.275626
566.292654	48673.575467
566.648638	49038.476868
567.004567	48965.322164
567.360441	49039.845541
567.716260	48749.074308
568.072023	49146.375204
568.427732	49053.212161
568.783385	48582.955686
569.138982	49016.641110
569.494525	49148.311007
569.850013	48750.838712
570.205445	48882.420389
570.560823	48645.493720
570.916145	48532.057676
571.271412	48762.874467
571.626625	48400.102953
571.981782	48478.185385
572.336884	48080.720652
572.691931	48393.557015
573.046923	48056.782733
573.401860	47880.082728
573.756743	47905.764887
574.111570	48029.247950
574.466342	47954.573338
574.821059	48120.286147
575.175722	47587.186649
575.530330	47669.488527
575.884882	47328.192329
576.239380	47217.455823
576.593823	47317.104311
576.948211	47262.853934
577.302544	46789.925648
577.656823	46779.117414
578.011047	47062.735250
578.365216	46881.941829
578.719330	46573.501351
579.073389	46580.614419
579.427394	46626.158724
579.781344	46512.379881
580.135239	46265.985925
580.489080	46340.990733
580.842866	45834.203537
581.196597	46313.508883
581.550273	46291.655481
581.903895	46237.952069
582.257463	46672.870055
582.610975	46108.283510
582.964434	46419.118535
583.317837	45905.213230
583.671186	45883.269087
584.024481	46163.537076
584.377721	45700.688577
584.730906	45900.603095
585.084037	46048.298820
585.437113	45771.226922
585.790135	45910.650114
586.143103	45452.736905
586.496016	45604.972189
586.848874	45740.188538
587.201679	45754.525580
587.554428	45225.101082
587.907124	45510.664803
588.259765	45266.718328
588.612352	45423.301607
588.964884	44877.445469
589.317362	45189.354260
589.669786	45193.407348
590.022155	45053.464917
590.374470	45546.366255
590.726731	45125.387059
591.078937	44439.520434
591.431090	44810.032639
591.783188	44309.035208
592.135232	44116.437925
592.487222	44376.014499
592.839157	44541.011464
593.191038	44187.540880
593.542866	43983.638810
593.894639	43363.566804
594.246358	43680.728478
594.598022	43657.950024
594.949633	43204.427660
595.301190	43196.775188
595.652692	43161.829910
596.004141	43665.904965
596.355535	42529.394474
596.706876	42532.961091
597.058162	42253.527413
597.409395	42776.411013
597.760573	42980.532373
598.111698	42567.823190
598.462768	42487.752023
598.813785	42521.167311
599.164748	42110.197326
599.515657	42390.878690
599.866511	41885.379509
600.217312	42583.513782
600.568060	41531.155272
600.918753	42359.195038
601.269392	42257.368772
601.619978	41988.176198
601.970510	42197.724360
602.320988	42308.387769
602.671412	42592.739093
603.021783	42438.346195
603.372100	42012.739220
603.722363	42106.776903
604.072572	42158.017712
604.422728	42153.059737
604.772830	41923.992227
605.122878	42108.490896
605.472872	41958.740900
605.822813	42232.483116
606.172701	41945.719600
606.522534	42277.924077
606.872314	42469.331647
607.222041	42319.742968
607.571714	42659.985565
607.921333	42112.546504
608.270899	42331.325019
608.620411	42727.955442
608.969870	42471.189312
609.319276	42498.212417
609.668627	42521.051365
610.017926	42912.638113
610.367171	43046.510995
610.716362	43098.046711
611.065500	42982.042199
611.414585	43212.306983
611.763616	43363.823903
612.112594	43248.139505
612.461518	43394.622833
612.810389	43768.489925
613.159207	43557.976382
613.507971	43520.984395
613.856682	44038.988158
614.205340	43840.467520
614.553945	44581.670890
614.902496	43901.190738
615.250994	44309.970342
615.599439	44401.679013
615.947830	44504.337070
616.296169	44485.752856
616.644454	44516.387948
616.992686	44674.922154
617.340864	45122.132994
617.688990	44612.341270
618.037063	45303.833823
618.385082	45113.583197
618.733048	45464.374408
619.080961	45325.702348
619.428821	45354.608324
619.776628	45398.983081
620.124382	45225.045629
620.472083	45347.807808
620.819731	45476.321943
621.167326	45057.762501
621.514868	45048.189350
621.862357	44483.509543
622.209793	44610.660046
622.557176	44160.918546
622.904506	43937.648363
623.251783	43595.069192
623.599007	43263.210034
623.946179	43182.889330
624.293297	42904.910024
624.640363	42341.944210
624.987376	42208.043602
625.334336	42014.473377
625.681243	41597.406116
626.028097	41497.341733
626.374899	41318.060658
626.721647	41277.285285
627.068343	41032.116329
627.414987	40724.616027
627.761577	40483.903452
628.108115	40816.675058
628.454600	40041.776615
628.801032	40277.193459
629.147412	40157.909676
629.493739	40038.968693
629.840014	39600.806724
630.186236	40020.835662
630.532405	39432.777504
630.878521	39669.691570
631.224585	39423.194271
631.570597	39101.636711
631.916556	39277.388978
632.262462	39167.950569
632.608316	39096.409034
632.954117	38961.921132
633.299866	38933.284858
633.645562	38862.668375
633.991206	38327.875048
634.336797	37920.811957
634.682336	37802.788464
635.027823	37570.459327
635.373257	37460.849519
635.718639	37116.909236
636.063968	37019.783845
636.409245	36351.848605
636.754470	36312.421741
637.099642	36079.084373
637.444762	35493.503942
637.789829	35640.211602
638.134845	35234.744036
638.479808	35162.539589
638.824719	35111.205520
639.169577	34589.486426
639.514383	34704.618818
639.859137	34271.770225
640.203839	34445.816062
640.548489	34157.681352
640.893086	34138.950945
641.237632	33850.513766
641.582125	33943.449958
641.926566	33736.366919
642.270955	33764.476393
642.615292	33693.381001
642.959576	33561.771597
643.303809	33559.414858
643.647990	33655.252233
643.992118	33631.979747
644.336195	33441.033442
644.680219	33507.848895
645.024192	33712.925554
645.368112	34230.515943
645.711981	34239.151439
646.055797	34924.299700
646.399562	34714.557453
646.743274	35571.253658
647.086935	35978.072253
647.430544	35960.035004
647.774101	35998.589749
648.117606	36341.978026
648.461059	36501.170102
648.804460	36119.683306
649.147810	35625.166278
649.491108	35324.123694
649.834354	35234.786886
650.177548	34396.480810
650.520690	33882.820000
650.863781	33840.159236
651.206820	33682.638302
651.549807	33266.538943
651.892742	32650.192350
652.235626	32564.492735
652.578458	32404.163878
652.921238	31681.678311
653.263967	32002.819976
653.606644	31680.647395
653.949269	31575.982959
654.291843	31155.613743
654.634365	31519.990863
654.976836	31044.670550
655.319255	31144.276188
655.661622	30994.193476
656.003938	30854.732476
656.346203	30673.833190
656.688416	30917.406621
657.030577	30698.113908
657.372687	30506.464362
657.714746	30651.057257
658.056753	30854.399759
658.398708	30207.644927
658.740612	30274.407448
659.082465	30502.489412
659.424266	30401.139535
659.766016	30376.790762
660.107715	30211.009897
660.449362	30314.693829
660.790958	30275.629927
661.132503	30214.594157
661.473996	30287.048141
661.815438	30371.081655
662.156829	30500.357004
662.498168	30285.382040
662.839456	30255.296433
663.180693	30391.135365
663.521879	30457.056013
663.863013	30403.145914
664.204097	30391.236188
664.545129	30796.449175
664.886110	30741.543448
665.227040	30837.504332
665.567918	30819.850212
665.908746	30882.511754
666.249522	30966.774640
666.590248	31010.378101
666.930922	31105.567688
667.271545	31133.367131
667.612118	31201.142924
667.952639	31003.141524
668.293109	31056.764278
668.633528	30898.517417
668.973896	30851.145695
669.314213	30829.622488
669.654480	30634.557561
669.994695	30626.998351
670.334859	30534.369669
670.674973	30340.370946
671.015035	30534.205832
671.355047	30472.169392
671.695008	30382.933408
672.034918	30283.766350
672.374777	30379.696987
672.714585	30253.839540
673.054342	30384.672606
673.394049	30242.701111
673.733705	30460.254625
674.073310	30166.655305
674.412864	30231.981097
674.752368	29958.732914
675.091820	30211.057788
675.431223	29805.302877
675.770574	29600.004407
676.109875	29435.272102
676.449125	29223.281500
676.788324	29128.913621
677.127473	28621.156003
677.466571	28514.588531
677.805619	28256.874664
678.144616	28190.379324
678.483562	28115.538354
678.822458	27784.790771
679.161303	27704.417135
679.500098	27638.473801
679.838842	27544.978041
680.177535	27597.539632
680.516179	27809.714236
680.854771	27871.110448
681.193314	28557.264419
681.531805	29460.414857
681.870247	30218.397708
682.208638	31040.660312
682.546978	31422.918405
682.885268	31648.545328
683.223508	31243.105488
683.561697	30996.111635
683.899836	30838.729333
684.237925	30411.380639
684.575963	30234.375645
684.913951	29829.134931
685.251889	29985.196452
685.589776	29950.069692
685.927614	29915.394115
686.265401	30096.984038
686.603137	30188.107935
686.940824	30648.793779
687.278460	30956.475563
687.616046	31148.392290
687.953582	31832.131548
688.291068	31756.909971
688.628504	32123.512761
688.965889	32168.570594
689.303224	31960.759109
689.640510	31692.133664
689.977745	31111.841404
690.314930	30395.589224
690.652065	30019.700629
690.989150	29336.750312
691.326185	28506.817592
691.663170	27865.608029
692.000105	27118.602290
692.336990	26504.937591
692.673825	26068.875263
693.010610	25562.471195
693.347345	25047.749222
693.684030	24397.889039
694.020665	24186.513458
694.357251	23496.407223
694.693786	23505.987936
695.030272	23258.815122
695.366707	22742.336307
695.703093	22448.404270
696.039429	22496.128874
696.375716	22253.057038
696.711952	22229.663564
697.048139	22078.376016
697.384276	21909.845202
697.720363	22034.533101
698.056400	21919.168816
698.392388	21739.033266
698.728326	21751.285790
699.064214	21601.926484
699.400053	21614.536930
699.735842	21223.688711
700.071581	21049.443749
700.407270	20814.291566
700.742910	20625.853235
701.078501	20365.228102
701.414042	20167.004892
701.749533	19859.965855
702.084974	19542.234531
702.420366	19769.479664
702.755709	19354.416262
703.091002	19050.258245
703.426246	19114.689232
703.761440	19023.444347
704.096584	18796.542013
704.431679	18728.776302
704.766725	18671.133228
705.101721	18583.253314
705.436668	18694.587197
705.771565	18400.708092
706.106413	18697.866467
706.441212	18767.351211
706.775961	18862.883597
707.110661	18933.938661
707.445311	19288.924112
707.779913	19157.990223
708.114465	19431.455175
708.448967	19747.343957
708.783421	20348.720844
709.117825	20687.841783
709.452180	20900.003784
709.786485	21330.735092
710.120742	22059.249879
710.454949	22152.992655
710.789107	22673.774094
711.123216	23388.292117
711.457275	23626.789105
711.791286	24189.641494
712.125247	24384.474528
712.459159	24161.587473
712.793023	24977.596525
713.126837	23986.810669
713.460602	24281.450988
713.794318	23979.760615
714.127985	23728.910279
714.461602	22851.449562
714.795171	22867.712324
715.128691	21864.525229
715.462162	21357.962364
715.795584	20914.035836
716.128957	20642.980555
716.462281	20248.434650
716.795556	19962.384457
717.128782	19479.026023
717.461960	18857.542495
717.795088	18829.344801
718.128167	18482.397470
718.461198	18022.147685
718.794180	17887.632057
719.127113	17544.286630
719.459997	17351.822938
719.792833	16958.393648
720.125619	16983.044890
720.458357	16635.159904
720.791046	16486.695403
721.123686	16331.090107
721.456278	16082.334370
721.788821	16087.443580
722.121315	15817.416695
722.453761	15912.618885
722.786158	15786.116170
723.118506	15862.109044
723.450805	15743.536064
723.783056	15915.840182
724.115259	15792.314269
724.447412	15766.160763
724.779518	15986.580174
725.111574	16028.363777
725.443582	16282.904238
725.775542	16216.756738
726.107453	16728.489306
726.439315	16630.940458
726.771129	17024.952002
727.102895	17431.742870
727.434612	17727.540134
727.766281	17903.100837
728.097901	18261.441176
728.429473	18369.261374
728.760996	18397.718688
729.092471	18526.469757
729.423897	18410.505575
729.755276	18268.743287
730.086606	18351.476184
730.417887	18881.941679
730.749120	19424.193393
731.080305	19642.276229
731.411442	20076.521221
731.742530	20201.375478
732.073570	20358.394818
732.404562	20687.466218
732.735506	20606.739700
733.066401	20500.772126
733.397249	20080.831408
733.728048	19485.224122
734.058798	18649.115989
734.389501	17870.822329
734.720156	17326.649936
735.050762	16713.532202
735.381320	16288.416740
735.711831	15983.152189
736.042293	15592.717344
736.372707	15601.932573
736.703073	15360.715883
737.033391	15547.591456
737.363661	15511.423697
737.693883	15610.767196
738.024056	15788.790503
738.354182	15983.263094
738.684260	16323.102399
739.014290	16591.705158
739.344272	16827.248030
739.674207	17178.797935
740.004093	17362.490019
740.333931	17454.218855
740.663722	17563.014516
740.993464	17627.049773
741.323159	17509.106938
741.652806	17221.128504
741.982405	17075.640804
742.311956	16721.020836
742.641460	16630.471631
742.970915	16301.226312
743.300323	15954.193281
743.629683	15738.930970
743.958996	15434.984682
744.288260	15119.153873
744.617477	14786.732626
744.946647	14755.356485
745.275768	14426.204427
745.604842	14215.879926
745.933869	14030.478891
746.262847	13991.626718
746.591778	13894.841605
746.920662	13753.754833
747.249498	13747.244183
747.578286	13881.681673
747.907027	14040.621692
748.235720	14304.692454
748.564365	14390.200506
748.892963	14319.750381
749.221514	14437.660449
749.550017	14320.342716
749.878473	14296.248522
750.206881	14078.347167
750.535242	14013.013813
750.863555	13928.589610
751.191821	13815.715655
751.520039	13825.366944
751.848210	13748.103699
752.176334	13786.038382
752.504411	13707.575343
752.832440	13534.028581
753.160421	13647.205005
753.488356	13544.965364
753.816243	13452.901292
754.144082	13280.118264
754.471875	13230.334349
754.799620	13192.061909
755.127318	13163.304647
755.454969	13155.644614
755.782572	13112.058798
756.110129	13127.033545
756.437638	13034.929144
756.765100	13033.245399
757.092515	13056.270869
757.419882	13076.707707
757.747203	13070.713775
758.074477	13161.673834
758.401703	13139.825473
758.728882	13318.703256
759.056014	13352.431096
759.383099	13511.038398
759.710138	13643.640909
760.037129	13782.920428
760.364073	13854.860214
760.690970	13877.643709
761.017820	13886.745512
761.344623	14083.617693
761.671379	14403.778854
761.998088	14944.182984
762.324751	16342.397415
762.651366	19260.529813
762.977935	23599.370270
763.304456	26983.426270
763.630931	28743.484642
763.957359	28061.724037
764.283740	26026.161567
764.610074	23892.510845
764.936362	21221.475644
765.262602	19282.330283
765.588796	17246.319149
765.914943	15850.380800
766.241044	14668.820038
766.567097	13809.280622
766.893104	13046.117985
767.219064	12544.084597
767.544978	12029.589477
767.870845	11610.682195
768.196665	11368.056501
768.522438	11134.088990
768.848165	10919.240054
769.173846	10702.641838
769.499479	10567.785931
769.825066	10397.558769
770.150607	10163.470269
770.476101	10081.208721
770.801548	9964.132964
771.126949	9798.163056
771.452303	9684.711888
771.777611	9477.749838
772.102872	9476.045928
772.428087	9334.384464
772.753256	9177.783540
773.078378	9094.798586
773.403453	8905.140296
773.728482	8784.124877
774.053465	8706.415491
774.378401	8603.253318
774.703291	8478.406623
775.028135	8351.888785
775.352932	8318.289494
775.677683	8210.980973
776.002388	8103.354859
776.327046	8114.475644
776.651658	8012.057042
776.976224	7903.256339
777.300743	7906.212976
777.625216	7821.597209
777.949643	7773.068541
778.274024	7782.286291
778.598359	7696.541305
778.922647	7711.420271
779.246889	7656.990933
779.571086	7661.704412
779.895236	7664.144330
780.219339	7661.283475
780.543397	7662.296747
780.867409	7745.420333
781.191374	7762.527489
781.515294	7728.902993
781.839167	7828.062489
782.162995	7797.220709
782.486776	7744.454952
782.810511	7705.542286
783.134201	7623.868032
783.457844	7619.310828
783.781441	7560.445275
784.104993	7499.996799
784.428498	7475.826987
784.751958	7454.278575
785.075372	7423.462002
785.398739	7363.683999
785.722061	7403.594814
786.045337	7404.920638
786.368568	7547.320631
786.691752	7541.382152
787.014891	7842.729726
787.337983	8132.316288
787.661030	8686.334054
787.984031	9318.918204
788.306987	9773.342935
788.629897	10053.610924
788.952760	10072.404346
789.275579	9894.423888
789.598351	9524.816571
789.921078	9192.811220
790.243759	8778.451059
790.566395	8475.008885
790.888984	8219.190492
791.211529	8005.019592
791.534027	7767.780371
791.856480	7558.050727
792.178888	7472.199877
792.501249	7369.942592
792.823566	7201.026129
793.145836	7196.317692
793.468062	7159.837382
793.790241	7095.860098
794.112375	7155.469222
794.434464	7298.123793
794.756507	7315.878737
795.078505	7448.579551
795.400457	7731.486584
795.722364	8068.240702
796.044226	8360.037810
796.366042	8667.076847
796.687812	8647.265112
797.009538	8754.505578
797.331218	8673.554729
797.652852	8595.658820
797.974442	8451.159186
798.295986	8370.041980
798.617484	8187.106068
798.938938	8049.172538
799.260346	7944.339223
799.581709	7739.073520
799.903026	7662.261459
800.224299	7544.545476
800.545526	7370.877726
800.866708	7279.932790
801.187845	7207.846810
801.508936	7098.047959
801.829983	7061.040849
802.150984	6907.310862
802.471940	6853.262131
802.792851	6837.226221
803.113717	6798.593338
803.434538	6769.722650
803.755314	6709.823660
804.076045	6706.738474
804.396731	6645.264123
804.717372	6667.586353
805.037967	6661.688203
805.358518	6702.723195
805.679024	6778.514423
805.999485	6777.196161
806.319901	6819.070505
806.640272	6831.605334
806.960598	6923.124962
807.280879	6926.227792
807.601115	7011.831625
807.921306	6955.237112
808.241453	6974.058260
808.561554	7000.264698
808.881611	6969.274205
809.201623	6983.129816
809.521590	6930.989162
809.841513	6913.385452
810.161390	6958.103008
810.481223	6828.472257
810.801011	6813.812582
811.120755	6789.703263
811.440453	6717.375309
811.760107	6680.161511
812.079716	6653.312326
812.399281	6590.688592
812.718801	6577.095121
813.038276	6539.228493
813.357707	6470.222659
813.677093	6511.983577
813.996434	6414.255769
814.315731	6457.907120
814.634983	6447.691222
814.954191	6449.405214
815.273354	6554.392284
815.592473	6609.439164
815.911547	6726.701443
816.230577	6806.628938
816.549562	6955.320291
816.868502	7057.285189
817.187399	7154.150960
817.506250	7304.526059
817.825058	7330.982034
818.143821	7586.618946
818.462539	7830.081471
818.781213	8159.929208
819.099843	8637.505438
819.418429	9556.563237
819.736970	10462.647627
820.055466	11596.521594
820.373919	13019.079756
820.692327	15063.456684
821.010691	18444.344320
821.329011	25915.558651
821.647286	37651.170721
821.965517	51697.418341
822.283704	59090.391444
822.601847	62315.454493
822.919945	60416.083835
823.237999	56911.387982
823.556010	51290.793830
823.873976	44676.535323
824.191897	38044.105978
824.509775	33070.014601
824.827609	28272.204813
825.145398	25306.509129
825.463144	23538.372308
825.780845	23355.383465
826.098502	24531.855182
826.416116	27826.143356
826.733685	31530.204241
827.051210	33404.222937
827.368692	32516.586650
827.686129	29013.907258
828.003522	24947.909170
828.320872	21129.625821
828.638177	18173.135284
828.955439	15888.421347
829.272656	13983.754956
829.589830	12435.619131
829.906960	11084.736093
830.224046	10069.377133
830.541088	9246.560002
830.858086	8736.155778
831.175041	8303.932288
831.491952	8132.704457
831.808819	8106.782844
832.125642	8399.416783
832.442421	9105.236295
832.759157	10587.398540
833.075849	13183.257534
833.392497	16343.660224
833.709101	18909.932686
834.025662	19353.496251
834.342179	18081.779494
834.658653	15981.828886
834.975083	14017.255944
835.291469	12325.270794
835.607811	10939.195461
835.924110	9982.593669
836.240366	9088.973533
836.556578	8257.639373
836.872746	7573.516987
837.188871	7033.596807
837.504952	6575.630665
837.820990	6238.465693
838.136984	5997.059959
838.452935	5869.574219
838.768842	5842.178069
839.084706	6115.418690
839.400526	7080.797131
839.716303	8597.884490
840.032037	9890.322910
840.347727	10166.255507
840.663373	9392.115757
840.978977	8331.129313
841.294537	7465.187632
841.610054	6826.357493
841.925527	6371.103492
842.240957	5993.649618
842.556344	5654.362321
842.871687	5365.597467
843.186987	5066.392383
843.502244	4821.793078
843.817458	4643.805059
844.132629	4499.721320
844.447756	4402.457298
844.762840	4311.797187
845.077881	4229.795258
845.392879	4165.981812
845.707833	4111.497021
846.022745	4069.902461
846.337613	4036.502296
846.652438	3993.410513
846.967221	3974.115497
847.281960	3938.083850
847.596656	3918.214142
847.911309	3899.493817
848.225919	3874.734190
848.540485	3856.737271
848.855009	3842.256556
849.169490	3821.970953
849.483928	3806.119045
849.798323	3801.304743
850.112675	3780.091568
850.426984	3783.927886
850.741251	3772.849950
851.055474	3766.886265
851.369654	3769.036317
851.683792	3766.813168
851.997887	3772.822224
852.311938	3772.199641
852.625947	3780.668780
852.939914	3764.796707
853.253837	3774.511010
853.567718	3774.843726
853.881555	3761.613218
854.195350	3777.477729
854.509103	3769.837861
854.822812	3772.807100
855.136479	3762.381994
855.450103	3770.415073
855.763685	3759.813526
856.077224	3761.353599
856.390720	3774.508490
856.704173	3791.580357
857.017584	3805.130979
857.330953	3815.225889
857.644278	3839.269673
857.957561	3845.308975
858.270802	3844.681351
858.584000	3853.415150
858.897155	3845.072041
859.210268	3830.624094
859.523339	3809.894869
859.836367	3808.480825
860.149352	3800.432623
860.462295	3790.365439
860.775195	3781.598873
861.088054	3774.904220
861.400869	3772.734003
861.713642	3772.590331
862.026373	3780.283131
862.339062	3785.510808
862.651708	3803.890855
862.964312	3832.753981
863.276873	3843.048017
863.589392	3896.154052
863.901869	3936.258952
864.214303	3978.221517
864.526696	4017.038401
864.839045	4063.613622
865.151353	4091.808795
865.463619	4103.675671
865.775842	4112.502732
866.088023	4134.192296
866.400162	4127.142242
866.712258	4136.783449
867.024313	4138.071464
867.336325	4134.179693
867.648296	4143.251249
867.960224	4142.346362
868.272110	4152.158968
868.583954	4155.902025
868.895755	4169.175383
869.207515	4162.548786
869.519233	4199.543294
869.830909	4214.235737
870.142542	4238.534098
870.454134	4252.056993
870.765684	4280.373155
871.077191	4318.968228
871.388657	4339.059747
871.700081	4372.752299
872.011463	4414.598917
872.322803	4445.617137
872.634101	4477.578052
872.945357	4516.992313
873.256571	4570.375612
873.567744	4601.229994
873.878874	4624.913335
874.189963	4662.931197
874.501010	4674.268752
874.812015	4676.950645
875.122979	4717.867171
875.433900	4720.866657
875.744780	4730.402000
876.055618	4756.253037
876.366415	4757.251185
876.677169	4782.409063
876.987882	4822.271987
877.298554	4871.705542
877.609183	4940.116520
877.919771	5041.625194
878.230317	5169.851983
878.540822	5360.636971
878.851285	5647.513913
879.161707	6054.251849
879.472087	6715.396656
879.782425	7768.097964
880.092722	9624.596129
880.402977	12508.758711
880.713191	16076.158957
881.023363	19847.425985
881.333494	22370.667157
881.643583	23925.137193
881.953631	24202.869482
882.263637	23611.360654
882.573602	22337.801355
882.883526	20911.182543
883.193408	19309.174427
883.503248	17679.329059
883.813048	16164.303532
884.122806	14754.706176
884.432522	13284.614973
884.742197	11983.369657
885.051831	10870.161901
885.361424	9824.016613
885.670975	8954.357081
885.980485	8229.991164
886.289954	7627.341387
886.599382	7125.426466
886.908768	6731.853503
887.218113	6349.602971
887.527417	6046.906888
887.836680	5766.182675
888.145901	5537.410072
888.455082	5365.297518
888.764221	5204.731727
889.073319	5061.263009
889.382376	4979.175380
889.691392	4914.152057
890.000366	4879.448754
890.309300	4852.012274
890.618193	4855.339436
890.927044	4836.566179
891.235855	4853.827090
891.544625	4876.285430
891.853353	4929.121764
892.162041	5026.486609
892.470687	5186.586093
892.779293	5405.616666
893.087858	5734.204115
893.396381	6243.680767
893.704864	6939.352436
894.013306	7981.989080
894.321707	9134.348958
894.630068	10052.189319
894.938387	10422.537686
895.246665	10325.734929
895.554903	9803.544488
895.863100	9142.243405
896.171256	8607.629040
896.479371	8099.599199
896.787446	7602.407840
897.095480	7166.186715
897.403473	6843.026068
897.711425	6525.937491
898.019336	6255.063692
898.327207	5980.134285
898.635038	5749.032669
898.942827	5491.278473
899.250576	5291.056445
899.558284	5091.303245
899.865952	4964.064522
900.173579	4812.194721
900.481165	4698.204150
900.788711	4602.553297
901.096216	4526.381462
901.403681	4459.036688
901.711105	4428.013427
902.018489	4397.474117
902.325832	4455.361687
902.633135	4538.195406
902.940397	4801.845232
903.247619	5423.696765
903.554800	6625.472553
903.861941	8418.757170
904.169041	10055.100585
904.476101	10960.564913
904.783121	10861.891888
905.090100	10256.532490
905.397039	9444.760527
905.703938	8706.884318
906.010796	8010.456476
906.317614	7453.834953
906.624391	6918.570279
906.931129	6489.736966
907.237826	6082.883083
907.544483	5708.552204
907.851099	5327.158668
908.157675	4967.628617
908.464211	4624.250423
908.770707	4369.208368
909.077163	4150.749966
909.383578	3992.228362
909.689954	3864.694732
909.996289	3785.694810
910.302584	3714.163358
910.608839	3673.574507
910.915054	3642.158037
911.221229	3621.940489
911.527363	3628.158752
911.833458	3636.852222
912.139513	3658.289729
912.445527	3684.478523
912.751502	3758.785131
913.057436	3846.660004
913.363331	3969.656596
913.669186	4149.898011
913.975000	4374.733472
914.280775	4748.101491
914.586510	5258.092340
914.892205	5966.891174
915.197859	6916.226143
915.503475	8072.742452
915.809050	9145.903283
916.114585	9880.301096
916.420081	10264.247976
916.725536	10340.460140
917.030952	9980.698195
917.336328	9615.209500
917.641665	9243.862985
917.946961	8793.945045
918.252218	8383.640492
918.557435	7886.887713
918.862612	7458.823175
919.167750	7091.486897
919.472848	6668.854203
919.777906	6296.423839
920.082925	5934.597542
920.387904	5560.947219
920.692843	5279.814672
920.997743	5021.251371
921.302603	4773.491262
921.607423	4604.418524
921.912204	4436.386784
922.216946	4313.536385
922.521647	4188.185574
922.826310	4079.757917
923.130932	3982.693020
923.435516	3884.803895
923.740059	3811.684479
924.044564	3731.462077
924.349028	3675.086853
924.653454	3610.802060
924.957840	3537.846481
925.262186	3493.012979
925.566493	3429.489400
925.870761	3367.389946
926.174989	3336.240657
926.479178	3297.146508
926.783328	3248.111205
927.087438	3225.559603
927.391509	3186.155424
927.695541	3157.556958
927.999533	3129.646610
928.303486	3107.556274
928.607400	3086.668253
928.911275	3077.483271
929.215110	3059.017524
929.518906	3049.945968
929.822663	3045.686193
930.126381	3040.087992
930.430060	3048.950340
930.733699	3046.601162
931.037299	3055.967626
931.340861	3050.928993
931.644383	3065.813000
931.947866	3063.612536
932.251309	3055.486196
932.554714	3056.194478
932.858080	3052.254816
933.161407	3047.995041
933.464694	3038.878115
933.767943	3032.634646
934.071153	3028.775642
934.374323	3015.754342
934.677455	3013.117818
934.980548	3003.108608
935.283602	2998.619460
935.586617	2993.918584
935.889593	3001.913854
936.192530	3007.358300
936.495428	3018.000176
936.798287	3032.198586
937.101108	3059.519119
937.403890	3105.570059
937.706632	3158.398831
938.009336	3231.291395
938.312002	3301.633135
938.614628	3370.820451
938.917216	3424.148297
939.219765	3464.779997
939.522275	3499.211078
939.824747	3507.574352
940.127179	3507.039990
940.429573	3505.542767
940.731929	3505.711646
941.034246	3494.643793
941.336524	3480.425218
941.638763	3471.376347
941.940964	3459.824543
942.243126	3423.233328
942.545250	3401.316912
942.847335	3362.951210
943.149381	3334.325018
943.451389	3296.619708
943.753359	3264.988988
944.055290	3239.500914
944.357182	3210.852037
944.659036	3198.254193
944.960851	3186.102492
945.262628	3169.270079
945.564367	3167.858556
945.866067	3164.125582
946.167729	3159.001249
946.469352	3155.031340
946.770937	3148.901297
947.072484	3131.595016
947.373992	3139.189514
947.675462	3133.903865
947.976893	3116.383334
948.278286	3108.733383
948.579641	3104.241715
948.880958	3096.584203
949.182236	3100.402877
949.483476	3087.920980
949.784678	3089.851742
950.085841	3089.282091
950.386967	3099.853391
950.688054	3110.462499
950.989103	3127.887248
951.290114	3147.545227
951.591087	3174.880884
951.892021	3199.148998
952.192917	3226.361147
952.493776	3253.159921
952.794596	3264.273144
953.095378	3275.194804
953.396122	3272.545678
953.696828	3269.543671
953.997496	3254.238727
954.298126	3236.919843
954.598718	3218.370918
954.899272	3196.139429
955.199788	3172.826613
955.500266	3142.567087
955.800706	3105.736418
956.101108	3069.868608
956.401472	3038.179915
956.701798	3005.495594
957.002087	2965.181487
957.302337	2938.970007
957.602550	2909.980852
957.902724	2881.006820
958.202861	2852.529342
958.502960	2829.720642
958.803022	2807.688279
959.103045	2791.680095
959.403031	2771.361724
959.702979	2756.477717
960.002889	2741.901221
960.302762	2732.726321
960.602596	2719.768035
960.902393	2710.628423
961.202153	2699.931095
961.501875	2692.490352
961.801559	2685.957016
962.101205	2678.052487
962.400814	2671.897238
962.700385	2665.189983
962.999918	2658.523057
963.299414	2653.686070
963.598873	2651.972077
963.898293	2643.616365
964.197677	2647.906387
964.497022	2641.607465
964.796331	2641.090747
965.095601	2636.457927
965.394835	2633.513893
965.694030	2634.655714
965.993189	2633.143368
966.292309	2631.333594
966.591393	2628.918881
966.890439	2626.748664
967.189447	2628.271093
967.488419	2628.001391
967.787353	2629.342338
968.086249	2630.857205
968.385108	2632.001547
968.683930	2633.947432
968.982714	2636.548667
969.281462	2638.865078
969.580172	2645.763897
969.878844	2649.164155
970.177480	2657.756802
970.476078	2668.227278
970.774639	2671.254491
971.073162	2681.006603
971.371649	2684.041378
971.670098	2690.332738
971.968510	2698.491845
972.266885	2700.654500
972.565223	2705.262115
972.863524	2707.581046
973.161788	2712.801160
973.460014	2715.107488
973.758204	2716.624876
974.056356	2721.784497
974.354471	2724.363047
974.652550	2723.876575
974.950591	2720.158724
975.248595	2722.049157
975.546563	2721.688715
975.844493	2716.151007
976.142386	2711.097250
976.440243	2706.895449
976.738062	2703.648946
977.035845	2696.669468
977.333590	2690.287367
977.631299	2685.710000
977.928971	2679.680780
978.226606	2670.251301
978.524204	2665.467246
978.821765	2664.655621
979.119290	2664.932884
979.416777	2667.153512
979.714228	2669.283400
980.011642	2671.609892
980.309020	2680.053825
980.606360	2688.376770
980.903664	2708.748073
981.200931	2741.457599
981.498162	2780.531583
981.795356	2849.749146
982.092513	2930.654624
982.389633	3027.757329
982.686717	3125.593522
982.983764	3208.732232
983.280775	3268.109462
983.577749	3286.176958
983.874686	3282.872481
984.171587	3252.922986
984.468451	3219.129612
984.765279	3180.844569
985.062070	3132.318422
985.358824	3089.791248
985.655543	3040.113197
985.952224	2988.196874
986.248869	2925.341248
986.545478	2865.076774
986.842050	2808.270532
987.138586	2760.155239
987.435086	2717.701162
987.731549	2687.113961
988.027975	2657.366112
988.324366	2638.968421
988.620719	2624.034003
988.917037	2612.025974
989.213318	2602.341918
989.509563	2592.536874
989.805772	2588.551842
990.101944	2582.903229
990.398080	2582.391552
990.694180	2579.228227
990.990244	2577.678073
991.286271	2578.494740
991.582262	2580.496078
991.878217	2578.981211
992.174136	2587.157962
992.470019	2587.094948
992.765865	2587.500761
993.061676	2593.741709
993.357450	2601.298399
993.653188	2609.530603
993.948890	2623.297994
994.244556	2641.622589
994.540186	2662.203099
994.835780	2692.208047
995.131337	2727.707852
995.426859	2766.232350
995.722345	2810.612148
996.017795	2862.079808
996.313208	2899.790159
996.608586	2930.014397
996.903928	2948.341512
997.199234	2951.739250
997.494504	2954.663119
997.789738	2942.496294
998.084936	2919.269178
998.380099	2890.408572
998.675225	2862.868749
998.970316	2833.945128
999.265371	2797.865590
999.560390	2764.281423
999.855373	2733.180025
1000.150320	2705.032742
1000.445232	2676.419153
1000.740108	2656.304949
1001.034948	2638.199645
1001.329752	2618.922273
1001.624521	2605.548092
1001.919254	2593.219950
1002.213951	2587.026893
1002.508613	2576.004410
1002.803239	2570.764130
1003.097829	2563.020918
1003.392384	2561.372461
1003.686903	2553.344423
1003.981386	2548.900646
1004.275834	2544.696324
1004.570246	2545.480223
1004.864623	2541.094419
1005.158964	2537.185004
1005.453270	2538.631816
1005.747540	2533.071423
1006.041775	2531.362472
1006.335974	2531.196114
1006.630138	2529.711494
1006.924266	2528.431041
1007.218359	2527.495907
1007.512416	2526.643952
1007.806438	2521.164218
1008.100425	2523.846111
1008.394376	2520.549197
1008.688292	2522.633714
1008.982172	2522.157325
1009.276017	2526.149919
1009.569827	2522.497603
1009.863602	2523.578930
1010.157341	2522.338806
1010.451045	2520.632376
1010.744714	2520.854187
1011.038347	2520.975174
1011.331945	2518.915863
1011.625508	2517.466531
1011.919036	2514.232631
1012.212528	2515.951664
1012.505986	2513.363032
1012.799408	2517.295132
1013.092795	2516.410409
1013.386147	2514.061232
1013.679464	2512.637106
1013.972745	2510.920593
1014.265992	2512.432939
1014.559204	2513.262209
1014.852380	2509.909842
1015.145521	2511.454955
1015.438628	2511.391941
1015.731699	2514.119205
1016.024736	2515.152642
1016.317737	2515.918897
1016.610703	2516.765811
1016.903635	2516.740605
1017.196531	2517.544669
1017.489393	2519.974505
1017.782219	2517.020389
1018.075011	2518.973836
1018.367768	2522.212778
1018.660490	2524.388035
1018.953177	2524.388035
1019.245829	2524.388035
