Dividing Wavelength (nm)	Counts (n)	Blue Motor Position (mm): 0.000000	Red Motor Position (mm): 23.000000	
326.493990	2050.887578
326.888308	2050.887578
327.282561	2050.887578
327.676750	2025.782632
328.070874	2029.843281
328.464933	2033.450227
328.858929	2042.249561
329.252859	2050.587629
329.646726	2065.189332
330.040528	2080.763976
330.434265	2100.094281
330.827938	2122.363578
331.221547	2138.084416
331.615091	2158.599392
332.008571	2180.553617
332.401986	2200.168746
332.795338	2221.263455
333.188625	2241.072669
333.581847	2260.576893
333.975006	2277.981477
334.368100	2297.029476
334.761129	2311.618576
335.154095	2326.545432
335.546996	2344.013030
335.939833	2356.910822
336.332606	2373.103008
336.725315	2386.593136
337.117960	2396.529250
337.510540	2404.960580
337.903056	2414.057342
338.295508	2419.421130
338.687896	2427.915474
339.080220	2433.886721
339.472480	2438.942998
339.864676	2441.952567
340.256807	2443.474996
340.648875	2446.613114
341.040879	2448.188474
341.432818	2451.278702
341.824694	2449.209308
342.216506	2449.799123
342.608253	2450.015893
342.999937	2449.042950
343.391557	2447.313834
343.783113	2448.390121
344.174605	2445.040274
344.566033	2443.046497
344.957397	2444.311827
345.348697	2440.944336
345.739934	2436.409818
346.131106	2437.763368
346.522215	2434.211875
346.913260	2435.820003
347.304241	2432.828079
347.695159	2430.005033
348.086012	2430.312543
348.476802	2429.531164
348.867528	2425.878848
349.258191	2422.140832
349.648789	2422.128230
350.039324	2417.782755
350.429796	2424.613518
350.820203	2423.698549
351.210548	2423.007911
351.600828	2418.654875
351.991045	2417.439957
352.381198	2421.198137
352.771288	2419.874834
353.161314	2419.826943
353.551276	2421.850966
353.941175	2420.825091
354.331010	2419.786614
354.720782	2418.922056
355.110490	2421.041861
355.500135	2420.454567
355.889717	2418.049936
356.279235	2420.225194
356.668689	2422.322314
357.058080	2421.044382
357.447408	2421.646799
357.836672	2423.272572
358.225873	2424.747109
358.615010	2422.894485
359.004084	2424.172418
359.393095	2422.337438
359.782043	2428.270876
360.170927	2424.250555
360.559748	2424.066553
360.948505	2426.045206
361.337199	2429.286668
361.725830	2428.613674
362.114398	2429.455547
362.502903	2429.823551
362.891344	2429.311874
363.279722	2430.970413
363.668037	2431.499735
364.056289	2432.066864
364.444478	2433.934612
364.832603	2432.200455
365.220665	2432.928902
365.608665	2434.554674
365.996601	2432.467636
366.384474	2432.812955
366.772284	2436.573656
367.160031	2436.331681
367.547715	2435.046186
367.935336	2435.325970
368.322893	2434.335384
368.710388	2430.751123
369.097820	2436.354366
369.485189	2435.081474
369.872495	2434.252205
370.259738	2439.006013
370.646918	2438.252360
371.034035	2439.396702
371.421090	2442.088678
371.808081	2442.129008
372.195010	2440.919131
372.581875	2443.197732
372.968678	2445.478854
373.355418	2447.182764
373.742096	2450.661160
374.128710	2451.009000
374.515262	2452.591922
374.901751	2455.692232
375.288177	2459.853704
375.674540	2465.146916
376.060841	2465.729169
376.447079	2470.445169
376.833254	2475.186374
377.219367	2481.649133
377.605417	2486.231542
377.991404	2491.252531
378.377329	2500.898779
378.763191	2505.544202
379.148991	2515.172806
379.534727	2522.318642
379.920402	2534.039324
380.306013	2541.623740
380.691563	2553.389793
381.077049	2562.937739
381.462474	2574.751683
381.847835	2586.346337
382.233134	2601.127000
382.618371	2612.920779
383.003545	2629.228912
383.388657	2645.632827
383.773706	2665.280724
384.158693	2678.276818
384.543618	2696.170394
384.928480	2711.243444
385.313280	2733.285889
385.698017	2753.024527
386.082692	2774.038577
386.467305	2790.329065
386.851856	2814.166161
387.236344	2841.063238
387.620770	2857.078983
388.005133	2875.973228
388.389435	2914.545617
388.773674	2926.541042
389.157851	2960.531022
389.541965	2983.846359
389.926018	2997.538132
390.310008	3033.073226
390.693936	3057.386711
391.077802	3083.696493
391.461606	3115.753190
391.845348	3132.630973
392.229027	3159.732216
392.612645	3203.993547
392.996200	3234.414390
393.379694	3273.480812
393.763125	3313.973880
394.146494	3339.834999
394.529801	3377.545351
394.913047	3421.221908
395.296230	3425.401024
395.679351	3449.764921
396.062410	3503.798528
396.445408	3479.996720
396.828343	3521.954244
397.211217	3556.710479
397.594028	3528.865666
397.976778	3581.578491
398.359466	3610.613016
398.742092	3620.350005
399.124656	3637.303405
399.507158	3697.782128
399.889598	3701.144578
400.271977	3769.220319
400.654294	3753.668360
401.036549	3815.508194
401.418742	3816.423163
401.800874	3884.556878
402.182944	3910.667534
402.564952	3994.413703
402.946898	3990.779031
403.328783	3986.380624
403.710606	4037.497924
404.092367	4106.982668
404.474067	4169.823171
404.855705	4153.169720
405.237282	4124.309114
405.618797	4222.783013
406.000250	4301.737565
406.381642	4386.577663
406.762972	4385.750914
407.144240	4353.815204
407.525447	4422.236265
407.906593	4435.572637
408.287677	4516.485677
408.668700	4547.211510
409.049661	4586.139300
409.430560	4624.089106
409.811399	4604.955407
410.192176	4653.297552
410.572891	4739.085387
410.953545	4842.010625
411.334138	4743.398094
411.714669	4854.737018
412.095139	4763.439201
412.475547	4874.810893
412.855894	4878.012025
413.236180	4981.091019
413.616405	4908.979833
413.996568	5012.900699
414.376670	5019.597872
414.756711	5011.630329
415.136691	5085.331998
415.516609	5162.305376
415.896466	5204.383887
416.276262	5284.011433
416.655997	5395.040326
417.035670	5487.966435
417.415283	5629.327951
417.794834	5700.294794
418.174324	5664.963867
418.553753	5663.998486
418.933121	5832.889743
419.312428	5841.492472
419.691674	5763.152941
420.070859	5999.076421
420.449983	5869.163365
420.829045	6065.007151
421.208047	5996.104660
421.586988	6151.583927
421.965867	6229.459672
422.344686	6310.675181
422.723444	6472.097968
423.102141	6090.654021
423.480777	6482.258414
423.859352	6293.631040
424.237866	6664.344891
424.616319	6656.231154
424.994712	6819.446071
425.373044	6731.989614
425.751314	7049.819240
426.129524	6769.717609
426.507673	7035.164606
426.885762	7077.031389
427.263789	7122.850436
427.641756	7203.246758
428.019662	7284.432020
428.397508	7323.077505
428.775292	7299.253012
429.153016	7472.255330
429.530679	7398.581387
429.908282	7448.163655
430.285824	7382.250569
430.663305	7663.806573
431.040726	7548.888430
431.418086	7546.589664
431.795385	7675.814601
432.172624	7862.642283
432.549802	7742.403202
432.926920	7864.399126
433.303977	7800.290772
433.680974	7832.508786
434.057910	8030.159826
434.434786	8067.169457
434.811601	8012.843462
435.188355	8342.892846
435.565050	8221.068322
435.941683	8219.283753
436.318257	8529.095425
436.694770	8469.403122
437.071222	8680.854320
437.447614	8442.067465
437.823946	8398.388388
438.200218	8530.151547
438.576429	8392.689363
438.952580	8528.493007
439.328670	8513.724947
439.704700	8570.407681
440.080670	8444.230120
440.456580	8682.054115
440.832429	8625.777194
441.208218	8354.845422
441.583947	8439.272146
441.959616	8521.379939
442.335224	8518.261985
442.710773	8569.119666
443.086261	8697.485087
443.461689	8406.794512
443.837057	8527.099128
444.212365	8691.478552
444.587612	8627.024879
444.962800	8490.878438
445.337927	8574.077641
445.712995	8121.135009
446.088002	8666.822268
446.462949	8671.997013
446.837837	8608.496118
447.212664	8570.448010
447.587431	9202.926295
447.962139	9981.764399
448.336786	10692.690600
448.711374	10463.187030
449.085901	9408.348273
449.460369	9271.165874
449.834776	9006.616202
450.209124	9640.677410
450.583412	9420.683976
450.957640	9598.868600
451.331808	9195.823309
451.705917	8683.521091
452.079965	8504.534923
452.453954	8564.237308
452.827883	8443.083258
453.201752	8336.414963
453.575562	8246.669822
453.949311	8388.485041
454.323001	8340.596600
454.696632	8177.270777
455.070202	8463.177297
455.443713	8396.644149
455.817164	8394.484014
456.190556	8481.814443
456.563888	8294.283520
456.937160	8331.456988
457.310373	7917.742095
457.683526	7806.070455
458.056619	7702.484826
458.429653	7614.620035
458.802628	7571.356853
459.175542	7477.112481
459.548398	7629.471274
459.921194	7783.536497
460.293930	7788.854915
460.666607	8057.981954
461.039224	8288.886965
461.411782	8299.919530
461.784280	8017.990480
462.156719	7844.970519
462.529099	7656.189389
462.901419	7247.079590
463.273680	6941.767149
463.645882	6885.565845
464.018024	6705.677311
464.390106	6689.354055
464.762130	6913.292191
465.134094	7292.505427
465.505999	7880.641723
465.877845	8432.002802
466.249631	8638.574163
466.621358	8310.929410
466.993026	7869.379786
467.364634	7468.018240
467.736184	7071.770945
468.107674	6751.745896
468.479105	6561.381844
468.850477	6347.566345
469.221790	6105.785045
469.593043	5833.444270
469.964238	5619.374192
470.335373	5502.850442
470.706449	5511.851422
471.077467	5543.078849
471.448425	5849.946487
471.819324	6056.429628
472.190164	5920.908289
472.560945	5527.481519
472.931667	5163.850490
473.302330	4992.599973
473.672934	4812.655986
474.043479	4759.567595
474.413965	4639.726765
474.784393	4530.081669
475.154761	4520.755535
475.525070	4445.833906
475.895321	4347.725491
476.265513	4315.580573
476.635645	4292.915545
477.005719	4219.004668
477.375734	4174.919778
477.745691	4150.341632
478.115588	4129.892192
478.485427	4152.436232
478.855207	4214.865881
479.224928	4278.137403
479.594591	4295.710865
479.964194	4191.011141
480.333739	4135.802945
480.703226	4073.542174
481.072653	4027.597098
481.442022	3986.468844
481.811333	3943.563584
482.180584	3853.616796
482.549777	3786.438380
482.918912	3710.332081
483.287988	3658.624966
483.657005	3598.733537
484.025964	3530.478835
484.394864	3490.525170
484.763706	3440.537088
485.132489	3376.181718
485.501213	3341.107891
485.869879	3305.464412
486.238487	3263.774070
486.607036	3237.096284
486.975527	3195.433668
487.343959	3172.579597
487.712333	3155.162410
488.080648	3121.497585
488.448905	3107.727673
488.817104	3074.372879
489.185244	3068.268042
489.553326	3059.733368
489.921350	3075.862540
490.289315	3094.108996
490.657222	3090.139087
491.025070	3075.681058
491.392861	3050.361863
491.760593	3019.739374
492.128267	2985.875423
492.495883	2957.375260
492.863440	2926.369643
493.230939	2902.477094
493.598380	2878.214021
493.965763	2860.627956
494.333088	2844.869309
494.700354	2833.866991
495.067563	2822.645382
495.434713	2810.281952
495.801805	2804.716518
496.168839	2797.308543
496.535815	2787.357305
496.902733	2781.033178
497.269593	2771.273504
497.636395	2766.940632
498.003139	2766.623039
498.369825	2757.314549
498.736453	2754.841863
499.103023	2746.828949
499.469535	2743.869792
499.835989	2739.695716
500.202385	2732.212123
500.568723	2725.623335
500.935003	2725.270454
501.301226	2717.723847
501.667390	2724.708366
502.033497	2723.110320
502.399546	2718.323744
502.765537	2711.848382
503.131470	2712.092878
503.497345	2713.985832
503.863163	2700.936805
504.228923	2702.315560
504.594625	2705.524255
504.960269	2696.881197
505.325856	2700.135261
505.691385	2693.498582
506.056856	2692.558407
506.422270	2694.461443
506.787625	2687.837367
507.152924	2690.173941
507.518164	2687.121523
507.883347	2683.706141
508.248472	2684.109433
508.613540	2686.377952
508.978550	2682.380317
509.343503	2682.660102
509.708398	2677.283711
510.073236	2681.820749
510.438016	2681.888805
510.802738	2677.951664
511.167403	2678.785975
511.532010	2678.246571
511.896561	2678.538958
512.261053	2682.748322
512.625488	2679.557271
512.989866	2677.288752
513.354186	2673.633916
513.718449	2675.413443
514.082655	2677.838238
514.446803	2675.398319
514.810894	2677.634071
515.174927	2675.511745
515.538904	2674.624502
515.902822	2676.462003
516.266684	2670.788184
516.630488	2673.366734
516.994235	2671.473781
517.357925	2672.116528
517.721558	2675.380675
518.085133	2676.278001
518.448651	2670.924295
518.812112	2669.535457
519.175516	2669.628719
519.538863	2669.918585
519.902152	2675.332784
520.265385	2672.013185
520.628560	2675.168947
520.991678	2670.480674
521.354739	2675.743638
521.717743	2672.502177
522.080690	2670.652073
522.443580	2672.471930
522.806413	2673.553257
523.169189	2672.902948
523.531908	2671.864471
523.894569	2670.175684
524.257174	2669.805159
524.619722	2674.243895
524.982213	2671.466219
525.344647	2671.572084
525.707025	2668.870025
526.069345	2669.961435
526.431608	2671.693071
526.793815	2670.473112
527.155964	2669.744665
527.518057	2669.974038
527.880093	2665.076557
528.242072	2669.512772
528.603995	2667.907165
528.965860	2665.517658
529.327669	2667.844150
529.689421	2666.392298
530.051117	2665.671413
530.412755	2666.538492
530.774337	2663.496155
531.135862	2663.168480
531.497331	2665.915909
531.858743	2661.220074
532.220098	2665.099242
532.581396	2662.656803
532.942638	2658.719662
533.303824	2659.695125
533.664953	2660.675630
534.026025	2657.103972
534.387040	2659.939621
534.747999	2659.722852
535.108902	2660.136226
535.469748	2654.590957
535.830537	2652.622386
536.191270	2657.676143
536.551947	2650.406799
536.912567	2650.096768
537.273131	2651.732623
537.633638	2647.500574
537.994089	2649.738846
538.354483	2651.409989
538.714821	2651.790596
539.075103	2650.726912
539.435328	2651.573826
539.795497	2647.329175
540.155609	2648.531490
540.515665	2648.922179
540.875665	2646.494864
541.235609	2644.886736
541.595496	2645.053094
541.955328	2651.336892
542.315102	2642.968577
542.674821	2643.591159
543.034483	2642.192239
543.394090	2641.831797
543.753640	2642.938330
544.113134	2643.132414
544.472571	2639.961528
544.831953	2645.234575
545.191278	2642.114101
545.550548	2640.876498
545.909761	2641.357928
546.268918	2642.416570
546.628019	2641.972949
546.987064	2640.536220
547.346053	2639.061682
547.704986	2642.179636
548.063863	2639.470016
548.422684	2639.366672
548.781449	2635.860550
549.140158	2638.302989
549.498811	2638.139151
549.857408	2634.222175
550.215949	2638.401291
550.574434	2634.577576
550.932864	2638.030767
551.291237	2640.664769
551.649555	2640.140489
552.007817	2639.132259
552.366022	2635.616054
552.724173	2637.025056
553.082267	2637.919861
553.440305	2637.519089
553.798288	2638.212248
554.156215	2636.931795
554.514086	2637.014974
554.871902	2634.033132
555.229661	2635.754686
555.587365	2633.821403
555.945014	2635.936167
556.302606	2637.055303
556.660143	2638.567649
557.017625	2638.008081
557.375050	2636.208389
557.732421	2638.282824
558.089735	2637.372896
558.446994	2638.003040
558.804197	2638.149234
559.161345	2638.807104
559.518437	2634.595220
559.875474	2637.398102
560.232455	2637.267032
560.589381	2636.654532
560.946251	2637.231744
561.303065	2637.735859
561.659825	2638.708802
562.016528	2637.224182
562.373177	2634.834675
562.729770	2637.400622
563.086307	2637.367855
563.442789	2637.967752
563.799216	2636.354583
564.155587	2635.439613
564.511904	2636.117649
564.868164	2634.244860
565.224370	2638.741569
565.580520	2636.394912
565.936615	2638.852475
566.292654	2635.812659
566.648638	2637.453554
567.004567	2634.333080
567.360441	2640.531179
567.716260	2637.395581
568.072023	2637.725777
568.427732	2637.070427
568.783385	2635.666465
569.138982	2636.523462
569.494525	2640.856333
569.850013	2638.149234
570.205445	2636.974645
570.560823	2635.674027
570.916145	2634.000364
571.271412	2635.699233
571.626625	2636.289048
571.981782	2636.415077
572.336884	2635.555560
572.691931	2631.026083
573.046923	2632.586320
573.401860	2631.890641
573.756743	2637.108235
574.111570	2630.025414
574.466342	2634.920375
574.821059	2634.786784
575.175722	2633.307205
575.530330	2632.785446
575.884882	2630.912657
576.239380	2630.103552
576.593823	2632.046917
576.948211	2632.175466
577.302544	2631.164715
577.656823	2628.571041
578.011047	2630.708491
578.365216	2629.833850
578.719330	2628.941566
579.073389	2628.029117
579.427394	2629.717904
579.781344	2628.941566
580.135239	2628.868469
580.489080	2626.854528
580.842866	2624.563324
581.196597	2627.323356
581.550273	2626.065588
581.903895	2628.442492
582.257463	2626.541977
582.610975	2627.144395
582.964434	2625.201030
583.317837	2626.720938
583.671186	2627.643469
584.024481	2626.110958
584.377721	2624.780094
584.730906	2625.455608
585.084037	2625.984929
585.437113	2623.660957
585.790135	2624.853190
586.143103	2625.034672
586.496016	2625.017028
586.848874	2624.185237
587.201679	2627.792183
587.554428	2623.023252
587.907124	2624.502830
588.259765	2619.217180
588.612352	2622.728344
588.964884	2621.674743
589.317362	2620.691718
589.669786	2619.315483
590.022155	2622.655247
590.374470	2619.393621
590.726731	2621.561317
591.078937	2614.254164
591.431090	2619.766666
591.783188	2618.987808
592.135232	2618.662653
592.487222	2617.634258
592.839157	2618.274485
593.191038	2616.474793
593.542866	2617.520832
593.894639	2618.786162
594.246358	2617.311624
594.598022	2616.068980
594.949633	2615.945472
595.301190	2615.590070
595.652692	2616.217694
596.004141	2614.947323
596.355535	2612.157044
596.706876	2611.690738
597.058162	2610.347270
597.409395	2613.676952
597.760573	2613.069493
598.111698	2610.085130
598.462768	2612.580501
598.813785	2610.508587
599.164748	2609.754935
599.515657	2609.404574
599.866511	2609.102105
600.217312	2609.235696
600.568060	2609.142434
600.918753	2611.257198
601.269392	2610.301900
601.619978	2607.231837
601.970510	2608.378700
602.320988	2609.462548
602.671412	2610.962291
603.021783	2610.064966
603.372100	2607.408277
603.722363	2608.797115
604.072572	2609.366766
604.422728	2607.123452
604.772830	2606.268977
605.122878	2609.878443
605.472872	2606.828545
605.822813	2606.931888
606.172701	2605.235540
606.522534	2607.733432
606.872314	2607.766199
607.222041	2608.988679
607.571714	2609.886005
607.921333	2603.997937
608.270899	2603.453492
608.620411	2603.955087
608.969870	2609.984307
609.319276	2604.623040
609.668627	2608.121601
610.017926	2611.632764
610.367171	2610.526231
610.716362	2606.309306
611.065500	2608.169492
611.414585	2607.574636
611.763616	2610.196036
612.112594	2607.383072
612.461518	2609.102105
612.810389	2609.167640
613.159207	2611.204266
613.507971	2607.015067
613.856682	2610.213680
614.205340	2611.980604
614.553945	2615.443877
614.902496	2608.320726
615.250994	2612.628392
615.599439	2609.626385
615.947830	2610.838783
616.296169	2610.488422
616.644454	2609.752414
616.992686	2611.665532
617.340864	2612.555296
617.688990	2608.388782
618.037063	2614.564195
618.385082	2613.739967
618.733048	2610.541355
619.080961	2611.516818
619.428821	2614.523866
619.776628	2611.186622
620.124382	2611.640326
620.472083	2611.826849
620.819731	2613.913887
621.167326	2609.346601
621.514868	2610.362394
621.862357	2609.638988
622.209793	2610.858947
622.557176	2608.421549
622.904506	2606.410129
623.251783	2606.820983
623.599007	2604.045828
623.946179	2606.344594
624.293297	2607.315016
624.640363	2602.198245
624.987376	2599.702874
625.334336	2596.786566
625.681243	2596.254725
626.028097	2594.984354
626.374899	2596.658017
626.721647	2598.873604
627.068343	2596.307657
627.414987	2595.377564
627.761577	2595.057451
628.108115	2598.004005
628.454600	2593.285485
628.801032	2593.013263
629.147412	2594.442430
629.493739	2591.758015
629.840014	2593.104003
630.186236	2592.337748
630.532405	2591.125351
630.878521	2590.406986
631.224585	2589.902871
631.570597	2590.064188
631.916556	2592.478900
632.262462	2592.511668
632.608316	2590.822881
632.954117	2590.091914
633.299866	2591.163159
633.645562	2590.069229
633.991206	2588.453539
634.336797	2586.154773
634.682336	2586.915987
635.027823	2585.305338
635.373257	2584.050091
635.718639	2583.674525
636.063968	2584.413054
636.409245	2582.096644
636.754470	2578.875347
637.099642	2579.644123
637.444762	2579.674370
637.789829	2579.757549
638.134845	2575.911148
638.479808	2577.466344
638.824719	2579.528176
639.169577	2575.477609
639.514383	2577.032805
639.859137	2573.672876
640.203839	2572.831003
640.548489	2575.008782
640.893086	2573.123390
641.237632	2575.825449
641.582125	2573.125911
641.926566	2574.323185
642.270955	2572.059707
642.615292	2568.646846
642.959576	2568.067113
643.303809	2567.615930
643.647990	2571.905952
643.992118	2571.958884
644.336195	2570.887638
644.680219	2569.173646
645.024192	2572.493246
645.368112	2573.080540
645.711981	2573.078020
646.055797	2574.401323
646.399562	2572.639439
646.743274	2577.733525
647.086935	2578.807291
647.430544	2578.285532
647.774101	2578.035995
648.117606	2579.480285
648.461059	2580.435584
648.804460	2582.048753
649.147810	2577.700758
649.491108	2577.748649
649.834354	2577.778896
650.177548	2573.083061
650.520690	2573.398133
650.863781	2570.522155
651.206820	2573.466189
651.549807	2570.030642
651.892742	2568.871177
652.235626	2568.755230
652.578458	2570.040725
652.921238	2566.668193
653.263967	2568.238512
653.606644	2566.222051
653.949269	2569.191290
654.291843	2565.889334
654.634365	2565.448233
654.976836	2562.110990
655.319255	2564.324056
655.661622	2564.573593
656.003938	2564.180383
656.346203	2566.537123
656.688416	2565.271793
657.030577	2560.880948
657.372687	2562.020249
657.714746	2565.801114
658.056753	2562.786504
658.398708	2560.959086
658.740612	2562.237018
659.082465	2562.438665
659.424266	2561.478325
659.766016	2559.093859
660.107715	2560.331462
660.449362	2556.086811
660.790958	2562.128634
661.132503	2561.085115
661.473996	2559.093859
661.815438	2561.475804
662.156829	2562.627708
662.498168	2560.868345
662.839456	2561.014539
663.180693	2561.317008
663.521879	2563.887996
663.863013	2562.514282
664.204097	2560.414641
664.545129	2563.106617
664.886110	2563.709035
665.227040	2564.964283
665.567918	2562.478994
665.908746	2563.550239
666.249522	2565.740620
666.590248	2566.401012
666.930922	2566.809345
667.271545	2563.918243
667.612118	2565.392781
667.952639	2564.901268
668.293109	2562.267265
668.633528	2563.983778
668.973896	2562.612584
669.314213	2564.024107
669.654480	2562.468912
669.994695	2561.112841
670.334859	2562.002605
670.674973	2561.253993
671.015035	2563.885476
671.355047	2564.235836
671.695008	2559.534960
672.034918	2560.346586
672.374777	2559.363561
672.714585	2559.895402
673.054342	2562.461350
673.394049	2559.300546
673.733705	2560.749878
674.073310	2559.166956
674.412864	2560.349106
674.752368	2559.003118
675.091820	2559.247614
675.431223	2560.701987
675.770574	2559.386246
676.109875	2559.597974
676.449125	2553.218394
676.788324	2555.912891
677.127473	2554.919784
677.466571	2549.213198
677.805619	2553.626728
678.144616	2553.883827
678.483562	2555.829712
678.822458	2552.361398
679.161303	2552.164793
679.500098	2552.195040
679.838842	2552.716799
680.177535	2549.666901
680.516179	2553.997253
680.854771	2554.708055
681.193314	2555.166800
681.531805	2556.568241
681.870247	2561.077553
682.208638	2561.997564
682.546978	2563.678788
682.885268	2565.428069
683.223508	2564.283727
683.561697	2563.640980
683.899836	2562.078222
684.237925	2559.555125
684.575963	2560.190310
684.913951	2558.191492
685.251889	2560.580999
685.589776	2555.827191
685.927614	2560.097049
686.265401	2560.981771
686.603137	2558.672923
686.940824	2558.511606
687.278460	2561.367419
687.616046	2561.710218
687.953582	2563.792214
688.291068	2563.618295
688.628504	2567.318502
688.965889	2566.844633
689.303224	2562.521844
689.640510	2561.858932
689.977745	2561.685012
690.314930	2560.533108
690.652065	2558.735937
690.989150	2555.086142
691.326185	2556.296019
691.663170	2552.149670
692.000105	2550.987684
692.336990	2546.150697
692.673825	2547.504246
693.010610	2545.084493
693.347345	2540.807073
693.684030	2537.472350
694.020665	2540.945705
694.357251	2535.602082
694.693786	2540.164326
695.030272	2537.658873
695.366707	2538.813297
695.703093	2536.040662
696.039429	2535.370189
696.375716	2538.500746
696.711952	2536.912782
697.048139	2535.453368
697.384276	2538.062165
697.720363	2534.251053
698.056400	2537.043852
698.392388	2535.458409
698.728326	2537.522762
699.064214	2534.266176
699.400053	2534.545960
699.735842	2530.656710
700.071581	2533.620909
700.407270	2530.911288
700.742910	2533.028573
701.078501	2530.155115
701.414042	2530.739889
701.749533	2526.306194
702.084974	2527.085053
702.420366	2529.862728
702.755709	2526.485155
703.091002	2526.349044
703.426246	2526.318797
703.761440	2525.860052
704.096584	2526.273427
704.431679	2525.333252
704.766725	2525.527336
705.101721	2524.352747
705.436668	2524.824095
705.771565	2525.338293
706.106413	2528.713345
706.441212	2524.811492
706.775961	2526.233098
707.110661	2526.646472
707.445311	2528.627646
707.779913	2525.804600
708.114465	2528.564631
708.448967	2525.696215
708.783421	2528.914992
709.117825	2530.303829
709.452180	2532.756351
709.786485	2530.558408
710.120742	2532.824406
710.454949	2532.348017
710.789107	2533.250384
711.123216	2533.421783
711.457275	2541.568288
711.791286	2542.054759
712.125247	2543.887218
712.459159	2542.011909
712.793023	2543.983000
713.126837	2539.125849
713.460602	2543.554502
713.794318	2539.503935
714.127985	2542.049718
714.461602	2538.266332
714.795171	2540.766744
715.128691	2535.302133
715.462162	2530.697039
715.795584	2531.034797
716.128957	2533.038655
716.462281	2531.198634
716.795556	2531.312060
717.128782	2529.625794
717.461960	2524.841739
717.795088	2526.369209
718.128167	2526.611184
718.461198	2524.773684
718.794180	2524.125895
719.127113	2524.456091
719.459997	2521.086080
719.792833	2520.173631
720.125619	2521.436440
720.458357	2520.004752
720.791046	2516.912004
721.123686	2517.010307
721.456278	2517.138856
721.788821	2520.370236
722.121315	2515.286232
722.453761	2515.810512
722.786158	2520.624814
723.118506	2517.953003
723.450805	2515.989473
723.783056	2516.087776
724.115259	2516.962416
724.447412	2517.380832
724.779518	2520.440812
725.111574	2519.107427
725.443582	2518.207581
725.775542	2520.105575
726.107453	2519.845956
726.439315	2519.142715
726.771129	2522.081707
727.102895	2517.900070
727.434612	2519.064577
727.766281	2518.557941
728.097901	2523.495751
728.429473	2525.078673
728.760996	2526.139836
729.092471	2526.641431
729.423897	2527.069929
729.755276	2525.121523
730.086606	2524.879548
730.417887	2525.754188
730.749120	2527.637059
731.080305	2528.839374
731.411442	2530.157636
731.742530	2530.835671
732.073570	2531.927081
732.404562	2530.651669
732.735506	2533.361289
733.066401	2532.673172
733.397249	2529.870290
733.728048	2526.840557
734.058798	2528.436082
734.389501	2525.234949
734.720156	2523.084897
735.050762	2520.743281
735.381320	2519.457787
735.711831	2518.399145
736.042293	2520.445853
736.372707	2518.101717
736.703073	2514.688855
737.033391	2516.039885
737.363661	2513.698269
737.693883	2517.083403
738.024056	2519.830832
738.354182	2519.263703
738.684260	2517.842097
739.014290	2520.725637
739.344272	2518.467200
739.674207	2520.980215
740.004093	2523.092459
740.333931	2524.115813
740.663722	2523.747809
740.993464	2524.566996
741.323159	2520.982736
741.652806	2523.654548
741.982405	2519.009124
742.311956	2518.515091
742.641460	2521.701100
742.970915	2518.507529
743.300323	2517.421161
743.629683	2512.148114
743.958996	2515.646675
744.288260	2512.006962
744.617477	2517.090965
744.946647	2512.995028
745.275768	2514.623320
745.604842	2511.800274
745.933869	2511.293638
746.262847	2511.933865
746.591778	2510.378669
746.920662	2510.885305
747.249498	2511.137363
747.578286	2511.591066
747.907027	2511.911180
748.235720	2514.656088
748.564365	2516.284381
748.892963	2515.392096
749.221514	2511.792712
749.550017	2514.378824
749.878473	2512.745491
750.206881	2512.750532
750.535242	2509.990500
750.863555	2510.842455
751.191821	2513.748680
751.520039	2511.402023
751.848210	2509.080572
752.176334	2512.374966
752.504411	2510.509739
752.832440	2510.507218
753.160421	2510.613083
753.488356	2509.055366
753.816243	2512.959740
754.144082	2508.699965
754.471875	2511.114677
754.799620	2508.611744
755.127318	2510.723988
755.454969	2511.180212
755.782572	2511.523011
756.110129	2508.435304
756.437638	2512.072497
756.765100	2509.239368
757.092515	2509.193998
757.419882	2508.997393
757.747203	2509.579646
758.074477	2509.796416
758.401703	2509.360356
758.728882	2510.156858
759.056014	2507.714419
759.383099	2511.490243
759.710138	2510.378669
760.037129	2510.761797
760.364073	2510.033350
760.690970	2506.378513
761.017820	2512.468227
761.344623	2511.782630
761.671379	2515.563496
761.998088	2518.436953
762.324751	2523.599095
762.651366	2531.238963
762.977935	2545.901159
763.304456	2557.200906
763.630931	2560.986812
763.957359	2563.099056
764.283740	2556.527912
764.610074	2548.111705
764.936362	2539.791281
765.262602	2534.336753
765.588796	2525.471883
765.914943	2520.428209
766.241044	2516.841428
766.567097	2512.947137
766.893104	2512.712723
767.219064	2508.944461
767.544978	2507.974038
767.870845	2505.919768
768.196665	2504.094871
768.522438	2503.552947
768.848165	2503.023625
769.173846	2500.155209
769.499479	2500.830723
769.825066	2502.103615
770.150607	2504.672083
770.476101	2499.951042
770.801548	2498.723521
771.126949	2499.421721
771.452303	2499.512462
771.777611	2497.886690
772.102872	2498.045486
772.428087	2496.223109
772.753256	2495.693788
773.078378	2496.374343
773.403453	2497.299395
773.728482	2496.412152
774.053465	2494.400732
774.378401	2495.247646
774.703291	2493.256390
775.028135	2495.963489
775.352932	2493.677326
775.677683	2493.863849
776.002388	2487.564927
776.327046	2488.936121
776.651658	2489.911584
776.976224	2486.642396
777.300743	2492.245638
777.625216	2492.076760
777.949643	2492.122130
778.274024	2488.875627
778.598359	2491.539877
778.922647	2490.869403
779.246889	2494.635145
779.571086	2492.727069
779.895236	2493.788232
780.219339	2492.661534
780.543397	2493.145484
780.867409	2490.090545
781.191374	2491.935608
781.515294	2492.699342
781.839167	2492.719507
782.162995	2493.626915
782.486776	2492.439723
782.810511	2491.945690
783.134201	2490.632469
783.457844	2489.772952
783.781441	2490.612305
784.104993	2492.437202
784.428498	2491.557521
784.751958	2492.212871
785.075372	2490.229177
785.398739	2491.592809
785.722061	2490.433344
786.045337	2490.952583
786.368568	2493.639517
786.691752	2491.607932
787.014891	2492.487614
787.337983	2493.906699
787.661030	2493.697491
787.984031	2498.524396
788.306987	2499.262925
788.629897	2499.038593
788.952760	2499.618326
789.275579	2504.775426
789.598351	2498.594972
789.921078	2501.065137
790.243759	2497.206134
790.566395	2497.765702
790.888984	2494.345279
791.211529	2495.981133
791.534027	2494.282265
791.856480	2491.471821
792.178888	2487.572489
792.501249	2487.935452
792.823566	2487.854793
793.145836	2485.271202
793.468062	2491.423930
793.790241	2488.953765
794.112375	2491.481904
794.434464	2492.265803
794.756507	2488.517705
795.078505	2491.542398
795.400457	2492.263282
795.722364	2492.797645
796.044226	2497.962307
796.366042	2495.005670
796.687812	2496.021463
797.009538	2495.789570
797.331218	2496.200424
797.652852	2495.655979
797.974442	2495.900475
798.295986	2494.564569
798.617484	2493.601709
798.938938	2493.445433
799.260346	2494.428458
799.581709	2491.832264
799.903026	2488.926039
800.224299	2494.355361
800.545526	2492.180103
800.866708	2491.575165
801.187845	2492.845536
801.508936	2490.924856
801.829983	2488.764722
802.150984	2490.289671
802.471940	2490.771101
802.792851	2489.841008
803.113717	2489.314208
803.434538	2487.537201
803.755314	2489.767911
804.076045	2490.955103
804.396731	2488.978971
804.717372	2489.616677
805.037967	2489.699856
805.358518	2487.413693
805.679024	2489.198261
805.999485	2488.298415
806.319901	2492.084322
806.640272	2487.622900
806.960598	2489.334372
807.280879	2488.961327
807.601115	2491.202120
807.921306	2487.993425
808.241453	2489.304125
808.561554	2484.643578
808.881611	2488.709269
809.201623	2485.959320
809.521590	2489.692294
809.841513	2488.769763
810.161390	2489.591471
810.481223	2486.092910
810.801011	2490.987871
811.120755	2489.203302
811.440453	2491.272696
811.760107	2487.154073
812.079716	2489.452839
812.399281	2485.568630
812.718801	2489.704897
813.038276	2488.555514
813.357707	2489.450319
813.677093	2487.252376
813.996434	2488.552993
814.315731	2486.939824
814.634983	2487.718682
814.954191	2489.563745
815.273354	2490.728251
815.592473	2490.970227
815.911547	2490.072901
816.230577	2490.337562
816.549562	2491.078611
816.868502	2492.472490
817.187399	2491.305463
817.506250	2491.847387
817.825058	2493.032058
818.143821	2494.463746
818.462539	2496.684374
818.781213	2497.450630
819.099843	2498.600013
819.418429	2502.385919
819.736970	2510.943278
820.055466	2515.147600
820.373919	2522.099352
820.692327	2531.821217
821.010691	2549.409802
821.329011	2588.012438
821.647286	2649.557365
821.965517	2725.209961
822.283704	2783.077366
822.601847	2818.206646
822.919945	2795.828964
823.237999	2763.220261
823.556010	2728.703480
823.873976	2689.969775
824.191897	2655.886533
824.509775	2629.382667
824.827609	2603.645056
825.145398	2586.023703
825.463144	2579.848289
825.780845	2578.648495
826.098502	2582.091603
826.416116	2597.847729
826.733685	2618.483692
827.051210	2626.826802
827.368692	2622.627521
827.686129	2606.243771
828.003522	2590.802717
828.320872	2567.923440
828.638177	2553.253682
828.955439	2538.755324
829.272656	2534.104859
829.589830	2521.779238
829.906960	2513.778927
830.224046	2512.647188
830.541088	2504.109994
830.858086	2503.305930
831.175041	2501.014726
831.491952	2499.036073
831.808819	2501.143275
832.125642	2500.702174
832.442421	2506.239882
832.759157	2511.616272
833.075849	2524.630011
833.392497	2540.386137
833.709101	2553.258723
834.025662	2555.073539
834.342179	2551.496840
834.658653	2542.465613
834.975083	2530.467667
835.291469	2523.231091
835.607811	2515.462673
835.924110	2508.329440
836.240366	2504.205776
836.556578	2499.300733
836.872746	2498.912564
837.188871	2494.864518
837.504952	2492.361585
837.820990	2488.578199
838.136984	2488.255565
838.452935	2487.338075
838.768842	2486.050060
839.084706	2490.047695
839.400526	2498.199241
839.716303	2501.518841
840.032037	2505.093019
840.347727	2507.210304
840.663373	2503.908348
840.978977	2495.819817
841.294537	2499.273007
841.610054	2493.218581
841.925527	2490.239259
842.240957	2491.494507
842.556344	2486.541573
842.871687	2484.802375
843.186987	2481.457569
843.502244	2483.816829
843.817458	2481.155100
844.132629	2478.332054
844.447756	2477.033957
844.762840	2479.950264
845.077881	2477.449852
845.392879	2476.887763
845.707833	2479.025213
846.022745	2474.841055
846.337613	2478.228710
846.652438	2476.207208
846.967221	2477.623772
847.281960	2474.694861
847.596656	2475.972794
847.911309	2476.151755
848.225919	2476.403812
848.540485	2476.071096
848.855009	2475.635037
849.169490	2474.767958
849.483928	2476.509677
849.798323	2475.859368
850.112675	2473.053966
850.426984	2474.725108
850.741251	2476.993628
851.055474	2473.452217
851.369654	2476.484471
851.683792	2473.195118
851.997887	2476.703761
852.311938	2474.042032
852.625947	2475.284676
852.939914	2475.123359
853.253837	2475.009933
853.567718	2475.332567
853.881555	2476.053452
854.195350	2475.685448
854.509103	2472.759058
854.822812	2474.571353
855.136479	2475.745942
855.450103	2476.600418
855.763685	2474.836014
856.077224	2468.731176
856.390720	2473.916003
856.704173	2468.383337
857.017584	2473.825262
857.330953	2474.863740
857.644278	2477.384317
857.957561	2480.237610
858.270802	2475.655201
858.584000	2474.382310
858.897155	2475.060345
859.210268	2475.471199
859.523339	2473.863071
859.836367	2473.479943
860.149352	2474.087402
860.462295	2476.066055
860.775195	2475.325006
861.088054	2475.191415
861.400869	2474.563791
861.713642	2473.048925
862.026373	2474.707464
862.339062	2475.519090
862.651708	2474.775520
862.964312	2473.827783
863.276873	2477.452372
863.589392	2476.633185
863.901869	2476.262660
864.214303	2473.991620
864.526696	2476.141673
864.839045	2477.096971
865.151353	2477.364152
865.463619	2476.711323
865.775842	2474.883905
866.088023	2476.504636
866.400162	2477.500263
866.712258	2478.258957
867.024313	2478.359780
867.336325	2479.622589
867.648296	2477.807774
867.960224	2477.515387
868.272110	2478.856334
868.583954	2479.418423
868.895755	2480.625779
869.207515	2477.548154
869.519233	2478.959677
869.830909	2478.672332
870.142542	2479.488999
870.454134	2479.967908
870.765684	2477.308700
871.077191	2479.831797
871.388657	2476.761734
871.700081	2473.611013
872.011463	2478.387507
872.322803	2475.105715
872.634101	2480.691314
872.945357	2480.093937
873.256571	2479.362970
873.567744	2481.863382
873.878874	2480.928248
874.189963	2483.186685
874.501010	2480.905563
874.812015	2480.920686
875.122979	2487.532160
875.433900	2480.487147
875.744780	2482.798516
876.055618	2484.525111
876.366415	2482.627117
876.677169	2483.789103
876.987882	2486.050060
877.298554	2481.881026
877.609183	2485.709783
877.919771	2486.922180
878.230317	2485.303970
878.540822	2488.658857
878.851285	2492.071719
879.161707	2498.010198
879.472087	2500.132524
879.782425	2507.890859
880.092722	2523.271420
880.402977	2546.979966
880.713191	2574.897876
881.023363	2610.710233
881.333494	2636.715025
881.643583	2646.512508
881.953631	2646.147024
882.263637	2642.073772
882.573602	2631.242853
882.883526	2620.580812
883.193408	2604.887701
883.503248	2593.252717
883.813048	2579.434915
884.122806	2567.313460
884.432522	2558.672923
884.742197	2546.604400
885.051831	2536.970755
885.361424	2529.025897
885.670975	2519.692201
885.980485	2513.042919
886.289954	2509.531755
886.599382	2505.725684
886.908768	2497.680002
887.218113	2493.021976
887.527417	2494.317553
887.836680	2490.541728
888.145901	2490.992912
888.455082	2490.687922
888.764221	2486.576861
889.073319	2486.191213
889.382376	2485.707262
889.691392	2486.531491
890.000366	2484.862869
890.309300	2483.968064
890.618193	2485.263640
890.927044	2486.339927
891.235855	2486.778507
891.544625	2484.454535
891.853353	2486.029896
892.162041	2485.994608
892.470687	2488.870586
892.779293	2489.677171
893.087858	2493.389980
893.396381	2494.869559
893.704864	2500.369458
894.013306	2508.705006
894.321707	2519.609022
894.630068	2527.200999
894.938387	2529.280475
895.246665	2530.991947
895.554903	2525.474404
895.863100	2521.779238
896.171256	2517.567354
896.479371	2512.984945
896.787446	2510.713906
897.095480	2506.290293
897.403473	2501.276866
897.711425	2499.535147
898.019336	2497.364930
898.327207	2496.507934
898.635038	2496.875938
898.942827	2490.755977
899.250576	2492.341420
899.558284	2489.379743
899.865952	2488.762201
900.173579	2489.331852
900.481165	2483.448825
900.788711	2482.183495
901.096216	2484.656181
901.403681	2481.828094
901.711105	2485.593836
902.018489	2481.785244
902.325832	2480.910604
902.633135	2481.417240
902.940397	2484.779690
903.247619	2488.462253
903.554800	2502.862308
903.861941	2516.559123
904.169041	2535.188707
904.476101	2544.287990
904.783121	2540.824718
905.090100	2536.466640
905.397039	2530.137471
905.703938	2521.212108
906.010796	2518.008455
906.317614	2510.902949
906.624391	2505.345077
906.931129	2503.658811
907.237826	2499.885507
907.544483	2497.806031
907.851099	2493.735299
908.157675	2486.768425
908.464211	2488.104331
908.770707	2480.104019
909.077163	2480.600573
909.383578	2478.153093
909.689954	2481.039153
909.996289	2476.708802
910.302584	2473.699233
910.608839	2475.776189
910.915054	2474.833493
911.221229	2475.859368
911.527363	2476.176961
911.833458	2475.380458
912.139513	2476.461786
912.445527	2475.057824
912.751502	2476.373566
913.057436	2478.107723
913.363331	2482.261633
913.669186	2478.405151
913.975000	2486.536532
914.280775	2485.175420
914.586510	2492.071719
914.892205	2498.738645
915.197859	2509.156189
915.503475	2517.955523
915.809050	2529.144364
916.114585	2535.801208
916.420081	2541.283463
916.725536	2540.010571
917.030952	2537.487474
917.336328	2531.798532
917.641665	2531.334745
917.946961	2522.873169
918.252218	2522.328724
918.557435	2514.766993
918.862612	2513.693227
919.167750	2513.524349
919.472848	2509.970335
919.777906	2506.665859
920.082925	2498.128665
920.387904	2493.707573
920.692843	2490.501399
920.997743	2490.768580
921.302603	2490.098107
921.607423	2484.898157
921.912204	2484.341109
922.216946	2481.354226
922.521647	2481.974287
922.826310	2481.545789
923.130932	2478.788278
923.435516	2478.536221
923.740059	2477.648977
924.044564	2477.356591
924.349028	2475.282156
924.653454	2474.838534
924.957840	2475.435911
925.262186	2475.138483
925.566493	2474.324337
925.870761	2474.911631
926.174989	2473.172433
926.479178	2473.502628
926.783328	2471.365179
927.087438	2469.323512
927.391509	2471.791157
927.695541	2469.535240
927.999533	2471.294603
928.303486	2468.418625
928.607400	2471.511373
928.911275	2470.152782
929.215110	2469.741928
929.518906	2467.511217
929.822663	2472.791826
930.126381	2470.291413
930.430060	2473.119501
930.733699	2468.305199
931.037299	2470.626650
931.340861	2468.574901
931.644383	2471.067751
931.947866	2468.862246
932.251309	2472.025570
932.554714	2470.538430
932.858080	2466.253449
933.161407	2466.535754
933.464694	2468.499283
933.767943	2463.080043
934.071153	2471.034984
934.374323	2468.743779
934.677455	2468.153964
934.980548	2468.481639
935.283602	2469.953656
935.586617	2469.210086
935.889593	2471.498770
936.192530	2468.640436
936.495428	2471.619758
936.798287	2467.503655
937.101108	2472.759058
937.403890	2468.950467
937.706632	2472.466671
938.009336	2472.527165
938.312002	2472.489357
938.614628	2473.290900
938.917216	2475.088071
939.219765	2474.843575
939.522275	2472.249902
939.824747	2473.396764
940.127179	2473.706795
940.429573	2475.990438
940.731929	2473.994141
941.034246	2473.953812
941.336524	2474.251240
941.638763	2474.513380
941.940964	2475.438432
942.243126	2474.800726
942.545250	2472.925416
942.847335	2473.817701
943.149381	2472.509521
943.451389	2472.234778
943.753359	2470.230920
944.055290	2470.162864
944.357182	2472.290231
944.659036	2469.691516
944.960851	2469.807463
945.262628	2469.981382
945.564367	2469.590693
945.866067	2470.679582
946.167729	2471.418111
946.469352	2473.066569
946.770937	2471.024901
947.072484	2468.380816
947.373992	2470.122535
947.675462	2471.491208
947.976893	2469.041207
948.278286	2464.836885
948.579641	2467.294448
948.880958	2466.802935
949.182236	2469.535240
949.483476	2470.122535
949.784678	2471.987762
950.085841	2469.605817
950.386967	2469.794860
950.688054	2470.369551
950.989103	2470.024232
951.290114	2469.439458
951.591087	2471.755869
951.892021	2470.704788
952.192917	2470.326702
952.493776	2470.276290
952.794596	2473.094295
953.095378	2473.671507
953.396122	2471.720581
953.696828	2471.609675
953.997496	2471.531537
954.298126	2470.036835
954.598718	2473.099336
954.899272	2471.740745
955.199788	2468.847123
955.500266	2471.208903
955.800706	2471.350056
956.101108	2468.789150
956.401472	2469.129428
956.701798	2470.770323
957.002087	2467.710343
957.302337	2468.582462
957.602550	2468.259828
957.902724	2466.558439
958.202861	2465.487194
958.502960	2465.764457
958.803022	2467.866618
959.103045	2465.479632
959.403031	2467.438120
959.702979	2465.983748
960.002889	2466.543316
960.302762	2465.116669
960.602596	2465.444344
960.902393	2464.539457
961.202153	2466.271093
961.501875	2463.639611
961.801559	2468.486680
962.101205	2465.769498
962.400814	2463.795887
962.700385	2463.700105
962.999918	2462.470063
963.299414	2459.946966
963.598873	2463.269086
963.898293	2458.986626
964.197677	2465.214972
964.497022	2463.871504
964.796331	2461.771863
965.095601	2464.272276
965.394835	2464.819241
965.694030	2466.029118
965.993189	2461.111472
966.292309	2464.541977
966.591393	2464.897379
966.890439	2463.785804
967.189447	2462.281020
967.488419	2464.249591
967.787353	2465.865280
968.086249	2461.444188
968.385108	2463.858901
968.683930	2464.380661
968.982714	2464.438634
969.281462	2465.020887
969.580172	2464.547019
969.878844	2463.231278
970.177480	2466.699591
970.476078	2465.638428
970.774639	2468.466516
971.073162	2465.056175
971.371649	2462.838067
971.670098	2466.041721
971.968510	2461.958386
972.266885	2465.635908
972.565223	2466.364355
972.863524	2468.224540
973.161788	2465.509879
973.460014	2463.296813
973.758204	2466.397122
974.056356	2465.671196
974.354471	2466.442492
974.652550	2468.436269
974.950591	2464.118521
975.248595	2463.876545
975.546563	2466.404684
975.844493	2462.903603
976.142386	2465.184725
976.440243	2463.735393
976.738062	2466.233285
977.035845	2465.051134
977.333590	2464.199179
977.631299	2463.732872
977.928971	2461.608026
978.226606	2459.785649
978.524204	2464.688171
978.821765	2459.528550
979.119290	2463.753037
979.416777	2462.638942
979.714228	2462.790177
980.011642	2463.926957
980.309020	2463.921916
980.606360	2462.971658
980.903664	2463.521144
981.200931	2466.013994
981.498162	2467.065075
981.795356	2467.876701
982.092513	2465.910651
982.389633	2471.445838
982.686717	2470.077164
982.983764	2473.091774
983.280775	2475.768627
983.577749	2474.437762
983.874686	2472.438945
984.171587	2471.894500
984.468451	2470.382154
984.765279	2471.352576
985.062070	2471.685293
985.358824	2470.747638
985.655543	2473.532875
985.952224	2467.748151
986.248869	2468.622792
986.545478	2465.444344
986.842050	2466.397122
987.138586	2466.061885
987.435086	2464.607512
987.731549	2463.949642
988.027975	2463.753037
988.324366	2464.060547
988.620719	2463.175825
988.917037	2460.824127
989.213318	2465.141875
989.509563	2463.322018
989.805772	2463.921916
990.101944	2462.714559
990.398080	2460.670371
990.694180	2462.686833
990.990244	2462.701956
991.286271	2463.327059
991.582262	2460.383026
991.878217	2462.187759
992.174136	2461.945783
992.470019	2463.006946
992.765865	2462.263376
993.061676	2460.110803
993.357450	2461.686164
993.653188	2456.150977
993.948890	2461.660958
994.244556	2461.628191
994.540186	2464.413428
994.835780	2462.767491
995.131337	2465.393933
995.426859	2465.139354
995.722345	2465.323356
996.017795	2466.545836
996.313208	2466.240846
996.608586	2465.252780
996.903928	2465.683799
997.199234	2468.794191
997.494504	2469.331074
997.789738	2468.728656
998.084936	2468.456433
998.380099	2466.465178
998.675225	2468.390898
998.970316	2465.192286
999.265371	2465.325877
999.560390	2466.127420
999.855373	2464.307564
1000.150320	2465.802266
1000.445232	2463.921916
1000.740108	2462.389405
1001.034948	2460.985443
1001.329752	2460.922429
1001.624521	2462.770012
1001.919254	2464.317646
1002.213951	2464.650362
1002.508613	2463.649693
1002.803239	2462.172635
1003.097829	2464.428552
1003.392384	2460.098200
1003.686903	2462.202882
1003.981386	2460.990485
1004.275834	2460.536781
1004.570246	2461.045937
1004.864623	2460.665330
1005.158964	2461.232460
1005.453270	2463.740434
1005.747540	2461.212295
1006.041775	2461.726493
1006.335974	2460.982923
1006.630138	2459.470577
1006.924266	2463.044755
1007.218359	2461.068622
1007.512416	2459.339507
1007.806438	2457.128961
1008.100425	2458.810186
1008.394376	2458.016204
1008.688292	2460.559466
1008.982172	2461.285392
1009.276017	2459.359671
1009.569827	2459.140381
1009.863602	2462.530557
1010.157341	2461.766822
1010.451045	2461.590382
1010.744714	2462.144909
1011.038347	2462.091977
1011.331945	2461.592903
1011.625508	2464.030300
1011.919036	2462.575928
1012.212528	2463.306895
1012.505986	2461.353448
1012.799408	2461.292954
1013.092795	2461.139199
1013.386147	2460.443519
1013.679464	2461.514765
1013.972745	2462.830506
1014.265992	2462.913685
1014.559204	2459.755402
1014.852380	2461.053499
1015.145521	2459.500824
1015.438628	2463.233798
1015.731699	2459.384877
1016.024736	2461.119034
1016.317737	2458.626183
1016.610703	2458.790021
1016.903635	2461.227419
1017.196531	2460.670371
1017.489393	2459.011832
1017.782219	2459.576441
1018.075011	2462.674230
1018.367768	2462.250773
1018.660490	2464.368058
1018.953177	2464.368058
1019.245829	2464.368058
