Dividing Wavelength (nm)	Counts (n)	Blue Motor Position (mm): 0.000000	Red Motor Position (mm): 13.000000	
326.493990	2053.428320
326.888308	2053.428320
327.282561	2053.428320
327.676750	2028.081398
328.070874	2028.111645
328.464933	2035.232275
328.858929	2044.679397
329.252859	2054.315563
329.646726	2068.319888
330.040528	2085.212795
330.434265	2099.801894
330.827938	2122.900461
331.221547	2143.856537
331.615091	2162.286996
332.008571	2182.103772
332.401986	2201.938191
332.795338	2223.350492
333.188625	2241.428070
333.581847	2257.695873
333.975006	2277.207659
334.368100	2296.111986
334.761129	2310.292752
335.154095	2326.880669
335.546996	2343.466065
335.939833	2358.014835
336.332606	2369.402802
336.725315	2384.052395
337.117960	2389.942983
337.510540	2404.335477
337.903056	2411.617424
338.295508	2419.564803
338.687896	2426.324990
339.080220	2430.103335
339.472480	2435.825045
339.864676	2438.718667
340.256807	2441.153544
340.648875	2447.591098
341.040879	2446.973556
341.432818	2447.888526
341.824694	2447.056735
342.216506	2449.700821
342.608253	2444.387444
342.999937	2443.384255
343.391557	2445.380552
343.783113	2445.113371
344.174605	2442.048349
344.566033	2440.919131
344.957397	2440.120108
345.348697	2438.103646
345.739934	2437.798656
346.131106	2436.316557
346.522215	2434.055600
346.913260	2429.705084
347.304241	2428.812800
347.695159	2428.177614
348.086012	2427.287851
348.476802	2427.660896
348.867528	2422.188723
349.258191	2420.041192
349.648789	2418.687642
350.039324	2418.160842
350.429796	2422.103024
350.820203	2420.051274
351.210548	2416.156983
351.600828	2419.584968
351.991045	2415.867117
352.381198	2415.615059
352.771288	2418.549010
353.161314	2416.971129
353.551276	2418.002045
353.941175	2415.975501
354.331010	2416.149421
354.720782	2416.343506
355.110490	2416.658578
355.500135	2415.073135
355.889717	2419.267375
356.279235	2416.507343
356.668689	2418.395255
357.058080	2418.173444
357.447408	2419.048085
357.836672	2416.963568
358.225873	2418.312076
358.615010	2423.065884
359.004084	2422.909608
359.393095	2421.823240
359.782043	2421.803075
360.170927	2423.426327
360.559748	2424.341296
360.948505	2424.701739
361.337199	2423.431368
361.725830	2425.410021
362.114398	2426.067891
362.502903	2426.466143
362.891344	2427.451688
363.279722	2425.510844
363.668037	2428.961514
364.056289	2423.698549
364.444478	2428.409507
364.832603	2428.434713
365.220665	2428.706935
365.608665	2427.804569
365.996601	2429.226174
366.384474	2427.789445
366.772284	2432.011412
367.160031	2429.936977
367.547715	2433.150713
367.935336	2430.201637
368.322893	2430.342790
368.710388	2429.132913
369.097820	2431.265321
369.485189	2431.408994
369.872495	2435.320929
370.259738	2433.526278
370.646918	2435.230188
371.034035	2436.182967
371.421090	2437.564243
371.808081	2438.030549
372.195010	2440.906528
372.581875	2439.492484
372.968678	2442.313010
373.355418	2442.900304
373.742096	2444.084975
374.128710	2445.383072
374.515262	2448.054884
374.901751	2451.588733
375.288177	2454.767180
375.674540	2457.890175
376.060841	2463.095166
376.447079	2463.304374
376.833254	2470.364510
377.219367	2474.808287
377.605417	2483.458907
377.991404	2487.343116
378.377329	2492.590958
378.763191	2499.457009
379.148991	2507.061590
379.534727	2515.147600
379.920402	2526.933818
380.306013	2532.768954
380.691563	2547.274874
381.077049	2558.347768
381.462474	2568.732545
381.847835	2583.437591
382.233134	2595.170877
382.618371	2604.013060
383.003545	2626.090794
383.388657	2638.139151
383.773706	2659.947183
384.158693	2670.803308
384.543618	2689.180834
384.928480	2704.314378
385.313280	2725.628376
385.698017	2744.623444
386.082692	2766.610437
386.467305	2783.382355
386.851856	2807.617702
387.236344	2836.669872
387.620770	2850.885926
388.005133	2869.472660
388.389435	2902.361148
388.773674	2917.202305
389.157851	2951.267902
389.541965	2978.628764
389.926018	2991.128305
390.310008	3024.704911
390.693936	3047.939589
391.077802	3077.853796
391.461606	3106.419494
391.845348	3123.244345
392.229027	3150.824497
392.612645	3196.144471
392.996200	3223.661609
393.379694	3258.722834
393.763125	3301.126499
394.146494	3323.350426
394.529801	3361.731251
394.913047	3402.615009
395.296230	3405.485946
395.679351	3429.499482
396.062410	3471.250318
396.445408	3446.949436
396.828343	3481.718274
397.211217	3510.427645
397.594028	3480.757934
397.976778	3521.855941
398.359466	3540.833365
398.742092	3547.114642
399.124656	3552.425498
399.507158	3598.161366
399.889598	3594.158690
400.271977	3643.347749
400.654294	3619.029223
401.036549	3661.316942
401.418742	3647.161382
401.800874	3697.850184
402.182944	3701.608364
402.564952	3762.429885
402.946898	3740.054724
403.328783	3719.302814
403.710606	3744.095208
404.092367	3780.769603
404.474067	3809.932678
404.855705	3778.077627
405.237282	3731.666244
405.618797	3781.553502
406.000250	3817.955674
406.381642	3854.733412
406.762972	3822.961540
407.144240	3772.522275
407.525447	3795.061274
407.906593	3771.892131
408.287677	3801.377840
408.668700	3786.324954
409.049661	3783.116260
409.430560	3774.372378
409.811399	3731.066346
410.192176	3729.130543
410.572891	3738.673447
410.953545	3763.949793
411.334138	3674.623067
411.714669	3696.854556
412.095139	3617.592494
412.475547	3639.216523
412.855894	3602.242180
413.236180	3616.528810
413.616405	3542.093653
413.996568	3553.516908
414.376670	3516.953419
414.756711	3480.657111
415.136691	3466.640183
415.516609	3467.459371
415.896466	3442.946760
416.276262	3430.351437
416.655997	3431.957045
417.035670	3423.810540
417.415283	3427.941766
417.794834	3414.383582
418.174324	3360.808720
418.553753	3320.426557
418.933121	3325.460149
419.312428	3290.744243
419.691674	3231.820716
420.070859	3245.683889
420.449983	3186.213397
420.829045	3189.676670
421.208047	3137.573825
421.586988	3131.463946
421.965867	3109.333281
422.344686	3089.544231
422.723444	3081.367480
423.102141	2992.403717
423.480777	3017.354908
423.859352	2958.512040
424.237866	2975.311685
424.616319	2944.424536
424.994712	2934.367434
425.373044	2897.388050
425.751314	2894.081053
426.129524	2844.592045
426.507673	2841.958042
426.885762	2817.584064
427.263789	2800.257618
427.641756	2782.114505
428.019662	2769.924995
428.397508	2746.571850
428.775292	2727.075187
429.153016	2721.608056
429.530679	2697.786084
429.908282	2679.930317
430.285824	2663.652431
430.663305	2658.974240
431.040726	2639.575880
431.418086	2627.454426
431.795385	2620.487551
432.172624	2615.403547
432.549802	2596.867225
432.926920	2591.677357
433.303977	2581.164031
433.680974	2569.750858
434.057910	2567.557956
434.434786	2561.458160
434.811601	2550.755791
435.188355	2549.223280
435.565050	2540.960829
435.941683	2538.135262
436.318257	2534.298944
436.694770	2530.364323
437.071222	2528.496576
437.447614	2524.304856
437.823946	2518.719258
438.200218	2517.048115
438.576429	2513.557116
438.952580	2512.627023
439.328670	2511.558299
439.704700	2508.964625
440.080670	2504.750221
440.456580	2504.062103
440.832429	2504.276352
441.208218	2500.825682
441.583947	2503.563029
441.959616	2499.620847
442.335224	2499.860301
442.710773	2498.945332
443.086261	2500.024139
443.461689	2496.661689
443.837057	2498.758809
444.212365	2499.668738
444.587612	2495.156905
444.962800	2491.751605
445.337927	2495.245125
445.712995	2486.491161
446.088002	2496.717142
446.462949	2493.889055
446.837837	2496.097080
447.212664	2494.849394
447.587431	2495.204796
447.962139	2501.622185
448.336786	2504.755262
448.711374	2501.395333
449.085901	2496.611278
449.460369	2498.358037
449.834776	2497.987513
450.209124	2501.019767
450.583412	2498.181597
450.957640	2499.499859
451.331808	2499.121772
451.705917	2495.605567
452.079965	2493.576503
452.453954	2496.402070
452.827883	2496.059271
453.201752	2494.846874
453.575562	2498.443737
453.949311	2496.757471
454.323001	2497.236381
454.696632	2495.154384
455.070202	2498.005157
455.443713	2497.949704
455.817164	2498.068171
456.190556	2498.864673
456.563888	2501.531444
456.937160	2498.042965
457.310373	2497.614467
457.683526	2497.221257
458.056619	2497.342245
458.429653	2499.431803
458.802628	2500.256032
459.175542	2497.740496
459.548398	2502.769047
459.921194	2500.679489
460.293930	2503.240395
460.666607	2505.425735
461.039224	2504.490601
461.411782	2510.529903
461.784280	2507.711898
462.156719	2507.164933
462.529099	2507.686693
462.901419	2504.528410
463.273680	2503.016064
463.645882	2498.978099
464.018024	2502.942967
464.390106	2500.394664
464.762130	2508.969666
465.134094	2513.468896
465.505999	2519.800585
465.877845	2527.387522
466.249631	2530.513037
466.621358	2530.495393
466.993026	2523.122706
467.364634	2527.569003
467.736184	2518.893178
468.107674	2521.650689
468.479105	2518.474762
468.850477	2515.576098
469.221790	2515.213135
469.593043	2513.035357
469.964238	2508.853720
470.335373	2512.745491
470.706449	2511.598628
471.077467	2515.981911
471.448425	2521.670853
471.819324	2527.672347
472.190164	2529.018335
472.560945	2519.029289
472.931667	2517.380832
473.302330	2515.419823
473.672934	2513.894874
474.043479	2516.092817
474.413965	2514.714061
474.784393	2515.623989
475.154761	2517.128774
475.525070	2518.101717
475.895321	2516.738084
476.265513	2515.066942
476.635645	2514.643485
477.005719	2514.824967
477.375734	2515.671880
477.745691	2521.721265
478.115588	2519.677077
478.485427	2524.002387
478.855207	2525.723941
479.224928	2534.616537
479.594591	2537.689120
479.964194	2532.753830
480.333739	2536.980838
480.703226	2536.275076
481.072653	2540.008051
481.442022	2537.517721
481.811333	2536.338091
482.180584	2531.856505
482.549777	2535.281969
482.918912	2530.679395
483.287988	2534.548481
483.657005	2535.942360
484.025964	2533.688964
484.394864	2531.924560
484.763706	2535.423121
485.132489	2530.984385
485.501213	2534.949253
485.869879	2533.850281
486.238487	2531.049920
486.607036	2534.160312
486.975527	2532.479087
487.343959	2531.412883
487.712333	2535.599562
488.080648	2531.947246
488.448905	2534.031763
488.817104	2535.506300
489.185244	2535.019829
489.553326	2533.802390
489.921350	2541.404450
490.289315	2549.417364
490.657222	2548.482230
491.025070	2549.762683
491.392861	2549.830739
491.760593	2548.595656
492.128267	2543.136087
492.495883	2543.683052
492.863440	2537.621064
493.230939	2537.074099
493.598380	2538.039480
493.965763	2534.515713
494.333088	2534.707277
494.700354	2534.487987
495.067563	2533.290713
495.434713	2534.551002
495.801805	2536.333049
496.168839	2534.649304
496.535815	2534.664428
496.902733	2534.079654
497.269593	2534.281300
497.636395	2534.966897
498.003139	2536.285158
498.369825	2534.072092
498.736453	2538.321785
499.103023	2533.089067
499.469535	2535.770961
499.835989	2535.032432
500.202385	2531.846423
500.568723	2530.994467
500.935003	2535.261804
501.301226	2528.589837
501.667390	2537.426980
502.033497	2537.439583
502.399546	2535.294572
502.765537	2537.845396
503.131470	2533.058820
503.497345	2538.014274
503.863163	2535.337422
504.228923	2535.486136
504.594625	2539.866898
504.960269	2535.478574
505.325856	2537.469830
505.691385	2537.298430
506.056856	2538.767927
506.422270	2537.805066
506.787625	2536.292720
507.152924	2538.906558
507.518164	2533.880528
507.883347	2536.086033
508.248472	2535.662576
508.613540	2533.968748
508.978550	2535.702905
509.343503	2535.302133
509.708398	2540.398740
510.073236	2538.790612
510.438016	2537.041332
510.802738	2531.743079
511.167403	2537.827752
511.532010	2534.482946
511.896561	2537.442103
512.261053	2534.321629
512.625488	2537.472350
512.989866	2536.375899
513.354186	2538.218441
513.718449	2535.637370
514.082655	2535.128214
514.446803	2534.876156
514.810894	2535.153419
515.174927	2539.080478
515.538904	2536.806918
515.902822	2536.138965
516.266684	2535.506300
516.630488	2538.258770
516.994235	2535.902031
517.357925	2533.177287
517.721558	2532.658048
518.085133	2535.435724
518.448651	2529.771988
518.812112	2531.042358
519.175516	2533.925898
519.538863	2530.429858
519.902152	2534.336752
520.265385	2534.719880
520.628560	2537.797505
520.991678	2535.753317
521.354739	2536.320447
521.717743	2535.821372
522.080690	2536.338091
522.443580	2536.350693
522.806413	2536.643080
523.169189	2537.495035
523.531908	2535.166022
523.894569	2536.595189
524.257174	2535.186187
524.619722	2536.254912
524.982213	2535.075282
525.344647	2534.929088
525.707025	2534.833306
526.069345	2536.317926
526.431608	2534.104859
526.793815	2535.092926
527.155964	2534.311547
527.518057	2532.058151
527.880093	2534.160312
528.242072	2535.279448
528.603995	2534.518234
528.965860	2533.925898
529.327669	2535.546629
529.689421	2535.014788
530.051117	2536.552340
530.412755	2532.312729
530.774337	2536.537216
531.135862	2532.285003
531.497331	2533.830117
531.858743	2531.216278
532.220098	2534.772812
532.581396	2531.264169
532.942638	2531.518747
533.303824	2533.255425
533.664953	2532.111083
534.026025	2531.125537
534.387040	2534.387164
534.747999	2534.230888
535.108902	2533.008408
535.469748	2533.094108
535.830537	2533.850281
536.191270	2532.509334
536.551947	2528.597399
536.912567	2529.935825
537.273131	2529.388860
537.633638	2526.386853
537.994089	2530.729807
538.354483	2529.925743
538.714821	2531.596885
539.075103	2530.959179
539.435328	2529.903058
539.795497	2528.226874
540.155609	2531.135620
540.515665	2531.990095
540.875665	2528.612522
541.235609	2531.612009
541.595496	2530.301309
541.955328	2534.127545
542.315102	2529.340969
542.674821	2528.620084
543.034483	2528.534384
543.394090	2530.606299
543.753640	2530.606299
544.113134	2530.311391
544.472571	2530.901206
544.831953	2531.428007
545.191278	2530.926412
545.550548	2528.584796
545.909761	2529.219981
546.268918	2530.157636
546.628019	2529.063706
546.987064	2529.991278
547.346053	2529.940866
547.704986	2530.082019
548.063863	2530.336597
548.422684	2528.713345
548.781449	2531.317101
549.140158	2529.759385
549.498811	2528.935156
549.857408	2527.367357
550.215949	2531.982534
550.574434	2527.858870
550.932864	2529.850126
551.291237	2527.589168
551.649555	2531.274252
552.007817	2530.686957
552.366022	2528.836854
552.724173	2528.365506
553.082267	2527.382481
553.440305	2527.420289
553.798288	2528.350382
554.156215	2528.257121
554.514086	2529.020856
554.871902	2527.074970
555.229661	2526.565814
555.587365	2524.554393
555.945014	2528.776360
556.302606	2528.862059
556.660143	2529.338448
557.017625	2529.159487
557.375050	2529.439272
557.732421	2527.717718
558.089735	2528.632687
558.446994	2528.458767
558.804197	2530.918850
559.161345	2532.098480
559.518437	2528.988088
559.875474	2528.647810
560.232455	2529.708973
560.589381	2528.889786
560.946251	2530.374406
561.303065	2530.729807
561.659825	2528.935156
562.016528	2529.038500
562.373177	2528.937677
562.729770	2530.104704
563.086307	2526.336441
563.442789	2529.550177
563.799216	2530.263500
564.155587	2529.764426
564.511904	2530.054292
564.868164	2529.333407
565.224370	2528.317615
565.580520	2527.909281
565.936615	2527.637059
566.292654	2525.837367
566.648638	2528.879703
567.004567	2528.292409
567.360441	2527.569003
567.716260	2529.955990
568.072023	2527.735362
568.427732	2530.460105
568.783385	2526.825433
569.138982	2528.499096
569.494525	2529.545136
569.850013	2529.217461
570.205445	2529.119158
570.560823	2526.888448
570.916145	2528.617563
571.271412	2527.097656
571.626625	2527.934487
571.981782	2528.945238
572.336884	2528.355423
572.691931	2523.382325
573.046923	2526.787625
573.401860	2523.397449
573.756743	2527.223684
574.111570	2527.977337
574.466342	2527.637059
574.821059	2527.866432
575.175722	2528.020187
575.530330	2529.593027
575.884882	2526.996832
576.239380	2526.442306
576.593823	2528.168901
576.948211	2523.084897
577.302544	2526.593540
577.656823	2524.990453
578.011047	2524.463653
578.365216	2527.064888
578.719330	2522.104393
579.073389	2526.001205
579.427394	2525.000536
579.781344	2523.616739
580.135239	2524.803931
580.489080	2524.624970
580.842866	2526.500279
581.196597	2528.010104
581.550273	2524.589682
581.903895	2526.485155
582.257463	2526.212933
582.610975	2525.635721
582.964434	2524.990453
583.317837	2521.383508
583.671186	2525.620597
584.024481	2525.582789
584.377721	2524.103210
584.730906	2521.302849
585.084037	2524.932480
585.437113	2523.825947
585.790135	2526.633869
586.143103	2525.842408
586.496016	2523.372243
586.848874	2524.705628
587.201679	2523.170597
587.554428	2524.377953
587.907124	2524.163704
588.259765	2524.133457
588.612352	2520.929804
588.964884	2521.171779
589.317362	2522.406862
589.669786	2523.657068
590.022155	2520.886954
590.374470	2518.200019
590.726731	2523.679753
591.078937	2518.409227
591.431090	2521.625483
591.783188	2521.522139
592.135232	2521.310411
592.487222	2520.650020
592.839157	2523.495751
593.191038	2524.146060
593.542866	2520.634896
593.894639	2519.767818
594.246358	2522.976512
594.598022	2522.197654
594.949633	2519.558610
595.301190	2519.500637
595.652692	2519.344361
596.004141	2521.862417
596.355535	2517.194309
596.706876	2519.253620
597.058162	2518.820081
597.409395	2519.719927
597.760573	2519.178003
598.111698	2516.647344
598.462768	2520.166069
598.813785	2518.895698
599.164748	2519.117509
599.515657	2517.622807
599.866511	2517.262364
600.217312	2521.028106
600.568060	2518.734381
600.918753	2521.118847
601.269392	2519.271264
601.619978	2516.274298
601.970510	2519.220853
602.320988	2517.325379
602.671412	2519.853518
603.021783	2518.502488
603.372100	2517.753877
603.722363	2517.416120
604.072572	2521.708662
604.422728	2517.532066
604.772830	2516.269257
605.122878	2517.350585
605.472872	2517.148938
605.822813	2518.474762
606.172701	2518.149607
606.522534	2518.429392
606.872314	2518.772190
607.222041	2517.554751
607.571714	2516.276819
607.921333	2514.562827
608.270899	2512.306910
608.620411	2513.957888
608.969870	2518.300842
609.319276	2516.770852
609.668627	2520.397962
610.017926	2519.654392
610.367171	2519.755215
610.716362	2518.205060
611.065500	2517.516943
611.414585	2517.973167
611.763616	2519.553569
612.112594	2520.113137
612.461518	2517.101048
612.810389	2520.760925
613.159207	2518.000893
613.507971	2518.280678
613.856682	2521.718744
614.205340	2519.286388
614.553945	2519.578775
614.902496	2519.402334
615.250994	2518.086593
615.599439	2520.430730
615.947830	2520.087931
616.296169	2523.062212
616.644454	2521.678415
616.992686	2518.225225
617.340864	2522.227901
617.688990	2524.723272
618.037063	2518.867972
618.385082	2520.808816
618.733048	2524.660258
619.080961	2519.687159
619.428821	2520.276974
619.776628	2520.269413
620.124382	2520.002232
620.472083	2519.883764
620.819731	2520.934845
621.167326	2519.417458
621.514868	2521.958199
621.862357	2517.784124
622.209793	2521.582633
622.557176	2517.267406
622.904506	2517.194309
623.251783	2516.443177
623.599007	2519.543487
623.946179	2514.986283
624.293297	2517.030471
624.640363	2514.812364
624.987376	2516.793537
625.334336	2513.020233
625.681243	2514.469565
626.028097	2508.631909
626.374899	2515.699607
626.721647	2516.475944
627.068343	2517.191788
627.414987	2517.032992
627.761577	2512.765655
628.108115	2518.918383
628.454600	2512.596777
628.801032	2516.574247
629.147412	2515.437467
629.493739	2513.342867
629.840014	2514.827487
630.186236	2512.790861
630.532405	2514.557785
630.878521	2512.453104
631.224585	2514.469565
631.570597	2512.067455
631.916556	2513.330264
632.262462	2512.478309
632.608316	2513.138701
632.954117	2514.651047
633.299866	2512.208608
633.645562	2511.054183
633.991206	2511.167609
634.336797	2512.047291
634.682336	2514.235152
635.027823	2510.708864
635.373257	2513.574760
635.718639	2509.902280
636.063968	2513.020233
636.409245	2513.073166
636.754470	2510.250119
637.099642	2510.136693
637.444762	2508.727691
637.789829	2506.355828
638.134845	2509.209121
638.479808	2505.347597
638.824719	2508.614265
639.169577	2507.842968
639.514383	2508.699965
639.859137	2508.427742
640.203839	2509.282218
640.548489	2507.046466
640.893086	2505.763493
641.237632	2507.548061
641.582125	2509.007475
641.926566	2507.338853
642.270955	2508.820952
642.615292	2502.181753
642.959576	2504.420025
643.303809	2502.758965
643.647990	2506.136538
643.992118	2507.830366
644.336195	2506.769203
644.680219	2507.333812
645.024192	2507.414470
645.368112	2511.792713
645.711981	2509.309944
646.055797	2506.983452
646.399562	2509.864471
646.743274	2509.042763
647.086935	2507.192660
647.430544	2510.308093
647.774101	2507.855571
648.117606	2510.182064
648.461059	2511.102074
648.804460	2513.610048
649.147810	2507.727022
649.491108	2510.517301
649.834354	2509.826662
650.177548	2508.468072
650.520690	2508.573936
650.863781	2510.058556
651.206820	2509.735922
651.549807	2506.197032
651.892742	2505.536641
652.235626	2509.740963
652.578458	2506.499501
652.921238	2503.923471
653.263967	2506.809532
653.606644	2504.961949
653.949269	2504.775426
654.291843	2507.651405
654.634365	2503.061434
654.976836	2505.599655
655.319255	2506.539830
655.661622	2503.401712
656.003938	2504.427587
656.346203	2504.210817
656.688416	2506.174347
657.030577	2504.576301
657.372687	2503.681496
657.714746	2504.107473
658.056753	2504.054541
658.398708	2503.129490
658.740612	2505.284583
659.082465	2504.200735
659.424266	2501.803666
659.766016	2499.237719
660.107715	2505.186280
660.449362	2499.580517
660.790958	2504.331805
661.132503	2501.234016
661.473996	2503.784840
661.815438	2503.240395
662.156829	2502.655621
662.498168	2503.353821
662.839456	2504.755262
663.180693	2502.733759
663.521879	2506.272649
663.863013	2503.986486
664.204097	2504.430107
664.545129	2504.286434
664.886110	2505.549243
665.227040	2505.690396
665.567918	2507.568226
665.908746	2503.348780
666.249522	2505.178719
666.590248	2506.123935
666.930922	2504.233502
667.271545	2506.635612
667.612118	2505.692916
667.952639	2506.375993
668.293109	2505.173677
668.633528	2502.025477
668.973896	2504.621671
669.314213	2506.605365
669.654480	2506.270128
669.994695	2503.096722
670.334859	2505.632422
670.674973	2504.856085
671.015035	2506.557474
671.355047	2506.116373
671.695008	2504.906496
672.034918	2502.065806
672.374777	2503.164778
672.714585	2505.755931
673.054342	2503.900786
673.394049	2501.201248
673.733705	2506.958246
674.073310	2504.755262
674.412864	2502.516989
674.752368	2504.117556
675.091820	2504.800632
675.431223	2504.026815
675.770574	2504.813235
676.109875	2504.488081
676.449125	2500.472802
676.788324	2499.399036
677.127473	2500.039262
677.466571	2497.410301
677.805619	2500.659324
678.144616	2500.248470
678.483562	2503.439521
678.822458	2501.234016
679.161303	2503.835251
679.500098	2500.976917
679.838842	2503.928513
680.177535	2502.597648
680.516179	2502.695950
680.854771	2501.105466
681.193314	2504.296517
681.531805	2502.844664
681.870247	2506.648215
682.208638	2503.983965
682.546978	2503.542864
682.885268	2508.793226
683.223508	2508.110150
683.561697	2508.044615
683.899836	2506.365910
684.237925	2505.004799
684.575963	2505.561846
684.913951	2501.539006
685.251889	2504.026815
685.589776	2503.726866
685.927614	2506.033194
686.265401	2506.340705
686.603137	2501.987668
686.940824	2503.278204
687.278460	2506.418842
687.616046	2507.492608
687.953582	2504.344408
688.291068	2504.425066
688.628504	2506.507063
688.965889	2507.089316
689.303224	2506.025633
689.640510	2505.861795
689.977745	2505.728204
690.314930	2501.896927
690.652065	2505.990344
690.989150	2504.011692
691.326185	2504.422546
691.663170	2503.129490
692.000105	2501.816269
692.336990	2501.055055
692.673825	2500.336690
693.010610	2497.921978
693.347345	2495.419045
693.684030	2495.103973
694.020665	2497.841319
694.357251	2490.887047
694.693786	2497.485918
695.030272	2495.416524
695.366707	2495.096411
695.703093	2495.766884
696.039429	2497.304436
696.375716	2495.131699
696.711952	2494.446102
697.048139	2497.735455
697.384276	2494.413335
697.720363	2494.635145
698.056400	2495.172028
698.392388	2493.200937
698.728326	2493.158087
699.064214	2498.418531
699.400053	2496.502893
699.735842	2496.132368
700.071581	2494.796462
700.407270	2493.175731
700.742910	2494.912409
701.078501	2493.516009
701.414042	2497.795949
701.749533	2494.791421
702.084974	2491.088694
702.420366	2492.709425
702.755709	2493.289157
703.091002	2493.324445
703.426246	2492.016266
703.761440	2495.603047
704.096584	2492.996770
704.431679	2492.041472
704.766725	2490.836636
705.101721	2492.212871
705.436668	2492.772439
705.771565	2492.318735
706.106413	2491.161790
706.441212	2489.755308
706.775961	2493.435351
707.110661	2493.132882
707.445311	2493.301760
707.779913	2492.835453
708.114465	2493.798314
708.448967	2492.583396
708.783421	2494.698160
709.117825	2492.164980
709.452180	2496.548263
709.786485	2494.010042
710.120742	2493.122799
710.454949	2489.934269
710.789107	2495.736637
711.123216	2488.999135
711.457275	2498.451299
711.791286	2495.875269
712.125247	2497.581700
712.459159	2496.956597
712.793023	2498.143788
713.126837	2497.150681
713.460602	2499.215034
713.794318	2498.247132
714.127985	2498.020280
714.461602	2496.364261
714.795171	2495.509786
715.128691	2496.046668
715.462162	2498.501710
715.795584	2495.797131
716.128957	2491.058447
716.462281	2492.956441
716.795556	2493.140443
717.128782	2490.408138
717.461960	2489.437716
717.795088	2491.318066
718.128167	2493.190855
718.461198	2491.076091
718.794180	2490.750936
719.127113	2491.481904
719.459997	2490.312356
719.792833	2489.636841
720.125619	2490.203971
720.458357	2489.641883
720.791046	2488.212715
721.123686	2489.475524
721.456278	2490.145998
721.788821	2488.200112
722.121315	2486.791110
722.453761	2489.515854
722.786158	2491.504589
723.118506	2488.248003
723.450805	2490.428303
723.783056	2489.982160
724.115259	2487.219608
724.447412	2489.820843
724.779518	2488.348827
725.111574	2487.877479
725.443582	2488.898312
725.775542	2490.340082
726.107453	2491.229846
726.439315	2487.915287
726.771129	2492.923674
727.102895	2486.972592
727.434612	2487.575009
727.766281	2490.138436
728.097901	2490.287150
728.429473	2491.063488
728.760996	2492.038951
729.092471	2493.200937
729.423897	2490.695484
729.755276	2488.752119
730.086606	2492.822851
730.417887	2493.576503
730.749120	2493.359733
731.080305	2494.564569
731.411442	2496.636483
731.742530	2493.916781
732.073570	2496.817965
732.404562	2493.820999
732.735506	2492.850577
733.066401	2495.290495
733.397249	2492.986688
733.728048	2494.246977
734.058798	2493.442913
734.389501	2493.064826
734.720156	2493.261431
735.050762	2491.295381
735.381320	2491.174393
735.711831	2492.144815
736.042293	2490.924856
736.372707	2485.288846
736.703073	2490.400576
737.033391	2488.414362
737.363661	2488.928559
737.693883	2487.751450
738.024056	2490.486276
738.354182	2488.850421
738.684260	2488.731954
739.014290	2490.337562
739.344272	2491.151708
739.674207	2490.357726
740.004093	2494.279744
740.333931	2492.321256
740.663722	2489.041985
740.993464	2492.124651
741.323159	2491.270175
741.652806	2489.657006
741.982405	2490.256903
742.311956	2488.212715
742.641460	2491.156749
742.970915	2490.907212
743.300323	2488.270689
743.629683	2486.365133
743.958996	2486.977633
744.288260	2482.627117
744.617477	2489.291522
744.946647	2489.344454
745.275768	2488.051398
745.604842	2487.292705
745.933869	2489.404948
746.262847	2485.281284
746.591778	2485.780359
746.920662	2484.131901
747.249498	2486.539052
747.578286	2488.253045
747.907027	2487.915287
748.235720	2484.615852
748.564365	2486.213898
748.892963	2485.682056
749.221514	2488.437047
749.550017	2488.915956
749.878473	2488.033754
750.206881	2484.452015
750.535242	2488.452170
750.863555	2486.803713
751.191821	2487.343116
751.520039	2488.442088
751.848210	2486.344968
752.176334	2488.174907
752.504411	2484.477220
752.832440	2484.358753
753.160421	2485.712303
753.488356	2486.839001
753.816243	2487.491830
754.144082	2487.310349
754.471875	2485.956799
754.799620	2486.874289
755.127318	2487.151552
755.454969	2486.556696
755.782572	2486.919659
756.110129	2483.927735
756.437638	2486.201295
756.765100	2483.978146
757.092515	2486.657519
757.419882	2487.338075
757.747203	2486.181130
758.074477	2485.354381
758.401703	2487.484269
758.728882	2484.814978
759.056014	2489.861173
759.383099	2485.445122
759.710138	2484.227683
760.037129	2484.462097
760.364073	2487.307828
760.690970	2480.537559
761.017820	2486.702890
761.344623	2487.829588
761.671379	2490.597181
761.998088	2489.319249
762.324751	2488.915956
762.651366	2494.962820
762.977935	2501.259222
763.304456	2501.670076
763.630931	2504.689727
763.957359	2507.376662
764.283740	2501.917092
764.610074	2502.083450
764.936362	2496.989364
765.262602	2493.856287
765.588796	2492.023828
765.914943	2491.675988
766.241044	2487.239773
766.567097	2487.675833
766.893104	2485.245996
767.219064	2489.805720
767.544978	2485.750112
767.870845	2484.663743
768.196665	2485.054432
768.522438	2484.585605
768.848165	2484.661223
769.173846	2483.494195
769.499479	2480.245172
769.825066	2482.329689
770.150607	2483.874803
770.476101	2482.460759
770.801548	2482.377580
771.126949	2480.593011
771.452303	2481.371870
771.777611	2481.618886
772.102872	2479.685604
772.428087	2481.417240
772.753256	2480.683752
773.078378	2480.010758
773.403453	2482.785913
773.728482	2482.266674
774.053465	2479.625110
774.378401	2477.444811
774.703291	2481.417240
775.028135	2479.524287
775.352932	2479.292394
775.677683	2480.857672
776.002388	2479.549492
776.327046	2474.785602
776.651658	2478.357260
776.976224	2472.890128
777.300743	2481.021509
777.625216	2479.105871
777.949643	2477.225521
778.274024	2479.557054
778.598359	2479.622589
778.922647	2476.862558
779.246889	2477.817856
779.571086	2479.678042
779.895236	2480.774493
780.219339	2480.245172
780.543397	2479.488999
780.867409	2482.133084
781.191374	2482.392703
781.515294	2477.916159
781.839167	2477.442290
782.162995	2479.778865
782.486776	2479.277270
782.810511	2479.506643
783.134201	2481.366828
783.457844	2478.135449
783.781441	2480.696355
784.104993	2479.128556
784.428498	2477.989255
784.751958	2477.648977
785.075372	2479.335243
785.398739	2478.944554
785.722061	2479.488999
786.045337	2478.871457
786.368568	2478.543782
786.691752	2477.555716
787.014891	2479.753659
787.337983	2478.994966
787.661030	2479.811632
787.984031	2479.070583
788.306987	2482.884216
788.629897	2484.164669
788.952760	2482.538897
789.275579	2482.775831
789.598351	2482.032261
789.921078	2482.690131
790.243759	2482.017137
790.566395	2479.398258
790.888984	2478.473206
791.211529	2480.393886
791.534027	2478.760552
791.856480	2479.776344
792.178888	2477.238123
792.501249	2474.311734
792.823566	2477.545634
793.145836	2475.771148
793.468062	2475.819039
793.790241	2476.081179
794.112375	2480.726602
794.434464	2474.896507
794.756507	2476.106384
795.078505	2477.195274
795.400457	2475.224183
795.722364	2480.991263
796.044226	2479.889770
796.366042	2480.703917
796.687812	2478.422795
797.009538	2481.467652
797.331218	2481.192909
797.652852	2481.364308
797.974442	2481.268526
798.295986	2481.507981
798.617484	2482.589308
798.938938	2481.228197
799.260346	2479.214256
799.581709	2479.539410
799.903026	2479.635192
800.224299	2478.437918
800.545526	2478.231231
800.866708	2479.428505
801.187845	2480.605614
801.508936	2476.229893
801.829983	2475.675366
802.150984	2475.748462
802.471940	2478.916828
802.792851	2474.838534
803.113717	2476.207208
803.434538	2474.783082
803.755314	2478.989924
804.076045	2478.674852
804.396731	2478.689976
804.717372	2475.587146
805.037967	2476.812146
805.358518	2480.391365
805.679024	2477.959008
805.999485	2480.565285
806.319901	2476.290387
806.640272	2476.517238
806.960598	2477.807774
807.280879	2479.778865
807.601115	2480.330871
807.921306	2475.171250
808.241453	2475.443473
808.561554	2474.919193
808.881611	2475.430870
809.201623	2476.101343
809.521590	2478.901704
809.841513	2475.816518
810.161390	2477.923720
810.481223	2476.335757
810.801011	2476.776858
811.120755	2479.831797
811.440453	2476.517238
811.760107	2478.332054
812.079716	2476.726446
812.399281	2477.633854
812.718801	2477.407002
813.038276	2477.936323
813.357707	2478.077476
813.677093	2477.454893
813.996434	2476.522280
814.315731	2477.081848
814.634983	2478.470686
814.954191	2477.061683
815.273354	2478.695017
815.592473	2480.431694
815.911547	2476.781899
816.230577	2477.830459
816.549562	2478.095120
816.868502	2477.286014
817.187399	2478.879019
817.506250	2478.558906
817.825058	2480.945892
818.143821	2478.606797
818.462539	2481.402117
818.781213	2480.204843
819.099843	2481.891108
819.418429	2484.570482
819.736970	2488.114413
820.055466	2487.335555
820.373919	2491.318066
820.692327	2493.064826
821.010691	2503.525220
821.329011	2514.237672
821.647286	2543.229348
821.965517	2578.842579
822.283704	2603.050200
822.601847	2613.934051
822.919945	2610.064966
823.237999	2592.567121
823.556010	2577.357959
823.873976	2560.104610
824.191897	2543.110881
824.509775	2534.182997
824.827609	2524.453570
825.145398	2515.248423
825.463144	2514.703979
825.780845	2511.936385
826.098502	2518.401665
826.416116	2522.656399
826.733685	2530.472708
827.051210	2533.694005
827.368692	2532.466484
827.686129	2525.083715
828.003522	2516.188599
828.320872	2511.454955
828.638177	2502.580004
828.955439	2499.940960
829.272656	2493.760505
829.589830	2491.527274
829.906960	2488.810092
830.224046	2487.559886
830.541088	2484.948568
830.858086	2481.429843
831.175041	2482.937148
831.491952	2482.075111
831.808819	2481.306335
832.125642	2480.847590
832.442421	2483.811788
832.759157	2486.508805
833.075849	2492.525423
833.392497	2498.700836
833.709101	2503.452123
834.025662	2506.489419
834.342179	2503.210148
834.658653	2498.214365
834.975083	2494.587254
835.291469	2494.388129
835.607811	2488.121975
835.924110	2487.154073
836.240366	2482.269195
836.556578	2483.809267
836.872746	2480.454380
837.188871	2478.478247
837.504952	2478.301807
837.820990	2477.162506
838.136984	2475.287197
838.452935	2475.423308
838.768842	2478.601756
839.084706	2476.030767
839.400526	2480.512353
839.716303	2480.066211
840.032037	2484.323465
840.347727	2481.666777
840.663373	2483.524442
840.978977	2475.675366
841.294537	2484.026037
841.610054	2475.478761
841.925527	2480.903042
842.240957	2477.112095
842.556344	2478.755511
842.871687	2475.314923
843.186987	2473.709316
843.502244	2474.271404
843.817458	2471.178657
844.132629	2472.595221
844.447756	2471.957515
844.762840	2472.141517
845.077881	2473.805098
845.392879	2471.884418
845.707833	2471.962556
846.022745	2474.180664
846.337613	2471.942391
846.652438	2473.585808
846.967221	2471.178657
847.281960	2471.682772
847.596656	2473.714357
847.911309	2474.306692
848.225919	2471.677731
848.540485	2471.521455
848.855009	2468.426187
849.169490	2470.641774
849.483928	2472.322998
849.798323	2468.947946
850.112675	2470.946763
850.426984	2472.083544
850.741251	2472.159161
851.055474	2468.602627
851.369654	2471.990282
851.683792	2471.682772
851.997887	2472.297793
852.311938	2469.169757
852.625947	2471.191259
852.939914	2471.130766
853.253837	2472.527165
853.567718	2470.518265
853.881555	2470.304016
854.195350	2470.011629
854.509103	2473.495067
854.822812	2470.984572
855.136479	2472.292752
855.450103	2470.840899
855.763685	2469.789819
856.077224	2467.173460
856.390720	2470.598924
856.704173	2464.930146
857.017584	2470.969449
857.330953	2473.116980
857.644278	2471.007257
857.957561	2475.090592
858.270802	2472.285190
858.584000	2470.495580
858.897155	2471.309727
859.210268	2470.334263
859.523339	2470.732514
859.836367	2470.808132
860.149352	2473.628657
860.462295	2467.581793
860.775195	2471.067751
861.088054	2468.295117
861.400869	2473.026239
861.713642	2469.328553
862.026373	2473.479943
862.339062	2471.816363
862.651708	2471.501290
862.964312	2472.078502
863.276873	2472.302834
863.589392	2471.944912
863.901869	2469.605817
864.214303	2470.193111
864.526696	2471.675210
864.839045	2472.350725
865.151353	2471.768472
865.463619	2473.399285
865.775842	2472.191928
866.088023	2473.860550
866.400162	2473.936168
866.712258	2469.396609
867.024313	2470.999696
867.336325	2471.536578
867.648296	2471.221506
867.960224	2470.724953
868.272110	2470.261167
868.583954	2471.395426
868.895755	2470.757720
869.207515	2470.916517
869.519233	2473.285859
869.830909	2472.519603
870.142542	2472.754017
870.454134	2470.709829
870.765684	2474.987248
871.077191	2471.282000
871.388657	2472.058338
871.700081	2469.169757
872.011463	2469.527679
872.322803	2468.915178
872.634101	2472.643112
872.945357	2473.341312
873.256571	2475.909779
873.567744	2475.118318
873.878874	2476.423977
874.189963	2472.207052
874.501010	2474.102526
874.812015	2473.706795
875.122979	2474.596559
875.433900	2474.830972
875.744780	2473.837865
876.055618	2475.352732
876.366415	2472.277628
876.677169	2474.725108
876.987882	2474.941878
877.298554	2473.598410
877.609183	2475.158648
877.919771	2475.009933
878.230317	2475.425829
878.540822	2477.243165
878.851285	2477.192753
879.161707	2479.070583
879.472087	2480.111581
879.782425	2483.214411
880.092722	2491.340751
880.402977	2500.215703
880.713191	2513.375635
881.023363	2528.942718
881.333494	2538.082330
881.643583	2542.752959
881.953631	2544.764379
882.263637	2540.885211
882.573602	2538.079809
882.883526	2528.708304
883.193408	2524.294774
883.503248	2521.010462
883.813048	2513.642816
884.122806	2509.456138
884.432522	2505.251815
884.742197	2500.712256
885.051831	2498.393326
885.361424	2494.859477
885.670975	2488.399238
885.980485	2485.873620
886.289954	2484.194916
886.599382	2482.806078
886.908768	2478.790799
887.218113	2477.253247
887.527417	2475.468678
887.836680	2474.430201
888.145901	2476.000520
888.455082	2477.729636
888.764221	2476.706282
889.073319	2475.287197
889.382376	2475.216621
889.691392	2476.421457
890.000366	2477.217959
890.309300	2475.055304
890.618193	2476.948257
890.927044	2475.340129
891.235855	2473.124542
891.544625	2476.164358
891.853353	2475.088071
892.162041	2472.920375
892.470687	2475.561940
892.779293	2477.018833
893.087858	2477.699389
893.396381	2478.016982
893.704864	2482.491006
894.013306	2486.120637
894.321707	2490.685401
894.630068	2491.202120
894.938387	2494.002481
895.246665	2493.579024
895.554903	2491.915443
895.863100	2488.260606
896.171256	2489.818323
896.479371	2485.079638
896.787446	2484.830101
897.095480	2483.877323
897.403473	2482.795996
897.711425	2481.369349
898.019336	2479.914976
898.327207	2478.687455
898.635038	2480.177116
898.942827	2477.412043
899.250576	2474.805767
899.558284	2477.510346
899.865952	2475.685448
900.173579	2472.670838
900.481165	2473.116980
900.788711	2474.437763
901.096216	2471.229068
901.403681	2473.719398
901.711105	2475.249388
902.018489	2472.262505
902.325832	2473.580766
902.633135	2469.625981
902.940397	2470.130097
903.247619	2471.466002
903.554800	2480.734164
903.861941	2488.013590
904.169041	2494.201606
904.476101	2495.393839
904.783121	2499.484735
905.090100	2497.382574
905.397039	2493.412666
905.703938	2487.454022
906.010796	2486.443270
906.317614	2484.981336
906.624391	2482.080152
906.931129	2480.502271
907.237826	2479.378093
907.544483	2479.085706
907.851099	2477.157465
908.157675	2475.990438
908.464211	2476.018164
908.770707	2473.976497
909.077163	2472.960704
909.383578	2470.520786
909.689954	2472.635550
909.996289	2468.166567
910.302584	2473.248050
910.608839	2472.023050
910.915054	2471.108080
911.221229	2471.148410
911.527363	2472.068420
911.833458	2469.701598
912.139513	2473.089254
912.445527	2471.100519
912.751502	2472.161682
913.057436	2471.483646
913.363331	2472.978348
913.669186	2474.246199
913.975000	2475.420787
914.280775	2471.909624
914.586510	2477.412043
914.892205	2479.632672
915.197859	2483.960502
915.503475	2488.056440
915.809050	2493.687408
916.114585	2496.931391
916.420081	2497.090187
916.725536	2496.213027
917.030952	2496.389467
917.336328	2494.975423
917.641665	2490.831595
917.946961	2487.655668
918.252218	2485.878661
918.557435	2484.351192
918.862612	2486.866727
919.167750	2484.794813
919.472848	2481.139977
919.777906	2477.008751
920.082925	2481.818012
920.387904	2475.672845
920.692843	2475.020016
920.997743	2476.794502
921.302603	2476.456745
921.607423	2475.284676
921.912204	2471.927268
922.216946	2472.774182
922.521647	2471.516414
922.826310	2474.359625
923.130932	2471.808801
923.435516	2470.563636
923.740059	2470.964408
924.044564	2473.454738
924.349028	2472.875005
924.653454	2470.883749
924.957840	2467.909468
925.262186	2470.908955
925.566493	2470.057000
925.870761	2467.917030
926.174989	2468.486680
926.479178	2468.605148
926.783328	2471.584469
927.087438	2469.603296
927.391509	2467.097842
927.695541	2469.225209
927.999533	2469.482308
928.303486	2467.551546
928.607400	2465.242698
928.911275	2467.551546
929.215110	2469.084057
929.518906	2466.654221
929.822663	2466.084571
930.126381	2463.879066
930.430060	2467.733028
930.733699	2466.815538
931.037299	2464.365537
931.340861	2466.550877
931.644383	2469.439458
931.947866	2468.637915
932.251309	2468.244705
932.554714	2466.966773
932.858080	2462.318829
933.161407	2462.371761
933.464694	2466.240846
933.767943	2465.106587
934.071153	2469.172277
934.374323	2466.127420
934.677455	2468.169088
934.980548	2465.058696
935.283602	2466.923923
935.586617	2466.480301
935.889593	2465.588017
936.192530	2466.434931
936.495428	2467.387709
936.798287	2466.376958
937.101108	2467.554067
937.403890	2471.017340
937.706632	2465.575414
938.009336	2468.983234
938.312002	2469.326033
938.614628	2467.581793
938.917216	2469.131948
939.219765	2467.097843
939.522275	2468.484160
939.824747	2466.082050
940.127179	2470.225878
940.429573	2468.804273
940.731929	2469.333594
941.034246	2468.534571
941.336524	2470.188070
941.638763	2471.702937
941.940964	2465.900568
942.243126	2469.227730
942.545250	2469.026084
942.847335	2468.315281
943.149381	2469.666310
943.451389	2468.605148
943.753359	2466.787812
944.055290	2465.356124
944.357182	2469.041207
944.659036	2466.926443
944.960851	2467.354941
945.262628	2467.896865
945.564367	2468.156485
945.866067	2467.518779
946.167729	2466.056844
946.469352	2467.649849
946.770937	2469.578090
947.072484	2466.810497
947.373992	2472.786785
947.675462	2469.084057
947.976893	2463.639611
948.278286	2462.860753
948.579641	2465.494756
948.880958	2463.402677
949.182236	2466.102215
949.483476	2470.276290
949.784678	2467.856536
950.085841	2465.222533
950.386967	2466.712194
950.688054	2467.821248
950.989103	2466.487863
951.290114	2467.158336
951.591087	2467.188583
951.892021	2466.989458
952.192917	2465.441823
952.493776	2467.042390
952.794596	2467.130610
953.095378	2470.041876
953.396122	2466.845785
953.696828	2468.211937
953.997496	2466.742441
954.298126	2468.133800
954.598718	2470.603965
954.899272	2468.547174
955.199788	2467.871660
955.500266	2467.422997
955.800706	2464.993161
956.101108	2464.632718
956.401472	2466.013994
956.701798	2466.523151
957.002087	2465.305712
957.302337	2466.954170
957.602550	2466.439972
957.902724	2467.274283
958.202861	2467.254118
958.502960	2465.474591
958.803022	2467.501135
959.103045	2463.788325
959.403031	2464.746144
959.702979	2463.831175
960.002889	2465.976186
960.302762	2465.192286
960.602596	2464.748665
960.902393	2466.276134
961.202153	2464.531895
961.501875	2467.231433
961.801559	2464.085753
962.101205	2466.384519
962.400814	2465.582976
962.700385	2465.535085
962.999918	2463.740434
963.299414	2458.916050
963.598873	2462.535598
963.898293	2460.504013
964.197677	2465.489714
964.497022	2461.764302
964.796331	2465.479632
965.095601	2464.163891
965.394835	2465.058696
965.694030	2463.190948
965.993189	2465.126751
966.292309	2462.714559
966.591393	2465.542647
966.890439	2465.308233
967.189447	2463.279168
967.488419	2465.454426
967.787353	2464.206741
968.086249	2463.160701
968.385108	2465.872842
968.683930	2462.061730
968.982714	2466.707153
969.281462	2462.419652
969.580172	2464.355455
969.878844	2465.691361
970.177480	2464.383181
970.476078	2464.287399
970.774639	2466.918882
971.073162	2465.290589
971.371649	2464.236988
971.670098	2465.381330
971.968510	2464.113479
972.266885	2465.688840
972.565223	2466.424848
972.863524	2465.164560
973.161788	2466.946608
973.460014	2463.521144
973.758204	2463.102728
974.056356	2463.296813
974.354471	2466.069447
974.652550	2463.513582
974.950591	2466.591207
975.248595	2466.472739
975.546563	2466.145064
975.844493	2465.729169
976.142386	2463.556432
976.440243	2464.632718
976.738062	2464.965434
977.035845	2464.375619
977.333590	2468.297637
977.631299	2464.781432
977.928971	2463.949642
978.226606	2459.095011
978.524204	2461.885289
978.821765	2457.154167
979.119290	2463.516103
979.416777	2463.029631
979.714228	2462.021401
980.011642	2465.351083
980.309020	2466.132462
980.606360	2464.090794
980.903664	2467.077678
981.200931	2466.155147
981.498162	2464.541978
981.795356	2465.557770
982.092513	2465.386371
982.389633	2464.776391
982.686717	2467.884262
982.983764	2466.389560
983.280775	2467.874180
983.577749	2466.129941
983.874686	2469.893162
984.171587	2468.242184
984.468451	2467.511217
984.765279	2465.847636
985.062070	2467.163378
985.358824	2470.049438
985.655543	2466.102215
985.952224	2463.546350
986.248869	2466.704633
986.545478	2465.088943
986.842050	2466.563480
987.138586	2464.385702
987.435086	2466.719756
987.731549	2463.800928
988.027975	2464.385702
988.324366	2463.407718
988.620719	2467.743110
988.917037	2464.098356
989.213318	2464.834364
989.509563	2465.003243
989.805772	2464.909982
990.101944	2463.400156
990.398080	2463.833695
990.694180	2463.279168
990.990244	2463.395115
991.286271	2465.101546
991.582262	2462.013839
991.878217	2462.434775
992.174136	2464.254632
992.470019	2464.612554
992.765865	2461.371092
993.061676	2459.437809
993.357450	2464.224385
993.653188	2459.422686
993.948890	2465.373768
994.244556	2464.176494
994.540186	2463.677420
994.835780	2463.904272
995.131337	2463.919395
995.426859	2462.926288
995.722345	2465.986268
996.017795	2466.200517
996.313208	2467.226392
996.608586	2465.887966
996.903928	2464.791515
997.199234	2466.134982
997.494504	2465.320836
997.789738	2465.368727
998.084936	2464.902420
998.380099	2464.763788
998.675225	2464.972996
998.970316	2465.378809
999.265371	2463.208592
999.560390	2465.404015
999.855373	2465.411577
1000.150320	2466.049283
1000.445232	2464.788994
1000.740108	2461.996195
1001.034948	2463.374950
1001.329752	2465.358644
1001.624521	2464.776391
1001.919254	2466.974334
1002.213951	2466.697071
1002.508613	2465.782101
1002.803239	2464.156329
1003.097829	2464.521813
1003.392384	2463.780763
1003.686903	2461.945783
1003.981386	2464.163891
1004.275834	2465.151957
1004.570246	2466.346711
1004.864623	2462.263376
1005.158964	2463.004426
1005.453270	2464.103397
1005.747540	2459.097531
1006.041775	2465.000723
1006.335974	2463.558952
1006.630138	2464.632718
1006.924266	2463.122893
1007.218359	2464.083233
1007.512416	2457.670885
1007.806438	2457.940587
1008.100425	2461.355968
1008.394376	2457.073508
1008.688292	2462.742286
1008.982172	2461.597944
1009.276017	2462.986782
1009.569827	2464.925105
1009.863602	2463.763119
1010.157341	2460.957717
1010.451045	2463.551391
1010.744714	2461.257666
1011.038347	2464.347893
1011.331945	2460.970320
1011.625508	2465.305712
1011.919036	2463.712708
1012.212528	2463.773202
1012.505986	2461.907975
1012.799408	2461.595423
1013.092795	2462.497790
1013.386147	2464.592389
1013.679464	2464.998202
1013.972745	2463.919395
1014.265992	2463.879066
1014.559204	2462.069292
1014.852380	2463.216154
1015.145521	2461.204734
1015.438628	2462.674230
1015.731699	2461.963427
1016.024736	2463.783284
1016.317737	2463.014508
1016.610703	2463.221195
1016.903635	2463.493418
1017.196531	2460.410752
1017.489393	2462.510392
1017.782219	2462.775053
1018.075011	2463.339662
1018.367768	2461.484518
1018.660490	2465.467029
1018.953177	2465.467029
1019.245829	2465.467029
