Dividing Wavelength (nm)	Counts (n)	Blue Motor Position (mm): 0.000000	Red Motor Position (mm): 16.500000	
326.493990	2052.223484
326.888308	2052.223484
327.282561	2052.223484
327.676750	2026.468229
328.070874	2028.948477
328.464933	2035.111287
328.858929	2041.601773
329.252859	2050.176775
329.646726	2068.695454
330.040528	2083.745819
330.434265	2099.149064
330.827938	2120.523557
331.221547	2140.536938
331.615091	2163.796821
332.008571	2183.472445
332.401986	2203.856350
332.795338	2222.450646
333.188625	2242.116188
333.581847	2261.302819
333.975006	2277.127001
334.368100	2295.340690
334.761129	2313.017496
335.154095	2327.745227
335.546996	2343.498833
335.939833	2360.764784
336.332606	2372.397247
336.725315	2384.178423
337.117960	2393.247459
337.510540	2403.491084
337.903056	2413.316293
338.295508	2420.515060
338.687896	2425.858683
339.080220	2430.488983
339.472480	2438.985848
339.864676	2439.396702
340.256807	2445.428443
340.648875	2445.529266
341.040879	2445.274687
341.432818	2449.204267
341.824694	2446.310645
342.216506	2446.413988
342.608253	2447.959102
342.999937	2449.259720
343.391557	2447.210491
343.783113	2444.274018
344.174605	2442.686055
344.566033	2441.463575
344.957397	2441.554316
345.348697	2438.544747
345.739934	2437.975097
346.131106	2435.507452
346.522215	2432.170208
346.913260	2428.822882
347.304241	2429.377409
347.695159	2431.966041
348.086012	2427.552511
348.476802	2427.126534
348.867528	2422.342479
349.258191	2419.224525
349.648789	2420.847777
350.039324	2416.230080
350.429796	2421.306522
350.820203	2418.130595
351.210548	2417.606315
351.600828	2418.342323
351.991045	2417.893660
352.381198	2418.700245
352.771288	2414.697569
353.161314	2418.322158
353.551276	2417.129926
353.941175	2417.634041
354.331010	2419.562282
354.720782	2418.823753
355.110490	2418.576737
355.500135	2420.492375
355.889717	2421.659402
356.279235	2420.986408
356.668689	2421.049423
357.058080	2420.235276
357.447408	2420.328538
357.836672	2420.671336
358.225873	2422.927253
358.615010	2422.917170
359.004084	2422.677715
359.393095	2420.489855
359.782043	2422.531522
360.170927	2425.914136
360.559748	2423.580082
360.948505	2424.840370
361.337199	2426.796338
361.725830	2426.730803
362.114398	2425.795669
362.502903	2427.953283
362.891344	2428.137285
363.279722	2431.040990
363.668037	2430.269693
364.056289	2429.828592
364.444478	2432.540733
364.832603	2430.546957
365.220665	2432.893614
365.608665	2430.902358
365.996601	2432.792791
366.384474	2434.433686
366.772284	2431.046031
367.160031	2430.841864
367.547715	2435.023501
367.935336	2436.447627
368.322893	2430.796494
368.710388	2429.705084
369.097820	2434.443768
369.485189	2431.943356
369.872495	2434.902513
370.259738	2433.813624
370.646918	2435.893100
371.034035	2440.379727
371.421090	2439.973914
371.808081	2440.793102
372.195010	2440.505756
372.581875	2440.974583
372.968678	2444.362239
373.355418	2448.317024
373.742096	2446.683690
374.128710	2449.143773
374.515262	2449.720985
374.901751	2453.310287
375.288177	2457.408745
375.674540	2461.378653
376.060841	2464.725980
376.447079	2469.688996
376.833254	2473.941209
377.219367	2477.374235
377.605417	2485.326655
377.991404	2487.801861
378.377329	2498.466422
378.763191	2504.566218
379.148991	2511.928824
379.534727	2518.139525
379.920402	2532.045548
380.306013	2538.059645
380.691563	2549.941644
381.077049	2560.359189
381.462474	2573.478792
381.847835	2585.670822
382.233134	2599.629777
382.618371	2610.564040
383.003545	2628.203037
383.388657	2641.773823
383.773706	2663.475991
384.158693	2674.783299
384.543618	2691.807275
384.928480	2708.727908
385.313280	2727.980075
385.698017	2746.526480
386.082692	2770.103956
386.467305	2786.328910
386.851856	2810.619710
387.236344	2839.659276
387.620770	2855.354909
388.005133	2874.715460
388.389435	2909.007909
388.773674	2919.617018
389.157851	2955.459621
389.541965	2982.081955
389.926018	2994.737772
390.310008	3029.337731
390.693936	3054.878737
391.077802	3080.051739
391.461606	3115.493571
391.845348	3129.971765
392.229027	3160.541322
392.612645	3201.581355
392.996200	3230.935994
393.379694	3270.128444
393.763125	3310.765186
394.146494	3336.444823
394.529801	3373.025956
394.913047	3415.500198
395.296230	3421.552103
395.679351	3448.318109
396.062410	3496.839215
396.445408	3475.857933
396.828343	3518.647247
397.211217	3549.912483
397.594028	3523.695962
397.976778	3573.384095
398.359466	3603.681430
398.742092	3616.705251
399.124656	3629.608084
399.507158	3688.675284
399.889598	3693.595450
400.271977	3758.754884
400.654294	3745.589911
401.036549	3810.129283
401.418742	3809.201710
401.800874	3872.319477
402.182944	3903.246956
402.564952	3984.646467
402.946898	3974.488542
403.328783	3973.573573
403.710606	4020.121067
404.092367	4087.798557
404.474067	4152.932785
404.855705	4130.522336
405.237282	4099.637707
405.618797	4194.991132
406.000250	4268.155918
406.381642	4345.666179
406.762972	4340.171322
407.144240	4300.134478
407.525447	4355.148590
407.906593	4367.701063
408.287677	4441.390129
408.668700	4458.933344
409.049661	4483.592148
409.430560	4510.882435
409.811399	4480.728773
410.192176	4520.039691
410.572891	4581.745934
410.953545	4667.662319
411.334138	4554.395154
411.714669	4637.133092
412.095139	4544.559863
412.475547	4624.169765
412.855894	4611.239205
413.236180	4677.162374
413.616405	4585.546964
413.996568	4660.859282
414.376670	4638.950428
414.756711	4609.953711
415.136691	4638.300119
415.516609	4687.438766
415.896466	4689.987069
416.276262	4723.903952
416.655997	4785.932830
417.035670	4829.886650
417.415283	4908.425307
417.794834	4927.531280
418.174324	4857.229869
418.553753	4819.978262
418.933121	4906.323145
419.312428	4876.713928
419.691674	4777.355307
420.070859	4894.320158
420.449983	4767.230149
420.829045	4856.435887
421.208047	4763.797123
421.586988	4819.595135
421.965867	4819.264939
422.344686	4822.120753
422.723444	4870.707393
423.102141	4596.808902
423.480777	4773.256848
423.859352	4616.353456
424.237866	4771.381539
424.616319	4712.924319
424.994712	4742.964555
425.373044	4638.146364
425.751314	4741.704267
426.129524	4549.976583
426.507673	4616.174495
426.885762	4574.862239
427.263789	4542.603895
427.641756	4518.774361
428.019662	4493.901308
428.397508	4452.024443
428.775292	4380.818145
429.153016	4388.571440
429.530679	4305.314263
429.908282	4260.629476
430.285824	4182.925130
430.663305	4221.600863
431.040726	4125.806337
431.418086	4064.112696
431.795385	4048.596024
432.172624	4050.206673
432.549802	3955.896767
432.926920	3939.329015
433.303977	3868.392418
433.680974	3821.025737
434.057910	3818.411898
434.434786	3773.533026
434.811601	3711.305023
435.188355	3725.256417
435.565050	3655.131446
435.941683	3607.449692
436.318257	3619.659367
436.694770	3558.459759
437.071222	3550.363666
437.447614	3462.965182
437.823946	3410.156575
438.200218	3387.158831
438.576429	3322.793379
438.952580	3305.096408
439.328670	3266.100563
439.704700	3233.454050
440.080670	3185.623582
440.456580	3177.411543
440.832429	3134.884369
441.208218	3074.589648
441.583947	3054.535938
441.959616	3029.768750
442.335224	3001.598782
442.710773	2974.215234
443.086261	2962.287864
443.461689	2913.408837
443.837057	2897.826630
444.212365	2883.703838
444.587612	2856.806761
444.962800	2823.386432
445.337927	2812.056438
445.712995	2768.697474
446.088002	2782.457304
446.462949	2762.116248
446.837837	2742.047414
447.212664	2726.399673
447.587431	2736.429048
447.962139	2753.029568
448.336786	2761.496186
448.711374	2742.584297
449.085901	2697.284489
449.460369	2680.540296
449.834776	2660.728562
450.209124	2663.138233
450.583412	2651.954433
450.957640	2648.934782
451.331808	2630.968110
451.705917	2610.516149
452.079965	2603.377875
452.453954	2596.544591
452.827883	2589.136615
453.201752	2581.970615
453.575562	2579.263516
453.949311	2577.194122
454.323001	2573.251940
454.696632	2567.406722
455.070202	2569.836558
455.443713	2566.300188
455.817164	2566.312791
456.190556	2564.931515
456.563888	2559.444219
456.937160	2559.373643
457.310373	2552.371480
457.683526	2550.218908
458.056619	2547.721016
458.429653	2548.053732
458.802628	2545.961653
459.175542	2545.936447
459.548398	2546.133053
459.921194	2551.050698
460.293930	2548.756973
460.666607	2553.780483
461.039224	2559.751730
461.411782	2558.312480
461.784280	2553.586398
462.156719	2553.057077
462.529099	2551.804351
462.901419	2544.577857
463.273680	2537.870601
463.645882	2536.663245
464.018024	2537.505118
464.390106	2536.058307
464.762130	2543.614996
465.134094	2550.236552
465.505999	2562.199210
465.877845	2572.727660
466.249631	2579.596232
466.621358	2573.047773
466.993026	2569.085426
467.364634	2569.939902
467.736184	2561.017059
468.107674	2552.802499
468.479105	2553.120092
468.850477	2547.471479
469.221790	2548.530121
469.593043	2544.862682
469.964238	2543.269677
470.335373	2542.465613
470.706449	2544.557692
471.077467	2544.058618
471.448425	2554.350133
471.819324	2562.189128
472.190164	2562.075702
472.560945	2554.178734
472.931667	2545.031560
473.302330	2544.958464
473.672934	2537.043852
474.043479	2541.714481
474.413965	2539.209028
474.784393	2538.735159
475.154761	2540.018133
475.525070	2542.901673
475.895321	2539.942516
476.265513	2540.877650
476.635645	2541.550644
477.005719	2541.926210
477.375734	2539.856816
477.745691	2546.720347
478.115588	2547.277394
478.485427	2551.151521
478.855207	2558.604867
479.224928	2561.553942
479.594591	2568.772874
479.964194	2563.066288
480.333739	2566.330435
480.703226	2566.728687
481.072653	2569.589541
481.442022	2569.307237
481.811333	2565.544015
482.180584	2565.090312
482.549777	2564.644169
482.918912	2561.795918
483.287988	2566.474108
483.657005	2564.558470
484.025964	2564.946639
484.394864	2563.449416
484.763706	2561.687533
485.132489	2562.138716
485.501213	2562.733572
485.869879	2560.722152
486.238487	2562.400856
486.607036	2564.286247
486.975527	2562.032852
487.343959	2563.537636
487.712333	2566.111145
488.080648	2563.058727
488.448905	2565.319684
488.817104	2566.191804
489.185244	2566.698440
489.553326	2570.012998
489.921350	2578.368711
490.289315	2584.108064
490.657222	2588.365319
491.025070	2586.260637
491.392861	2587.087386
491.760593	2584.564289
492.128267	2583.167889
492.495883	2580.027250
492.863440	2573.405695
493.230939	2573.216652
493.598380	2571.850499
493.965763	2571.187587
494.333088	2568.840930
494.700354	2568.069633
495.067563	2568.089798
495.434713	2567.593244
495.801805	2567.182390
496.168839	2566.358162
496.535815	2566.378326
496.902733	2569.203893
497.269593	2566.310271
497.636395	2567.615930
498.003139	2568.016701
498.369825	2567.341187
498.736453	2565.349931
499.103023	2569.176167
499.469535	2570.529717
499.835989	2569.037535
500.202385	2568.273800
500.568723	2562.698284
500.935003	2567.104253
501.301226	2561.501010
501.667390	2569.939902
502.033497	2575.011302
502.399546	2572.304203
502.765537	2565.675085
503.131470	2573.511559
503.497345	2573.239337
503.863163	2569.350087
504.228923	2569.609706
504.594625	2573.529203
504.960269	2568.407391
505.325856	2571.414439
505.691385	2569.549212
506.056856	2569.634912
506.422270	2573.370407
506.787625	2573.249419
507.152924	2571.583318
507.518164	2572.634398
507.883347	2573.370407
508.248472	2571.971487
508.613540	2575.255798
508.978550	2575.709502
509.343503	2574.071127
509.708398	2575.810325
510.073236	2577.635223
510.438016	2573.665314
510.802738	2575.076837
511.167403	2576.490881
511.532010	2575.235634
511.896561	2578.645974
512.261053	2578.514904
512.625488	2578.840059
512.989866	2577.012640
513.354186	2577.763772
513.718449	2575.694379
514.082655	2578.582960
514.446803	2581.247210
514.810894	2581.085893
515.174927	2578.376272
515.538904	2576.649677
515.902822	2579.291242
516.266684	2578.837538
516.630488	2574.925603
516.994235	2577.007599
517.357925	2576.001889
517.721558	2578.706468
518.085133	2578.827456
518.448651	2575.497774
518.812112	2573.748493
519.175516	2574.265212
519.538863	2572.604151
519.902152	2578.726633
520.265385	2579.727302
520.628560	2577.874678
520.991678	2575.938875
521.354739	2577.899883
521.717743	2580.123032
522.080690	2578.078844
522.443580	2577.930130
522.806413	2577.267219
523.169189	2575.585994
523.531908	2575.928792
523.894569	2573.614903
524.257174	2576.193453
524.619722	2574.567681
524.982213	2573.065417
525.344647	2575.533062
525.707025	2571.880746
526.069345	2573.377968
526.431608	2571.971487
526.793815	2574.116498
527.155964	2572.788153
527.518057	2573.756055
527.880093	2573.955181
528.242072	2573.561971
528.603995	2573.773699
528.965860	2570.509552
529.327669	2572.720098
529.689421	2570.030642
530.051117	2569.700447
530.412755	2573.262022
530.774337	2570.940571
531.135862	2570.950653
531.497331	2569.118193
531.858743	2571.989131
532.220098	2568.661969
532.581396	2569.647515
532.942638	2571.366548
533.303824	2569.904613
533.664953	2566.804304
534.026025	2567.590724
534.387040	2567.351269
534.747999	2569.055179
535.108902	2569.692885
535.469748	2566.441341
535.830537	2567.016032
536.191270	2566.726166
536.551947	2564.346741
536.912567	2562.562173
537.273131	2566.481670
537.633638	2562.168963
537.994089	2566.126269
538.354483	2564.765157
538.714821	2568.097360
539.075103	2564.545867
539.435328	2567.031156
539.795497	2563.497307
540.155609	2566.794222
540.515665	2565.493604
540.875665	2567.089129
541.235609	2565.279355
541.595496	2565.397822
541.955328	2568.281362
542.315102	2565.874211
542.674821	2563.434293
543.034483	2566.315312
543.394090	2561.175856
543.753640	2564.780281
544.113134	2566.579972
544.472571	2564.513099
544.831953	2565.647359
545.191278	2565.536454
545.550548	2561.763150
545.909761	2564.727348
546.268918	2565.435631
546.628019	2563.330949
546.987064	2564.644169
547.346053	2563.807338
547.704986	2565.042421
548.063863	2564.616443
548.422684	2563.663665
548.781449	2561.120403
549.140158	2560.480176
549.498811	2562.660475
549.857408	2561.891699
550.215949	2561.576627
550.574434	2561.700136
550.932864	2562.836916
551.291237	2564.440003
551.649555	2564.772719
552.007817	2563.827502
552.366022	2564.319015
552.724173	2563.789694
553.082267	2563.406566
553.440305	2564.281206
553.798288	2563.318346
554.156215	2562.579817
554.514086	2565.211299
554.871902	2560.454971
555.229661	2563.230126
555.587365	2558.751061
555.945014	2563.353634
556.302606	2562.274827
556.660143	2562.867163
557.017625	2562.204251
557.375050	2562.912533
557.732421	2559.832388
558.089735	2563.232646
558.446994	2562.940259
558.804197	2563.640980
559.161345	2563.462019
559.518437	2562.859601
559.875474	2562.809189
560.232455	2565.337328
560.589381	2562.685681
560.946251	2561.750547
561.303065	2563.767009
561.659825	2564.129972
562.016528	2560.220557
562.373177	2560.182748
562.729770	2563.194838
563.086307	2561.354817
563.442789	2561.856411
563.799216	2563.270455
564.155587	2562.869683
564.511904	2562.990671
564.868164	2561.490928
565.224370	2559.124106
565.580520	2560.598643
565.936615	2561.773232
566.292654	2559.154353
566.648638	2561.891699
567.004567	2560.333983
567.360441	2561.102759
567.716260	2562.589899
568.072023	2561.274158
568.427732	2558.998077
568.783385	2562.690722
569.138982	2562.330280
569.494525	2561.548901
569.850013	2561.019580
570.205445	2560.472615
570.560823	2560.520506
570.916145	2561.450598
571.271412	2563.225085
571.626625	2559.822306
571.981782	2560.399518
572.336884	2557.165618
572.691931	2552.981460
573.046923	2556.353992
573.401860	2554.052705
573.756743	2557.387428
574.111570	2557.331976
574.466342	2559.824826
574.821059	2557.430278
575.175722	2557.722665
575.530330	2558.342727
575.884882	2558.483879
576.239380	2558.136040
576.593823	2558.526729
576.948211	2555.045813
577.302544	2559.524878
577.656823	2557.561348
578.011047	2557.576472
578.365216	2556.429609
578.719330	2557.122768
579.073389	2556.409445
579.427394	2555.207129
579.781344	2557.193344
580.135239	2555.476831
580.489080	2554.130843
580.842866	2553.215874
581.196597	2558.922460
581.550273	2553.520863
581.903895	2556.545556
582.257463	2554.317366
582.610975	2552.802499
582.964434	2554.042623
583.317837	2549.956768
583.671186	2553.621687
584.024481	2552.053888
584.377721	2551.960626
584.730906	2552.653785
585.084037	2554.057746
585.437113	2552.449618
585.790135	2549.205636
586.143103	2549.881150
586.496016	2552.578168
586.848874	2552.631100
587.201679	2553.558672
587.554428	2549.785368
587.907124	2551.448949
588.259765	2553.871224
588.612352	2551.065822
588.964884	2547.327806
589.317362	2552.724361
589.669786	2546.818649
590.022155	2550.700338
590.374470	2546.112888
590.726731	2547.151366
591.078937	2547.894936
591.431090	2548.210008
591.783188	2548.809905
592.135232	2551.244782
592.487222	2549.704710
592.839157	2546.853937
593.191038	2548.141952
593.542866	2547.678166
593.894639	2544.499719
594.246358	2546.455686
594.598022	2547.030378
594.949633	2547.756304
595.301190	2545.208001
595.652692	2546.133052
596.004141	2545.848227
596.355535	2545.439894
596.706876	2547.010213
597.058162	2541.767413
597.409395	2548.109185
597.760573	2546.730429
598.111698	2543.758669
598.462768	2543.625078
598.813785	2543.536858
599.164748	2542.445448
599.515657	2541.028884
599.866511	2544.913093
600.217312	2544.363608
600.568060	2537.984027
600.918753	2542.831097
601.269392	2544.179605
601.619978	2543.665408
601.970510	2542.458051
602.320988	2542.004348
602.671412	2545.747404
603.021783	2542.316899
603.372100	2544.648433
603.722363	2541.651467
604.072572	2541.860675
604.422728	2543.367980
604.772830	2546.279246
605.122878	2542.826056
605.472872	2544.610624
605.822813	2540.776827
606.172701	2540.063503
606.522534	2543.662887
606.872314	2543.627599
607.222041	2543.746066
607.571714	2541.028884
607.921333	2537.265663
608.270899	2540.035777
608.620411	2539.461085
608.969870	2546.122970
609.319276	2540.318082
609.668627	2542.742877
610.017926	2540.693648
610.367171	2542.304296
610.716362	2541.906045
611.065500	2542.205994
611.414585	2543.985521
611.763616	2543.345294
612.112594	2543.196580
612.461518	2542.737835
612.810389	2544.580377
613.159207	2540.819676
613.507971	2543.562064
613.856682	2543.705737
614.205340	2541.669111
614.553945	2544.782023
614.902496	2546.390151
615.250994	2547.126160
615.599439	2545.949050
615.947830	2548.020965
616.296169	2545.167672
616.644454	2544.114070
616.992686	2543.685572
617.340864	2545.707075
617.688990	2547.158927
618.037063	2545.192877
618.385082	2544.204811
618.733048	2546.755635
619.080961	2545.271015
619.428821	2543.557023
619.776628	2544.832435
620.124382	2547.509287
620.472083	2544.411498
620.819731	2544.993752
621.167326	2545.941489
621.514868	2543.274718
621.862357	2543.370500
622.209793	2544.567774
622.557176	2541.369162
622.904506	2543.693134
623.251783	2540.517207
623.599007	2541.036446
623.946179	2541.258257
624.293297	2541.084337
624.640363	2539.133410
624.987376	2537.580735
625.334336	2533.744417
625.681243	2536.350693
626.028097	2533.986392
626.374899	2540.595345
626.721647	2537.371527
627.068343	2538.843544
627.414987	2536.297761
627.761577	2539.017464
628.108115	2535.682741
628.454600	2534.792977
628.801032	2536.874973
629.147412	2534.341794
629.493739	2536.345652
629.840014	2536.454037
630.186236	2535.034952
630.532405	2535.740714
630.878521	2534.971938
631.224585	2537.011085
631.570597	2534.072092
631.916556	2533.716691
632.262462	2535.990251
632.608316	2536.554860
632.954117	2533.305837
633.299866	2533.315919
633.645562	2531.576721
633.991206	2533.557894
634.336797	2533.338604
634.682336	2533.187369
635.027823	2531.614529
635.373257	2528.907430
635.718639	2531.259128
636.063968	2529.814837
636.409245	2530.225692
636.754470	2528.667975
637.099642	2528.436082
637.444762	2529.880373
637.789829	2527.566483
638.134845	2528.839374
638.479808	2527.407687
638.824719	2527.705115
639.169577	2526.137316
639.514383	2528.390712
639.859137	2526.039013
640.203839	2525.151770
640.548489	2526.633869
640.893086	2527.233767
641.237632	2524.874507
641.582125	2528.950280
641.926566	2527.440454
642.270955	2522.847963
642.615292	2523.725124
642.959576	2522.951307
643.303809	2520.619773
643.647990	2524.871986
643.992118	2527.989940
644.336195	2523.344517
644.680219	2525.650844
645.024192	2521.658251
645.368112	2528.846936
645.711981	2525.098838
646.055797	2527.279137
646.399562	2525.797038
646.743274	2526.545649
647.086935	2529.545136
647.430544	2527.934487
647.774101	2530.313912
648.117606	2530.076977
648.461059	2528.995650
648.804460	2529.701412
649.147810	2526.916174
649.491108	2527.498427
649.834354	2526.903571
650.177548	2526.467511
650.520690	2525.151770
650.863781	2524.630011
651.206820	2523.508354
651.549807	2523.432737
651.892742	2521.824609
652.235626	2526.013808
652.578458	2521.302849
652.921238	2522.091790
653.263967	2523.936852
653.606644	2521.867458
653.949269	2524.766122
654.291843	2520.405524
654.634365	2523.382325
654.976836	2518.696573
655.319255	2522.081708
655.661622	2521.189423
656.003938	2522.495082
656.346203	2520.942407
656.688416	2521.585154
657.030577	2520.092972
657.372687	2522.326203
657.714746	2521.297808
658.056753	2521.118847
658.398708	2519.498116
658.740612	2520.818898
659.082465	2521.701100
659.424266	2516.879237
659.766016	2518.212622
660.107715	2517.736233
660.449362	2517.300173
660.790958	2522.028775
661.132503	2520.793693
661.473996	2519.540966
661.815438	2518.542818
662.156829	2520.987777
662.498168	2518.358815
662.839456	2518.366377
663.180693	2520.380318
663.521879	2521.607839
663.863013	2518.343692
664.204097	2518.648682
664.545129	2519.898888
664.886110	2519.651871
665.227040	2520.118178
665.567918	2518.865451
665.908746	2518.434433
666.249522	2522.563138
666.590248	2519.505678
666.930922	2519.919052
667.271545	2520.521470
667.612118	2521.391069
667.952639	2520.997859
668.293109	2520.370236
668.633528	2521.663292
668.973896	2520.276974
669.314213	2521.315452
669.654480	2522.979033
669.994695	2520.029958
670.334859	2519.195647
670.674973	2520.997859
671.015035	2517.504340
671.355047	2522.656399
671.695008	2521.527181
672.034918	2518.283198
672.374777	2520.181192
672.714585	2517.474093
673.054342	2521.665812
673.394049	2523.815864
673.733705	2517.088445
674.073310	2521.101203
674.412864	2520.186234
674.752368	2517.607683
675.091820	2520.219001
675.431223	2519.810668
675.770574	2516.488547
676.109875	2517.315297
676.449125	2518.121881
676.788324	2513.884791
677.127473	2516.423012
677.466571	2511.654081
677.805619	2517.726151
678.144616	2516.599453
678.483562	2516.332272
678.822458	2516.354957
679.161303	2515.651716
679.500098	2516.995183
679.838842	2514.013341
680.177535	2516.760770
680.516179	2515.016530
680.854771	2516.518794
681.193314	2516.450739
681.531805	2519.926614
681.870247	2518.827643
682.208638	2520.728158
682.546978	2522.568179
682.885268	2522.127078
683.223508	2522.754702
683.561697	2519.412417
683.899836	2520.062725
684.237925	2520.574403
684.575963	2521.776718
684.913951	2517.179185
685.251889	2519.921573
685.589776	2518.353774
685.927614	2522.109434
686.265401	2520.884433
686.603137	2518.923425
686.940824	2518.683970
687.278460	2518.673888
687.616046	2519.977026
687.953582	2521.491893
688.291068	2520.864269
688.628504	2521.930473
688.965889	2525.083715
689.303224	2521.267561
689.640510	2522.056502
689.977745	2522.986595
690.314930	2519.878723
690.652065	2519.614063
690.989150	2516.730523
691.326185	2516.531397
691.663170	2515.497961
692.000105	2513.892353
692.336990	2515.006448
692.673825	2517.983249
693.010610	2510.550068
693.347345	2509.027640
693.684030	2507.222907
694.020665	2508.518483
694.357251	2506.378513
694.693786	2509.393123
695.030272	2509.204080
695.366707	2506.864985
695.703093	2508.011847
696.039429	2505.526558
696.375716	2509.297341
696.711952	2509.309944
697.048139	2508.105108
697.384276	2505.539161
697.720363	2504.992196
698.056400	2507.860612
698.392388	2507.918586
698.728326	2506.486898
699.064214	2506.257526
699.400053	2505.811383
699.735842	2507.779954
700.071581	2506.270128
700.407270	2506.819614
700.742910	2505.720643
701.078501	2504.261229
701.414042	2504.258708
701.749533	2503.641167
702.084974	2502.093533
702.420366	2500.926505
702.755709	2504.084788
703.091002	2500.815600
703.426246	2503.328615
703.761440	2503.449603
704.096584	2500.984479
704.431679	2503.525220
704.766725	2503.520179
705.101721	2501.584376
705.436668	2502.441372
705.771565	2497.372492
706.106413	2500.233347
706.441212	2498.758809
706.775961	2504.132679
707.110661	2504.084788
707.445311	2502.138903
707.779913	2500.876094
708.114465	2506.418843
708.448967	2505.733246
708.783421	2504.692247
709.117825	2504.462875
709.452180	2506.900273
709.786485	2504.954387
710.120742	2503.951198
710.454949	2503.605879
710.789107	2508.052176
711.123216	2503.976403
711.457275	2511.500326
711.791286	2509.632578
712.125247	2509.798936
712.459159	2509.788854
712.793023	2510.817249
713.126837	2510.078720
713.460602	2511.578463
713.794318	2509.947650
714.127985	2509.279697
714.461602	2508.921775
714.795171	2508.173164
715.128691	2506.164264
715.462162	2505.851713
715.795584	2503.063955
716.128957	2507.928668
716.462281	2504.838441
716.795556	2504.427587
717.128782	2501.929695
717.461960	2502.874911
717.795088	2500.031701
718.128167	2501.957421
718.461198	2500.578666
718.794180	2503.270642
719.127113	2499.698984
719.459997	2498.088336
719.792833	2498.867194
720.125619	2500.669407
720.458357	2497.803511
720.791046	2500.810559
721.123686	2498.852071
721.456278	2500.611433
721.788821	2497.947183
722.121315	2497.785867
722.453761	2499.318377
722.786158	2495.300578
723.118506	2497.748058
723.450805	2497.075064
723.783056	2495.804693
724.115259	2499.724190
724.447412	2498.824344
724.779518	2498.589931
725.111574	2495.638335
725.443582	2497.788387
725.775542	2496.346617
726.107453	2499.038593
726.439315	2496.686895
726.771129	2502.504387
727.102895	2498.393326
727.434612	2497.294354
727.766281	2496.099601
728.097901	2500.440034
728.429473	2503.394150
728.760996	2505.357680
729.092471	2501.652432
729.423897	2503.247957
729.755276	2501.165960
730.086606	2502.847185
730.417887	2501.801146
730.749120	2505.740807
731.080305	2503.774757
731.411442	2504.414984
731.742530	2505.362721
732.073570	2503.873060
732.404562	2505.884480
732.735506	2505.758451
733.066401	2505.781137
733.397249	2502.234685
733.728048	2504.125117
734.058798	2501.886845
734.389501	2501.591938
734.720156	2499.467091
735.050762	2497.959786
735.381320	2499.625888
735.711831	2497.957266
736.042293	2499.668737
736.372707	2497.984992
736.703073	2497.226298
737.033391	2496.336535
737.363661	2495.527430
737.693883	2499.323418
738.024056	2499.809890
738.354182	2497.372492
738.684260	2498.685713
739.014290	2499.409118
739.344272	2501.579335
739.674207	2498.327791
740.004093	2498.413490
740.333931	2500.636639
740.663722	2501.138234
740.993464	2503.956239
741.323159	2500.939108
741.652806	2499.169663
741.982405	2502.786691
742.311956	2497.453150
742.641460	2501.929695
742.970915	2497.984992
743.300323	2495.971051
743.629683	2496.039107
743.958996	2496.399549
744.288260	2492.578355
744.617477	2498.126144
744.946647	2494.357882
745.275768	2498.093377
745.604842	2496.974241
745.933869	2497.304436
746.262847	2493.921822
746.591778	2493.846205
746.920662	2496.011380
747.249498	2493.815958
747.578286	2495.068685
747.907027	2494.662872
748.235720	2494.693119
748.564365	2494.443582
748.892963	2496.180259
749.221514	2497.730414
749.550017	2495.534991
749.878473	2493.140443
750.206881	2495.782008
750.535242	2496.772595
750.863555	2496.210506
751.191821	2495.993736
751.520039	2493.334528
751.848210	2492.563231
752.176334	2497.614467
752.504411	2494.887203
752.832440	2494.062974
753.160421	2492.227994
753.488356	2492.636328
753.816243	2495.217399
754.144082	2492.293529
754.471875	2493.752943
754.799620	2495.776967
755.127318	2492.636328
755.454969	2492.890906
755.782572	2496.757471
756.110129	2495.663541
756.437638	2491.885196
756.765100	2491.996101
757.092515	2495.235043
757.419882	2492.757316
757.747203	2495.182111
758.074477	2493.768067
758.401703	2492.875783
758.728882	2492.154898
759.056014	2496.205465
759.383099	2491.940649
759.710138	2495.461895
760.037129	2491.174393
760.364073	2492.858139
760.690970	2491.043323
761.017820	2492.850577
761.344623	2495.547594
761.671379	2496.674292
761.998088	2501.244098
762.324751	2500.871053
762.651366	2507.157372
762.977935	2512.891684
763.304456	2519.687159
763.630931	2524.783766
763.957359	2522.011131
764.283740	2518.126922
764.610074	2513.857065
764.936362	2510.388751
765.262602	2506.375993
765.588796	2504.150323
765.914943	2500.041783
766.241044	2498.574807
766.567097	2498.993223
766.893104	2491.766729
767.219064	2490.793786
767.544978	2492.079280
767.870845	2492.752274
768.196665	2492.298571
768.522438	2491.587768
768.848165	2490.461070
769.173846	2489.664568
769.499479	2489.629280
769.825066	2490.483755
770.150607	2488.845380
770.476101	2486.390338
770.801548	2487.549804
771.126949	2486.443270
771.452303	2488.613487
771.777611	2485.125009
772.102872	2489.878817
772.428087	2486.765904
772.753256	2487.575009
773.078378	2487.096100
773.403453	2486.712972
773.728482	2482.985039
774.053465	2484.842704
774.378401	2484.414206
774.703291	2481.757518
775.028135	2483.153918
775.352932	2487.569968
775.677683	2485.387149
776.002388	2485.876141
776.327046	2480.492188
776.651658	2481.601242
776.976224	2479.211735
777.300743	2483.224494
777.625216	2483.441263
777.949643	2483.766418
778.274024	2481.812971
778.598359	2482.148207
778.922647	2484.457056
779.246889	2482.584267
779.571086	2482.533856
779.895236	2482.838845
780.219339	2482.808598
780.543397	2481.676859
780.867409	2481.908753
781.191374	2481.810450
781.515294	2485.591315
781.839167	2484.852786
782.162995	2484.129381
782.486776	2483.927735
782.810511	2483.852117
783.134201	2481.432363
783.457844	2483.474031
783.781441	2483.821870
784.104993	2480.378762
784.428498	2482.208701
784.751958	2482.667446
785.075372	2485.659371
785.398739	2479.042857
785.722061	2484.928404
786.045337	2480.650985
786.368568	2482.193578
786.691752	2483.532004
787.014891	2484.477220
787.337983	2483.582416
787.661030	2487.658188
787.984031	2486.839001
788.306987	2489.926708
788.629897	2488.552993
788.952760	2489.841008
789.275579	2488.041316
789.598351	2486.352530
789.921078	2488.326141
790.243759	2484.401603
790.566395	2486.619711
790.888984	2483.277426
791.211529	2482.480923
791.534027	2485.414875
791.856480	2482.813640
792.178888	2482.599391
792.501249	2479.057980
792.823566	2479.408340
793.145836	2477.502784
793.468062	2482.193578
793.790241	2481.921355
794.112375	2486.407982
794.434464	2483.002683
794.756507	2483.153918
795.078505	2482.639720
795.400457	2484.404124
795.722364	2486.803713
796.044226	2487.600215
796.366042	2485.450163
796.687812	2486.914618
797.009538	2486.113075
797.331218	2488.091728
797.652852	2486.231542
797.974442	2486.586943
798.295986	2484.890595
798.617484	2486.438229
798.938938	2482.732981
799.260346	2485.079638
799.581709	2483.751294
799.903026	2486.193733
800.224299	2483.680718
800.545526	2482.143166
800.866708	2485.956799
801.187845	2482.251551
801.508936	2481.596201
801.829983	2482.962354
802.150984	2482.599391
802.471940	2484.870430
802.792851	2481.649133
803.113717	2484.557879
803.434538	2480.058649
803.755314	2481.266005
804.076045	2482.269195
804.396731	2481.810450
804.717372	2480.431694
805.037967	2482.067549
805.358518	2482.974957
805.679024	2481.351705
805.999485	2482.276757
806.319901	2482.977477
806.640272	2480.933289
806.960598	2480.235089
807.280879	2482.669967
807.601115	2482.727940
807.921306	2483.232055
808.241453	2480.431694
808.561554	2478.601756
808.881611	2480.640902
809.201623	2478.901704
809.521590	2481.318937
809.841513	2480.865234
810.161390	2480.734164
810.481223	2482.659884
810.801011	2481.825573
811.120755	2483.221973
811.440453	2481.959164
811.760107	2479.710809
812.079716	2481.139977
812.399281	2480.504791
812.718801	2478.319451
813.038276	2480.698876
813.357707	2481.782724
813.677093	2480.388845
813.996434	2480.988742
814.315731	2481.785244
814.634983	2481.528145
814.954191	2478.934472
815.273354	2481.694503
815.592473	2479.972949
815.911547	2482.652323
816.230577	2481.873464
816.549562	2483.121150
816.868502	2483.189206
817.187399	2482.211222
817.506250	2483.564772
817.825058	2484.333547
818.143821	2483.027889
818.462539	2485.737509
818.781213	2483.693321
819.099843	2489.432675
819.418429	2491.018118
819.736970	2493.652120
820.055466	2495.983654
820.373919	2500.263594
820.692327	2507.522855
821.010691	2518.371418
821.329011	2537.537885
821.647286	2576.659760
821.965517	2625.863942
822.283704	2658.946514
822.601847	2678.004596
822.919945	2665.280724
823.237999	2645.877322
823.556010	2626.060547
823.873976	2603.284614
824.191897	2580.521283
824.509775	2561.732903
824.827609	2548.252858
825.145398	2536.895138
825.463144	2535.402957
825.780845	2536.380940
826.098502	2537.376568
826.416116	2545.679349
826.733685	2555.867521
827.051210	2562.632749
827.368692	2560.885989
827.686129	2548.966181
828.003522	2539.531662
828.320872	2530.155115
828.638177	2519.687159
828.955439	2513.176509
829.272656	2505.985303
829.589830	2503.132010
829.906960	2495.572800
830.224046	2492.545587
830.541088	2491.383601
830.858086	2488.394197
831.175041	2485.881182
831.491952	2489.233549
831.808819	2486.985194
832.125642	2486.251707
832.442421	2488.318580
832.759157	2493.037100
833.075849	2505.108142
833.392497	2513.501664
833.709101	2520.105575
834.025662	2523.178158
834.342179	2516.193640
834.658653	2512.410254
834.975083	2505.884480
835.291469	2503.759634
835.607811	2499.348624
835.924110	2494.125989
836.240366	2491.859990
836.556578	2488.111892
836.872746	2483.443784
837.188871	2484.930924
837.504952	2483.940337
837.820990	2481.397075
838.136984	2480.308186
838.452935	2481.419761
838.768842	2481.666777
839.084706	2479.932620
839.400526	2487.201964
839.716303	2487.751450
840.032037	2491.355875
840.347727	2489.258755
840.663373	2490.690443
840.978977	2481.092086
841.294537	2485.182982
841.610054	2482.750625
841.925527	2483.940338
842.240957	2481.923876
842.556344	2480.771972
842.871687	2480.199801
843.186987	2478.576550
843.502244	2476.093782
843.817458	2475.256950
844.132629	2475.874491
844.447756	2477.734677
844.762840	2473.230406
845.077881	2474.611682
845.392879	2476.507156
845.707833	2475.304841
846.022745	2476.600418
846.337613	2473.855509
846.652438	2475.120839
846.967221	2470.311578
847.281960	2475.211580
847.596656	2471.637402
847.911309	2472.968266
848.225919	2472.416260
848.540485	2473.311065
848.855009	2471.234109
849.169490	2473.001034
849.483928	2473.248050
849.798323	2471.763430
850.112675	2474.278966
850.426984	2475.221662
850.741251	2473.243009
851.055474	2471.586990
851.369654	2475.229224
851.683792	2473.658904
851.997887	2472.023050
852.311938	2472.476754
852.625947	2471.720581
852.939914	2472.920375
853.253837	2471.637402
853.567718	2474.457927
853.881555	2472.864922
854.195350	2475.866930
854.509103	2475.877012
854.822812	2472.786785
855.136479	2475.657722
855.450103	2472.675879
855.763685	2470.346866
856.077224	2471.667648
856.390720	2469.996506
856.704173	2466.429890
857.017584	2474.246199
857.330953	2473.479943
857.644278	2473.021198
857.957561	2476.149234
858.270802	2473.721919
858.584000	2472.012967
858.897155	2471.760910
859.210268	2474.490695
859.523339	2475.587146
859.836367	2469.908286
860.149352	2477.361632
860.462295	2475.418267
860.775195	2472.136476
861.088054	2472.882567
861.400869	2474.039511
861.713642	2474.921713
862.026373	2471.453399
862.339062	2473.255612
862.651708	2476.053452
862.964312	2471.907103
863.276873	2474.190746
863.589392	2474.450365
863.901869	2474.074799
864.214303	2472.519603
864.526696	2475.551858
864.839045	2474.079841
865.151353	2473.366517
865.463619	2473.613534
865.775842	2472.557412
866.088023	2472.627988
866.400162	2474.268884
866.712258	2474.427680
867.024313	2474.387351
867.336325	2473.061528
867.648296	2474.112608
867.960224	2476.161837
868.272110	2475.904738
868.583954	2474.004223
868.895755	2474.110087
869.207515	2475.819039
869.519233	2475.440952
869.830909	2474.818370
870.142542	2476.292907
870.454134	2472.640591
870.765684	2477.112095
871.077191	2475.118318
871.388657	2475.521611
871.700081	2473.885756
872.011463	2471.899542
872.322803	2470.102370
872.634101	2476.078658
872.945357	2476.333236
873.256571	2477.666622
873.567744	2476.991107
873.878874	2475.660242
874.189963	2477.054121
874.501010	2476.020685
874.812015	2474.541106
875.122979	2480.852631
875.433900	2477.694348
875.744780	2479.350367
876.055618	2477.389358
876.366415	2478.558906
876.677169	2475.955150
876.987882	2478.422795
877.298554	2477.679224
877.609183	2479.451190
877.919771	2479.693165
878.230317	2479.161324
878.540822	2481.195429
878.851285	2482.846407
879.161707	2483.413537
879.472087	2486.483600
879.782425	2492.359064
880.092722	2504.362052
880.402977	2513.373114
880.713191	2528.887265
881.023363	2553.412479
881.333494	2570.779254
881.643583	2576.195973
881.953631	2574.303020
882.263637	2572.389902
882.573602	2565.796073
882.883526	2559.792059
883.193408	2549.359391
883.503248	2541.399409
883.813048	2536.259953
884.122806	2526.235618
884.432522	2521.335617
884.742197	2514.507374
885.051831	2507.671569
885.361424	2501.879283
885.670975	2499.073881
885.980485	2494.451143
886.289954	2496.611278
886.599382	2490.839157
886.908768	2486.425626
887.218113	2481.341623
887.527417	2482.843887
887.836680	2475.362814
888.145901	2481.954123
888.455082	2480.013279
888.764221	2480.509832
889.073319	2480.356077
889.382376	2477.419605
889.691392	2480.295583
890.000366	2478.747949
890.309300	2479.725933
890.618193	2476.486992
890.927044	2477.782568
891.235855	2478.558906
891.544625	2478.574029
891.853353	2479.166365
892.162041	2480.003196
892.470687	2479.065542
892.779293	2481.202991
893.087858	2480.706437
893.396381	2483.703403
893.704864	2486.957468
894.013306	2492.084322
894.321707	2497.705208
894.630068	2503.036228
894.938387	2504.765344
895.246665	2504.488081
895.554903	2504.535972
895.863100	2500.840806
896.171256	2497.027173
896.479371	2496.744868
896.787446	2492.285968
897.095480	2491.370998
897.403473	2488.396718
897.711425	2486.420585
898.019336	2485.568630
898.327207	2485.440081
898.635038	2482.609473
898.942827	2483.471510
899.250576	2481.792806
899.558284	2479.436067
899.865952	2480.426653
900.173579	2477.938844
900.481165	2479.695686
900.788711	2478.614358
901.096216	2476.081179
901.403681	2478.611838
901.711105	2474.931796
902.018489	2476.449183
902.325832	2474.316775
902.633135	2476.076137
902.940397	2476.915490
903.247619	2477.906076
903.554800	2488.505102
903.861941	2499.767040
904.169041	2506.683503
904.476101	2511.923783
904.783121	2512.374966
905.090100	2503.792401
905.397039	2506.134017
905.703938	2501.455827
906.010796	2498.771412
906.317614	2493.573983
906.624391	2492.074239
906.931129	2489.309166
907.237826	2484.726758
907.544483	2483.048053
907.851099	2482.624596
908.157675	2481.694503
908.464211	2478.203504
908.770707	2476.023205
909.077163	2473.820221
909.383578	2475.085551
909.689954	2472.617906
909.996289	2474.334419
910.302584	2472.622947
910.608839	2473.991620
910.915054	2471.529017
911.221229	2469.895683
911.527363	2471.707978
911.833458	2471.045066
912.139513	2475.672845
912.445527	2470.830817
912.751502	2474.510859
913.057436	2472.416260
913.363331	2470.286372
913.669186	2476.431539
913.975000	2478.876498
914.280775	2477.648978
914.586510	2484.411685
914.892205	2486.607108
915.197859	2495.350989
915.503475	2496.402070
915.809050	2503.386588
916.114585	2508.394975
916.420081	2512.392610
916.725536	2513.741118
917.030952	2510.734070
917.336328	2505.975221
917.641665	2504.815756
917.946961	2500.336690
918.252218	2498.032883
918.557435	2492.719507
918.862612	2496.092039
919.167750	2493.969713
919.472848	2491.774291
919.777906	2489.034423
920.082925	2487.330513
920.387904	2483.877323
920.692843	2480.981180
920.997743	2481.283649
921.302603	2479.839359
921.607423	2479.640233
921.912204	2478.047229
922.216946	2476.817187
922.521647	2475.839203
922.826310	2475.652681
923.130932	2475.982876
923.435516	2474.087402
923.740059	2471.985241
924.044564	2473.477423
924.349028	2474.992289
924.653454	2472.350725
924.957840	2473.979018
925.262186	2471.816363
925.566493	2473.109418
925.870761	2469.177318
926.174989	2470.833338
926.479178	2467.105404
926.783328	2469.757051
927.087438	2470.389716
927.391509	2472.295272
927.695541	2466.618933
927.999533	2468.053141
928.303486	2468.461475
928.607400	2468.748820
928.911275	2471.614716
929.215110	2467.276803
929.518906	2467.286886
929.822663	2470.354428
930.126381	2468.625312
930.430060	2470.853502
930.733699	2470.084726
931.037299	2468.584983
931.340861	2467.344859
931.644383	2470.026753
931.947866	2470.372072
932.251309	2470.515745
932.554714	2468.025415
932.858080	2466.324025
933.161407	2462.976699
933.464694	2467.362503
933.767943	2463.203551
934.071153	2467.692699
934.374323	2468.171608
934.677455	2467.329736
934.980548	2466.528192
935.283602	2470.016671
935.586617	2468.549695
935.889593	2468.511886
936.192530	2467.422997
936.495428	2468.713532
936.798287	2470.107411
937.101108	2468.292596
937.403890	2468.947946
937.706632	2469.867957
938.009336	2471.904583
938.312002	2471.251753
938.614628	2470.041876
938.917216	2470.997175
939.219765	2469.721763
939.522275	2471.193780
939.824747	2471.246712
940.127179	2473.177474
940.429573	2470.719912
940.731929	2471.871815
941.034246	2472.633029
941.336524	2470.687144
941.638763	2471.632360
941.940964	2468.895014
942.243126	2470.941722
942.545250	2469.956177
942.847335	2469.623461
943.149381	2469.557926
943.451389	2470.762761
943.753359	2471.176136
944.055290	2469.497432
944.357182	2472.012968
944.659036	2470.072123
944.960851	2470.054479
945.262628	2469.512555
945.564367	2470.276290
945.866067	2469.441979
946.167729	2470.545992
946.469352	2470.450210
946.770937	2468.151444
947.072484	2468.829479
947.373992	2468.164047
947.675462	2470.437607
947.976893	2467.319653
948.278286	2464.622636
948.579641	2471.125724
948.880958	2465.277986
949.182236	2471.221506
949.483476	2469.381485
949.784678	2468.438789
950.085841	2468.244705
950.386967	2469.525158
950.688054	2471.188739
950.989103	2469.691516
951.290114	2470.034315
951.591087	2468.292596
951.892021	2468.653038
952.192917	2466.402163
952.493776	2470.298975
952.794596	2470.326702
953.095378	2470.021712
953.396122	2466.203038
953.696828	2470.787967
953.997496	2468.348049
954.298126	2469.154633
954.598718	2469.421814
954.899272	2471.549181
955.199788	2469.260498
955.500266	2466.102215
955.800706	2470.019191
956.101108	2468.209417
956.401472	2468.844602
956.701798	2467.576752
957.002087	2466.916361
957.302337	2466.790332
957.602550	2468.501804
957.902724	2465.930815
958.202861	2466.850826
958.502960	2466.455095
958.803022	2465.852678
959.103045	2465.829992
959.403031	2468.390898
959.702979	2467.881742
960.002889	2467.980044
960.302762	2467.808645
960.602596	2464.146247
960.902393	2465.625826
961.202153	2465.598099
961.501875	2464.121041
961.801559	2468.547174
962.101205	2465.237657
962.400814	2466.124900
962.700385	2465.625826
962.999918	2462.704477
963.299414	2461.850001
963.598873	2464.869653
963.898293	2463.105249
964.197677	2462.948973
964.497022	2465.283027
964.796331	2465.048613
965.095601	2464.983078
965.394835	2463.700105
965.694030	2464.894858
965.993189	2466.031638
966.292309	2462.948973
966.591393	2465.772019
966.890439	2465.313274
967.189447	2465.386371
967.488419	2465.628346
967.787353	2462.495269
968.086249	2465.557770
968.385108	2463.841257
968.683930	2464.340331
968.982714	2466.124900
969.281462	2465.298151
969.580172	2464.829323
969.878844	2464.468881
970.177480	2466.601289
970.476078	2467.924592
970.774639	2462.764971
971.073162	2465.678758
971.371649	2466.991978
971.670098	2466.366875
971.968510	2466.308902
972.266885	2468.549695
972.565223	2464.922585
972.863524	2466.515589
973.161788	2466.772688
973.460014	2466.860908
973.758204	2464.607512
974.056356	2465.131793
974.354471	2465.744293
974.652550	2466.394602
974.950591	2466.306381
975.248595	2464.922585
975.546563	2466.361834
975.844493	2464.978037
976.142386	2465.235136
976.440243	2465.908130
976.738062	2463.115331
977.035845	2465.436782
977.333590	2465.411577
977.631299	2465.643470
977.928971	2463.727831
978.226606	2462.515434
978.524204	2463.037193
978.821765	2458.364043
979.119290	2467.047431
979.416777	2467.216310
979.714228	2466.618933
980.011642	2466.986937
980.309020	2465.111628
980.606360	2465.444344
980.903664	2466.492904
981.200931	2465.525002
981.498162	2467.422997
981.795356	2467.337297
982.092513	2465.807307
982.389633	2465.620784
982.686717	2469.121866
982.983764	2469.091619
983.280775	2475.561940
983.577749	2472.000365
983.874686	2471.045066
984.171587	2469.260498
984.468451	2470.190590
984.765279	2469.744448
985.062070	2471.516414
985.358824	2468.179170
985.655543	2470.729994
985.952224	2466.994499
986.248869	2468.584983
986.545478	2468.153964
986.842050	2466.472739
987.138586	2467.070116
987.435086	2467.332256
987.731549	2461.918057
988.027975	2466.271093
988.324366	2461.794549
988.620719	2465.255301
988.917037	2463.891669
989.213318	2465.396453
989.509563	2463.130454
989.805772	2466.485342
990.101944	2465.809828
990.398080	2464.703294
990.694180	2463.042234
990.990244	2462.008798
991.286271	2464.665486
991.582262	2464.622636
991.878217	2464.564663
992.174136	2466.427369
992.470019	2463.536267
992.765865	2461.507203
993.061676	2461.524847
993.357450	2464.819241
993.653188	2459.233642
993.948890	2462.891000
994.244556	2463.175825
994.540186	2464.693212
994.835780	2464.289920
995.131337	2464.010136
995.426859	2466.888635
995.722345	2465.288068
996.017795	2469.089098
996.313208	2467.788481
996.608586	2467.720425
996.903928	2469.010960
997.199234	2468.078347
997.494504	2465.582976
997.789738	2465.827472
998.084936	2464.894858
998.380099	2464.675568
998.675225	2465.640949
998.970316	2467.405353
999.265371	2465.343521
999.560390	2464.678089
999.855373	2463.185907
1000.150320	2464.771350
1000.445232	2464.267235
1000.740108	2464.736062
1001.034948	2463.153140
1001.329752	2462.827985
1001.624521	2463.019549
1001.919254	2465.656073
1002.213951	2466.515589
1002.508613	2463.004426
1002.803239	2466.452575
1003.097829	2461.053499
1003.392384	2463.705146
1003.686903	2460.468725
1003.981386	2464.161370
1004.275834	2461.638273
1004.570246	2462.591051
1004.864623	2462.170115
1005.158964	2463.611885
1005.453270	2461.640793
1005.747540	2464.799076
1006.041775	2461.958386
1006.335974	2462.558283
1006.630138	2462.459981
1006.924266	2464.289920
1007.218359	2463.574076
1007.512416	2461.494600
1007.806438	2457.474280
1008.100425	2462.560804
1008.394376	2459.505865
1008.688292	2461.744137
1008.982172	2462.850670
1009.276017	2463.924436
1009.569827	2464.234467
1009.863602	2461.918057
1010.157341	2463.536267
1010.451045	2463.579117
1010.744714	2463.652214
1011.038347	2462.422172
1011.331945	2463.889148
1011.625508	2459.798252
1011.919036	2464.385702
1012.212528	2463.216154
1012.505986	2462.694395
1012.799408	2460.289764
1013.092795	2460.133488
1013.386147	2464.799076
1013.679464	2461.577779
1013.972745	2465.514920
1014.265992	2462.008798
1014.559204	2462.966617
1014.852380	2461.673561
1015.145521	2463.934518
1015.438628	2463.221195
1015.731699	2463.216154
1016.024736	2460.733386
1016.317737	2465.915692
1016.610703	2462.548201
1016.903635	2461.645835
1017.196531	2460.698098
1017.489393	2465.310753
1017.782219	2463.014508
1018.075011	2459.969651
1018.367768	2461.915536
1018.660490	2461.965948
1018.953177	2461.965948
1019.245829	2461.965948
