Dividing Wavelength (nm)	Counts (n)	Blue Motor Position (mm): 0.000000	Red Motor Position (mm): 8.500000	
326.493990	2054.081149
326.888308	2054.081149
327.282561	2054.081149
327.676750	2028.041069
328.070874	2031.219516
328.464933	2036.726977
328.858929	2046.494213
329.252859	2054.199616
329.646726	2066.603375
330.040528	2086.442836
330.434265	2101.357090
330.827938	2120.692435
331.221547	2140.519293
331.615091	2161.427479
332.008571	2184.304235
332.401986	2201.476926
332.795338	2224.005842
333.188625	2242.559809
333.581847	2259.903899
333.975006	2278.656991
334.368100	2297.379837
334.761129	2313.438432
335.154095	2330.081802
335.546996	2344.983452
335.939833	2359.804445
336.332606	2370.756351
336.725315	2385.678167
337.117960	2393.882645
337.510540	2401.709036
337.903056	2413.671694
338.295508	2418.107909
338.687896	2426.395566
339.080220	2431.522420
339.472480	2433.065013
339.864676	2442.554985
340.256807	2440.987186
340.648875	2444.639502
341.040879	2448.120419
341.432818	2448.228804
341.824694	2452.874227
342.216506	2446.295521
342.608253	2447.016406
342.999937	2447.896088
343.391557	2444.705037
343.783113	2444.485747
344.174605	2442.691096
344.566033	2442.023143
344.957397	2443.792588
345.348697	2438.222113
345.739934	2439.031218
346.131106	2435.033583
346.522215	2433.687595
346.913260	2429.042172
347.304241	2428.233067
347.695159	2426.151070
348.086012	2427.214754
348.476802	2426.642583
348.867528	2423.496903
349.258191	2419.733682
349.648789	2420.575554
350.039324	2417.175296
350.429796	2419.292581
350.820203	2420.520102
351.210548	2417.185378
351.600828	2415.088258
351.991045	2420.724268
352.381198	2414.924421
352.771288	2419.413568
353.161314	2416.280491
353.551276	2418.309556
353.941175	2416.726633
354.331010	2418.198650
354.720782	2414.165727
355.110490	2417.140008
355.500135	2415.920049
355.889717	2415.801582
356.279235	2417.127405
356.668689	2420.416758
357.058080	2419.403486
357.447408	2418.874165
357.836672	2418.811150
358.225873	2421.994639
358.615010	2419.128743
359.004084	2420.956161
359.393095	2420.883065
359.782043	2424.028745
360.170927	2424.860535
360.559748	2420.749474
360.948505	2422.554207
361.337199	2424.694177
361.725830	2424.157294
362.114398	2427.227357
362.502903	2424.568148
362.891344	2426.410690
363.279722	2427.411359
363.668037	2429.190886
364.056289	2427.245001
364.444478	2428.785073
364.832603	2429.037131
365.220665	2428.525454
365.608665	2430.675506
365.996601	2426.612336
366.384474	2431.144333
366.772284	2429.861360
367.160031	2430.040321
367.547715	2430.161308
367.935336	2430.993099
368.322893	2431.071237
368.710388	2427.423962
369.097820	2429.490835
369.485189	2428.659044
369.872495	2432.497883
370.259738	2434.171546
370.646918	2436.354366
371.034035	2435.381423
371.421090	2435.537699
371.808081	2436.583738
372.195010	2437.533996
372.581875	2437.087854
372.968678	2439.699171
373.355418	2442.023143
373.742096	2444.500870
374.128710	2442.207145
374.515262	2445.771241
374.901751	2448.536314
375.288177	2451.671912
375.674540	2455.873713
376.060841	2460.960238
376.447079	2464.814200
376.833254	2469.628502
377.219367	2471.037504
377.605417	2479.889770
377.991404	2483.698362
378.377329	2490.413179
378.763191	2494.521719
379.148991	2505.067813
379.534727	2512.959740
379.920402	2524.004908
380.306013	2528.836854
380.691563	2544.497198
381.077049	2553.064639
381.462474	2563.215002
381.847835	2576.611869
382.233134	2591.901688
382.618371	2598.490476
383.003545	2617.682149
383.388657	2627.966103
383.773706	2645.620224
384.158693	2654.762356
384.543618	2675.796571
384.928480	2685.125226
385.313280	2703.210365
385.698017	2718.558158
386.082692	2736.492063
386.467305	2750.453538
386.851856	2765.433327
387.236344	2787.175824
387.620770	2795.531536
388.005133	2813.420071
388.389435	2834.345900
388.773674	2840.871674
389.157851	2864.872607
389.541965	2878.556819
389.926018	2883.129146
390.310008	2901.650345
390.693936	2917.189702
391.077802	2929.916095
391.461606	2949.190947
391.845348	2946.856892
392.229027	2962.096300
392.612645	2982.873416
392.996200	2992.761639
393.379694	3008.527848
393.763125	3025.526619
394.146494	3033.068185
394.529801	3041.265101
394.913047	3053.918397
395.296230	3046.165102
395.679351	3045.023281
396.062410	3060.408883
396.445408	3030.908050
396.828343	3041.479350
397.211217	3039.750234
397.594028	3011.355935
397.976778	3017.029754
398.359466	3014.380627
398.742092	3001.016529
399.124656	2986.498006
399.507158	2992.403717
399.889598	2978.094402
400.271977	2986.561020
400.654294	2958.353244
401.036549	2958.897688
401.418742	2940.505038
401.800874	2943.774227
402.182944	2928.582710
402.564952	2935.042948
402.946898	2912.204001
403.328783	2886.771380
403.710606	2878.786192
404.092367	2873.702188
404.474067	2866.785725
404.855705	2841.453927
405.237282	2812.515183
405.618797	2812.474854
406.000250	2808.575522
406.381642	2802.669810
406.762972	2779.921603
407.144240	2752.142325
407.525447	2742.485995
407.906593	2724.080742
408.287677	2721.436657
408.668700	2705.937629
409.049661	2692.538242
409.430560	2680.537776
409.811399	2660.937770
410.192176	2653.028199
410.572891	2645.746253
410.953545	2637.514048
411.334138	2617.354474
411.714669	2609.270984
412.095139	2592.612491
412.475547	2584.823908
412.855894	2573.924934
413.236180	2568.682134
413.616405	2556.623694
413.996568	2553.866182
414.376670	2540.670962
414.756711	2533.235260
415.136691	2528.972965
415.516609	2522.182531
415.896466	2517.474093
416.276262	2513.534431
416.655997	2513.121057
417.035670	2506.108812
417.415283	2507.676610
417.794834	2501.440703
418.174324	2497.279231
418.553753	2493.755464
418.933121	2493.034579
419.312428	2489.505771
419.691674	2486.314721
420.070859	2482.523773
420.449983	2483.811788
420.829045	2478.463124
421.208047	2477.633854
421.586988	2479.284832
421.965867	2475.831642
422.344686	2477.777527
422.723444	2477.079327
423.102141	2474.483133
423.480777	2473.482464
423.859352	2471.352576
424.237866	2474.498256
424.616319	2473.787454
424.994712	2473.303503
425.373044	2468.741259
425.751314	2472.378451
426.129524	2467.523820
426.507673	2471.120683
426.885762	2465.272945
427.263789	2469.351238
427.641756	2472.030612
428.019662	2471.707978
428.397508	2472.101188
428.775292	2470.626650
429.153016	2473.026239
429.530679	2472.655715
429.908282	2469.247895
430.285824	2469.666310
430.663305	2472.743935
431.040726	2469.336115
431.418086	2472.990951
431.795385	2470.845940
432.172624	2471.012298
432.549802	2470.760241
432.926920	2472.708647
433.303977	2469.651187
433.680974	2469.550364
434.057910	2469.537761
434.434786	2472.496918
434.811601	2471.476085
435.188355	2472.607824
435.565050	2471.271918
435.941683	2468.968111
436.318257	2470.354428
436.694770	2469.754531
437.071222	2472.522124
437.447614	2475.067907
437.823946	2471.153451
438.200218	2473.162351
438.576429	2473.681589
438.952580	2471.675210
439.328670	2472.204531
439.704700	2471.750827
440.080670	2470.001547
440.456580	2471.599593
440.832429	2472.365848
441.208218	2472.154120
441.583947	2473.185036
441.959616	2472.968266
442.335224	2473.240488
442.710773	2471.080354
443.086261	2475.337608
443.461689	2471.965077
443.837057	2473.290900
444.212365	2472.895169
444.587612	2470.614047
444.962800	2470.785447
445.337927	2473.427011
445.712995	2466.303861
446.088002	2473.253091
446.462949	2473.921044
446.837837	2474.586477
447.212664	2475.098154
447.587431	2477.762403
447.962139	2477.036477
448.336786	2482.924545
448.711374	2480.721561
449.085901	2479.335243
449.460369	2476.567650
449.834776	2478.702579
450.209124	2479.332723
450.583412	2476.308031
450.957640	2478.712661
451.331808	2480.409009
451.705917	2477.545634
452.079965	2479.307517
452.453954	2476.912969
452.827883	2477.540593
453.201752	2475.347691
453.575562	2477.487661
453.949311	2481.230717
454.323001	2481.898670
454.696632	2481.513022
455.070202	2481.029071
455.443713	2481.603763
455.817164	2480.227528
456.190556	2480.837507
456.563888	2483.335399
456.937160	2483.680718
457.310373	2481.134935
457.683526	2481.301293
458.056619	2481.893629
458.429653	2481.404637
458.802628	2483.511839
459.175542	2478.810963
459.548398	2483.476551
459.921194	2482.337251
460.293930	2485.177941
460.666607	2487.181799
461.039224	2486.700369
461.411782	2486.581902
461.784280	2489.341934
462.156719	2488.505102
462.529099	2489.813282
462.901419	2486.884371
463.273680	2485.001500
463.645882	2482.206181
464.018024	2484.492344
464.390106	2482.097796
464.762130	2488.850421
465.134094	2488.812613
465.505999	2490.375370
465.877845	2497.556494
466.249631	2500.253511
466.621358	2497.511124
466.993026	2499.104128
467.364634	2500.550939
467.736184	2493.586585
468.107674	2493.379898
468.479105	2492.749754
468.850477	2492.613643
469.221790	2491.033241
469.593043	2492.041472
469.964238	2489.425113
470.335373	2490.571975
470.706449	2491.393683
471.077467	2493.684888
471.448425	2493.102635
471.819324	2497.806031
472.190164	2496.805362
472.560945	2494.620022
472.931667	2492.885865
473.302330	2490.622387
473.672934	2491.272696
474.043479	2491.817140
474.413965	2494.521719
474.784393	2490.040134
475.154761	2493.284116
475.525070	2489.064670
475.895321	2492.117089
476.265513	2493.362254
476.635645	2493.236225
477.005719	2491.665906
477.375734	2492.167501
477.745691	2493.770587
478.115588	2494.980464
478.485427	2496.044148
478.855207	2496.684374
479.224928	2499.610764
479.594591	2502.595127
479.964194	2502.791732
480.333739	2501.496156
480.703226	2502.131341
481.072653	2504.198214
481.442022	2503.222751
481.811333	2502.348111
482.180584	2499.288130
482.549777	2498.322749
482.918912	2497.117914
483.287988	2502.978255
483.657005	2499.809890
484.025964	2501.738131
484.394864	2502.280055
484.763706	2500.041783
485.132489	2499.976248
485.501213	2498.874756
485.869879	2499.399036
486.238487	2498.589931
486.607036	2500.104797
486.975527	2500.563542
487.343959	2500.263594
487.712333	2502.431290
488.080648	2500.132524
488.448905	2503.729387
488.817104	2502.393481
489.185244	2501.687720
489.553326	2499.754437
489.921350	2502.499345
490.289315	2509.299862
490.657222	2506.557474
491.025070	2508.374810
491.392861	2506.068482
491.760593	2504.137720
492.128267	2506.721312
492.495883	2508.405057
492.863440	2504.541013
493.230939	2505.491270
493.598380	2505.148472
493.965763	2503.394150
494.333088	2498.552122
494.700354	2503.089160
495.067563	2501.203769
495.434713	2501.425580
495.801805	2501.569253
496.168839	2499.658655
496.535815	2503.651249
496.902733	2502.310302
497.269593	2503.429438
497.636395	2498.736124
498.003139	2501.168481
498.369825	2500.639160
498.736453	2503.963801
499.103023	2500.137565
499.469535	2500.256032
499.835989	2500.785353
500.202385	2498.259735
500.568723	2495.776967
500.935003	2501.188645
501.301226	2494.458705
501.667390	2502.761485
502.033497	2503.222751
502.399546	2499.618326
502.765537	2499.890548
503.131470	2502.693430
503.497345	2500.871053
503.863163	2500.127483
504.228923	2500.571104
504.594625	2498.378202
504.960269	2500.387102
505.325856	2501.067658
505.691385	2501.017246
506.056856	2499.769561
506.422270	2501.160919
506.787625	2502.625374
507.152924	2497.496000
507.518164	2502.650580
507.883347	2501.498676
508.248472	2500.581186
508.613540	2503.263080
508.978550	2499.504900
509.343503	2499.424242
509.708398	2499.189828
510.073236	2500.359376
510.438016	2499.033552
510.802738	2500.429952
511.167403	2499.086484
511.532010	2501.135713
511.896561	2504.702330
512.261053	2501.057575
512.625488	2500.455158
512.989866	2499.053717
513.354186	2503.313492
513.718449	2502.380878
514.082655	2501.014726
514.446803	2499.315857
514.810894	2502.827020
515.174927	2504.011692
515.538904	2504.427587
515.902822	2500.218223
516.266684	2502.030518
516.630488	2503.999089
516.994235	2501.831393
517.357925	2500.944149
517.721558	2500.921464
518.085133	2500.818121
518.448651	2497.405259
518.812112	2497.806031
519.175516	2499.159581
519.538863	2497.564056
519.902152	2502.496825
520.265385	2500.850888
520.628560	2504.167967
520.991678	2502.874911
521.354739	2502.481701
521.717743	2501.435662
522.080690	2501.622185
522.443580	2502.862308
522.806413	2503.056393
523.169189	2502.627895
523.531908	2502.801815
523.894569	2501.967504
524.257174	2501.843995
524.619722	2503.386588
524.982213	2505.080416
525.344647	2506.736435
525.707025	2503.646208
526.069345	2502.085971
526.431608	2501.843995
526.793815	2499.958604
527.155964	2504.293996
527.518057	2500.132524
527.880093	2500.873573
528.242072	2501.901969
528.603995	2504.253667
528.965860	2499.852740
529.327669	2503.031187
529.689421	2502.398522
530.051117	2501.957421
530.412755	2501.765857
530.774337	2502.310302
531.135862	2499.845178
531.497331	2501.728049
531.858743	2501.753255
532.220098	2500.414828
532.581396	2501.274345
532.942638	2500.505569
533.303824	2500.823162
533.664953	2502.980776
534.026025	2500.815600
534.387040	2503.626043
534.747999	2502.027998
535.108902	2500.785353
535.469748	2501.291989
535.830537	2502.743841
536.191270	2502.380878
536.551947	2499.572956
536.912567	2496.371823
537.273131	2499.530106
537.633638	2496.833088
537.994089	2501.428100
538.354483	2500.886176
538.714821	2503.918430
539.075103	2502.146465
539.435328	2499.885507
539.795497	2500.450116
540.155609	2501.334839
540.515665	2500.513131
540.875665	2501.362565
541.235609	2500.523213
541.595496	2503.358862
541.955328	2499.235198
542.315102	2501.526403
542.674821	2501.869201
543.034483	2500.795435
543.394090	2503.492453
543.753640	2499.620847
544.113134	2501.392812
544.472571	2500.825682
544.831953	2501.788543
545.191278	2500.319046
545.550548	2499.275528
545.909761	2501.813748
546.268918	2501.949860
546.628019	2500.233347
546.987064	2500.732421
547.346053	2502.779129
547.704986	2504.092350
548.063863	2500.578666
548.422684	2497.833758
548.781449	2498.844509
549.140158	2502.065806
549.498811	2501.770899
549.857408	2499.429283
550.215949	2501.415497
550.574434	2499.608244
550.932864	2503.384068
551.291237	2499.192348
551.649555	2500.871053
552.007817	2501.055055
552.366022	2501.632267
552.724173	2499.338542
553.082267	2502.005312
553.440305	2500.661845
553.798288	2501.143275
554.156215	2501.831392
554.514086	2497.896772
554.871902	2498.332832
555.229661	2501.685199
555.587365	2494.884682
555.945014	2499.991371
556.302606	2500.457678
556.660143	2502.338028
557.017625	2502.060765
557.375050	2501.929695
557.732421	2500.049345
558.089735	2500.976917
558.446994	2502.060765
558.804197	2500.717297
559.161345	2500.795435
559.518437	2499.729231
559.875474	2499.046155
560.232455	2500.124962
560.589381	2500.437513
560.946251	2501.690240
561.303065	2501.055055
561.659825	2501.284427
562.016528	2498.211844
562.373177	2501.302071
562.729770	2500.475322
563.086307	2501.400374
563.442789	2502.406084
563.799216	2503.295848
564.155587	2499.951042
564.511904	2501.397853
564.868164	2499.653614
565.224370	2501.047493
565.580520	2499.948522
565.936615	2502.368275
566.292654	2503.593276
566.648638	2500.878614
567.004567	2502.942967
567.360441	2502.038080
567.716260	2500.384581
568.072023	2501.118069
568.427732	2500.424911
568.783385	2501.382730
569.138982	2501.518841
569.494525	2501.178563
569.850013	2501.269304
570.205445	2500.397184
570.560823	2500.732421
570.916145	2501.387771
571.271412	2501.470950
571.626625	2501.155878
571.981782	2501.579335
572.336884	2499.746875
572.691931	2495.000629
573.046923	2501.039931
573.401860	2496.029024
573.756743	2501.266783
574.111570	2502.368275
574.466342	2502.481701
574.821059	2501.435662
575.175722	2498.458861
575.530330	2502.332987
575.884882	2499.494818
576.239380	2499.948522
576.593823	2501.717967
576.948211	2500.187976
577.302544	2501.302071
577.656823	2499.759478
578.011047	2502.975734
578.365216	2498.327791
578.719330	2503.525220
579.073389	2500.336690
579.427394	2500.583707
579.781344	2500.407267
580.135239	2498.547081
580.489080	2497.901813
580.842866	2501.249139
581.196597	2499.961124
581.550273	2499.283089
581.903895	2501.155878
582.257463	2504.480519
582.610975	2499.134375
582.964434	2499.351145
583.317837	2499.789725
583.671186	2501.153357
584.024481	2501.271824
584.377721	2496.207985
584.730906	2501.085302
585.084037	2498.282420
585.437113	2499.013388
585.790135	2499.787205
586.143103	2497.296875
586.496016	2499.293172
586.848874	2500.964314
587.201679	2502.390961
587.554428	2499.376351
587.907124	2501.642349
588.259765	2496.999447
588.612352	2496.878459
588.964884	2497.087667
589.317362	2498.572287
589.669786	2500.137565
590.022155	2497.047338
590.374470	2495.600526
590.726731	2498.405928
591.078937	2495.691267
591.431090	2497.400218
591.783188	2497.432986
592.135232	2500.717298
592.487222	2499.068840
592.839157	2499.217554
593.191038	2497.737976
593.542866	2498.438696
593.894639	2497.354848
594.246358	2499.038593
594.598022	2498.292503
594.949633	2497.324601
595.301190	2497.279231
595.652692	2498.998264
596.004141	2499.023470
596.355535	2496.659169
596.706876	2497.843840
597.058162	2496.893582
597.409395	2496.386946
597.760573	2498.168994
598.111698	2499.043634
598.462768	2498.564725
598.813785	2499.101608
599.164748	2498.501710
599.515657	2497.574138
599.866511	2498.889879
600.217312	2497.397698
600.568060	2498.204282
600.918753	2498.738645
601.269392	2498.436175
601.619978	2496.054230
601.970510	2496.147492
602.320988	2497.906854
602.671412	2496.964158
603.021783	2497.226298
603.372100	2497.755620
603.722363	2497.241422
604.072572	2495.466936
604.422728	2499.787205
604.772830	2496.553304
605.122878	2499.333501
605.472872	2495.721514
605.822813	2497.228819
606.172701	2498.335352
606.522534	2495.769405
606.872314	2495.872749
607.222041	2497.586741
607.571714	2495.512306
607.921333	2491.912922
608.270899	2497.342245
608.620411	2493.405104
608.969870	2498.446258
609.319276	2495.529950
609.668627	2498.123624
610.017926	2497.785867
610.367171	2495.787049
610.716362	2498.194200
611.065500	2499.192348
611.414585	2495.658500
611.763616	2501.022287
612.112594	2497.745537
612.461518	2498.262256
612.810389	2496.565907
613.159207	2497.984992
613.507971	2496.565907
613.856682	2498.905003
614.205340	2495.827378
614.553945	2498.567245
614.902496	2497.924498
615.250994	2500.069509
615.599439	2498.559684
615.947830	2496.477687
616.296169	2497.553973
616.644454	2497.790908
616.992686	2497.858963
617.340864	2499.167143
617.688990	2497.130517
618.037063	2500.014057
618.385082	2498.350476
618.733048	2500.492966
619.080961	2498.025321
619.428821	2499.061278
619.776628	2498.799138
620.124382	2497.243943
620.472083	2498.158912
620.819731	2497.496000
621.167326	2497.470794
621.514868	2497.533809
621.862357	2498.743686
622.209793	2499.610764
622.557176	2499.285610
622.904506	2495.056082
623.251783	2497.057420
623.599007	2497.196052
623.946179	2498.678151
624.293297	2497.400218
624.640363	2496.364261
624.987376	2494.468787
625.334336	2495.870228
625.681243	2494.360402
626.028097	2491.141626
626.374899	2498.053048
626.721647	2496.795280
627.068343	2493.465598
627.414987	2495.038438
627.761577	2495.371154
628.108115	2495.855105
628.454600	2495.696308
628.801032	2494.448623
629.147412	2496.686895
629.493739	2495.661020
629.840014	2496.059271
630.186236	2493.669764
630.532405	2495.454333
630.878521	2492.878303
631.224585	2497.178407
631.570597	2495.640856
631.916556	2495.381236
632.262462	2492.507778
632.608316	2494.246977
632.954117	2494.173880
633.299866	2497.465753
633.645562	2494.166318
633.991206	2496.560866
634.336797	2494.171359
634.682336	2492.971565
635.027823	2494.055413
635.373257	2490.140957
635.718639	2494.020125
636.063968	2490.574496
636.409245	2493.979795
636.754470	2492.900988
637.099642	2491.353354
637.444762	2492.822851
637.789829	2494.254538
638.134845	2493.813437
638.479808	2491.227325
638.824719	2496.308808
639.169577	2490.561893
639.514383	2489.294043
639.859137	2492.848056
640.203839	2493.584065
640.548489	2494.577172
640.893086	2492.056595
641.237632	2491.882675
641.582125	2492.923674
641.926566	2494.204127
642.270955	2491.227325
642.615292	2488.424444
642.959576	2491.234887
643.303809	2488.878148
643.647990	2492.606081
643.992118	2490.352685
644.336195	2492.795124
644.680219	2491.265134
645.024192	2491.744044
645.368112	2493.700011
645.711981	2492.744713
646.055797	2493.649600
646.399562	2490.272027
646.743274	2492.285968
647.086935	2492.661534
647.430544	2493.674806
647.774101	2493.503406
648.117606	2493.500886
648.461059	2493.445433
648.804460	2494.037769
649.147810	2493.742861
649.491108	2493.611791
649.834354	2492.835453
650.177548	2491.602891
650.520690	2492.356544
650.863781	2489.956955
651.206820	2490.892089
651.549807	2491.600371
651.892742	2490.960144
652.235626	2488.968888
652.578458	2491.302943
652.921238	2489.803199
653.263967	2493.266472
653.606644	2491.731441
653.949269	2491.197078
654.291843	2487.915287
654.634365	2491.055926
654.976836	2490.098107
655.319255	2490.393014
655.661622	2489.480566
656.003938	2490.992912
656.346203	2490.899650
656.688416	2493.203458
657.030577	2488.943683
657.372687	2490.887047
657.714746	2490.922336
658.056753	2488.847901
658.398708	2490.642552
658.740612	2488.333703
659.082465	2487.638024
659.424266	2488.600884
659.766016	2484.313383
660.107715	2488.898312
660.449362	2485.004021
660.790958	2488.673981
661.132503	2488.510143
661.473996	2487.746409
661.815438	2488.159783
662.156829	2489.210864
662.498168	2490.854280
662.839456	2489.596512
663.180693	2490.856801
663.521879	2488.714310
663.863013	2487.867396
664.204097	2488.341265
664.545129	2488.628611
664.886110	2490.882006
665.227040	2488.643734
665.567918	2489.432675
665.908746	2490.403097
666.249522	2490.604743
666.590248	2489.079794
666.930922	2490.214053
667.271545	2490.312356
667.612118	2490.319918
667.952639	2490.393014
668.293109	2491.600371
668.633528	2488.646255
668.973896	2489.467963
669.314213	2489.382263
669.654480	2489.004177
669.994695	2490.019969
670.334859	2492.260762
670.674973	2489.178096
671.015035	2487.398569
671.355047	2488.273209
671.695008	2489.795638
672.034918	2488.605925
672.374777	2491.287819
672.714585	2490.471152
673.054342	2488.840339
673.394049	2488.278250
673.733705	2491.842346
674.073310	2489.110041
674.412864	2489.904023
674.752368	2489.326810
675.091820	2486.891933
675.431223	2488.467294
675.770574	2487.575009
676.109875	2486.856645
676.449125	2487.312869
676.788324	2487.214567
677.127473	2487.133908
677.466571	2482.145687
677.805619	2489.503251
678.144616	2484.772128
678.483562	2488.298415
678.822458	2487.718682
679.161303	2486.002169
679.500098	2486.833960
679.838842	2487.128867
680.177535	2485.697180
680.516179	2487.811944
680.854771	2486.055102
681.193314	2488.469814
681.531805	2489.052068
681.870247	2486.329844
682.208638	2487.738847
682.546978	2490.818992
682.885268	2489.372181
683.223508	2490.216574
683.561697	2488.474855
683.899836	2489.830926
684.237925	2488.542911
684.575963	2489.523415
684.913951	2488.913436
685.251889	2489.619197
685.589776	2489.304125
685.927614	2490.297232
686.265401	2488.076604
686.603137	2488.242962
686.940824	2487.207005
687.278460	2489.780514
687.616046	2489.536018
687.953582	2487.295225
688.291068	2488.847901
688.628504	2487.683394
688.965889	2489.452839
689.303224	2488.578199
689.640510	2487.905205
689.977745	2488.593322
690.314930	2490.836636
690.652065	2487.489310
690.989150	2488.127016
691.326185	2485.586274
691.663170	2485.314052
692.000105	2485.293887
692.336990	2486.755822
692.673825	2481.661736
693.010610	2486.294556
693.347345	2481.142497
693.684030	2482.551500
694.020665	2480.955974
694.357251	2478.982363
694.693786	2486.039978
695.030272	2486.385297
695.366707	2487.912767
695.703093	2484.648620
696.039429	2483.763897
696.375716	2481.462610
696.711952	2486.042499
697.048139	2485.646768
697.384276	2483.355564
697.720363	2482.828763
698.056400	2484.504947
698.392388	2482.548979
698.728326	2483.713486
699.064214	2483.118629
699.400053	2482.092755
699.735842	2481.634010
700.071581	2483.829432
700.407270	2483.365646
700.742910	2481.681901
701.078501	2480.658546
701.414042	2484.300780
701.749533	2482.236428
702.084974	2482.838845
702.420366	2481.891108
702.755709	2481.379431
703.091002	2482.007055
703.426246	2477.601087
703.761440	2482.286839
704.096584	2484.278095
704.431679	2480.507312
704.766725	2480.698876
705.101721	2481.414719
705.436668	2482.851448
705.771565	2482.390183
706.106413	2481.606283
706.441212	2481.245841
706.775961	2480.658546
707.110661	2481.087044
707.445311	2481.170223
707.779913	2478.944554
708.114465	2482.836325
708.448967	2480.817343
708.783421	2482.942189
709.117825	2483.151397
709.452180	2483.209370
709.786485	2482.410347
710.120742	2482.853969
710.454949	2478.064873
710.789107	2481.865903
711.123216	2480.091417
711.457275	2482.312045
711.791286	2483.456387
712.125247	2486.352530
712.459159	2485.283805
712.793023	2482.702734
713.126837	2482.468321
713.460602	2486.266830
713.794318	2483.123671
714.127985	2486.027375
714.461602	2484.598208
714.795171	2483.232055
715.128691	2482.758187
715.462162	2482.914463
715.795584	2479.839359
716.128957	2482.017137
716.462281	2482.619555
716.795556	2484.469659
717.128782	2477.296097
717.461960	2480.550162
717.795088	2482.695173
718.128167	2481.215594
718.461198	2479.738536
718.794180	2482.816160
719.127113	2477.946406
719.459997	2481.845738
719.792833	2482.085193
720.125619	2483.340440
720.458357	2480.003196
720.791046	2484.169710
721.123686	2478.813484
721.456278	2482.133084
721.788821	2480.182157
722.121315	2481.414719
722.453761	2483.204329
722.786158	2480.555203
723.118506	2481.074442
723.450805	2480.560244
723.783056	2480.391365
724.115259	2479.907414
724.447412	2479.050418
724.779518	2480.809781
725.111574	2479.491519
725.443582	2481.026551
725.775542	2480.837507
726.107453	2480.136787
726.439315	2479.862044
726.771129	2484.325986
727.102895	2476.547485
727.434612	2478.891622
727.766281	2477.538072
728.097901	2480.668629
728.429473	2480.358598
728.760996	2482.463279
729.092471	2481.190388
729.423897	2480.842548
729.755276	2483.637868
730.086606	2480.358598
730.417887	2480.134266
730.749120	2482.569144
731.080305	2482.891778
731.411442	2483.466469
731.742530	2483.269864
732.073570	2483.322796
732.404562	2481.606283
732.735506	2481.679380
733.066401	2479.352888
733.397249	2483.912611
733.728048	2483.252220
734.058798	2481.704586
734.389501	2481.618886
734.720156	2480.098978
735.050762	2481.893629
735.381320	2479.771303
735.711831	2480.691314
736.042293	2479.209215
736.372707	2475.955150
736.703073	2479.874647
737.033391	2479.799030
737.363661	2478.478247
737.693883	2479.741056
738.024056	2479.289873
738.354182	2478.324492
738.684260	2477.868268
739.014290	2479.451190
739.344272	2482.639720
739.674207	2480.025882
740.004093	2483.350523
740.333931	2480.905563
740.663722	2482.175934
740.993464	2477.959008
741.323159	2480.240131
741.652806	2476.789461
741.982405	2481.570995
742.311956	2477.447331
742.641460	2482.175934
742.970915	2479.549492
743.300323	2477.094451
743.629683	2475.589666
743.958996	2476.920531
744.288260	2475.524131
744.617477	2477.079327
744.946647	2479.836838
745.275768	2479.894812
745.604842	2478.768114
745.933869	2477.991776
746.262847	2481.175265
746.591778	2478.165696
746.920662	2479.869606
747.249498	2480.542600
747.578286	2478.871457
747.907027	2478.329533
748.235720	2476.983545
748.564365	2476.895325
748.892963	2477.679224
749.221514	2477.553196
749.550017	2476.975983
749.878473	2477.205356
750.206881	2474.198308
750.535242	2479.163844
750.863555	2477.916159
751.191821	2477.457414
751.520039	2477.593525
751.848210	2478.616879
752.176334	2475.955150
752.504411	2481.099647
752.832440	2476.814667
753.160421	2478.085037
753.488356	2478.926910
753.816243	2478.087558
754.144082	2477.810294
754.471875	2476.756693
754.799620	2479.224338
755.127318	2475.501446
755.454969	2475.861888
755.782572	2477.908597
756.110129	2476.436580
756.437638	2479.083186
756.765100	2478.221148
757.092515	2477.843062
757.419882	2478.732826
757.747203	2474.788123
758.074477	2479.279791
758.401703	2477.366673
758.728882	2479.660398
759.056014	2480.948413
759.383099	2474.344501
759.710138	2479.604945
760.037129	2474.548668
760.364073	2476.308031
760.690970	2474.909110
761.017820	2475.763586
761.344623	2478.798361
761.671379	2479.700727
761.998088	2481.384472
762.324751	2478.538741
762.651366	2481.646612
762.977935	2484.184833
763.304456	2482.745584
763.630931	2485.828250
763.957359	2486.609628
764.283740	2483.665595
764.610074	2482.821201
764.936362	2481.013948
765.262602	2481.376911
765.588796	2479.436067
765.914943	2477.986735
766.241044	2480.600573
766.567097	2475.788792
766.893104	2476.708802
767.219064	2478.500933
767.544978	2475.395582
767.870845	2477.845583
768.196665	2477.293576
768.522438	2477.923720
768.848165	2478.450521
769.173846	2475.594707
769.499479	2475.763586
769.825066	2473.079172
770.150607	2475.592187
770.476101	2476.444142
770.801548	2473.389203
771.126949	2474.369707
771.452303	2474.120170
771.777611	2476.786940
772.102872	2476.300469
772.428087	2473.144707
772.753256	2476.055973
773.078378	2476.429018
773.403453	2475.998000
773.728482	2474.130252
774.053465	2474.170581
774.378401	2475.990438
774.703291	2474.636888
775.028135	2476.045891
775.352932	2475.718216
775.677683	2473.676548
776.002388	2472.343163
776.327046	2469.026084
776.651658	2470.016671
776.976224	2468.237143
777.300743	2474.180664
777.625216	2473.961373
777.949643	2474.160499
778.274024	2474.780561
778.598359	2474.006744
778.922647	2471.405508
779.246889	2473.910962
779.571086	2474.689820
779.895236	2476.779378
780.219339	2473.863071
780.543397	2475.579584
780.867409	2474.016826
781.191374	2477.500263
781.515294	2475.138483
781.839167	2475.466158
782.162995	2471.002216
782.486776	2473.311065
782.810511	2475.067907
783.134201	2475.849286
783.457844	2471.791157
783.781441	2473.628657
784.104993	2474.523462
784.428498	2473.328709
784.751958	2474.800726
785.075372	2473.240488
785.398739	2475.216621
785.722061	2472.640591
786.045337	2476.141673
786.368568	2475.950109
786.691752	2471.574387
787.014891	2475.035139
787.337983	2470.903914
787.661030	2474.558750
787.984031	2474.475571
788.306987	2475.561940
788.629897	2475.531693
788.952760	2474.432721
789.275579	2476.875160
789.598351	2474.891466
789.921078	2472.978348
790.243759	2476.146714
790.566395	2475.743421
790.888984	2474.765438
791.211529	2475.614872
791.534027	2474.707464
791.856480	2472.950622
792.178888	2471.070272
792.501249	2470.016671
792.823566	2472.627988
793.145836	2467.894345
793.468062	2474.654532
793.790241	2474.493215
794.112375	2474.256281
794.434464	2472.529686
794.756507	2474.198308
795.078505	2470.659418
795.400457	2473.628657
795.722364	2470.079685
796.044226	2475.254429
796.366042	2473.051445
796.687812	2474.394913
797.009538	2474.054635
797.331218	2473.086733
797.652852	2473.754686
797.974442	2475.909779
798.295986	2474.725108
798.617484	2476.686117
798.938938	2474.309213
799.260346	2472.002885
799.581709	2473.192598
799.903026	2475.549337
800.224299	2474.954481
800.545526	2472.781743
800.866708	2472.499439
801.187845	2472.091105
801.508936	2474.397433
801.829983	2475.617392
802.150984	2472.068420
802.471940	2474.591518
802.792851	2473.371558
803.113717	2473.076651
803.434538	2474.916672
803.755314	2472.595221
804.076045	2470.503142
804.396731	2473.497587
804.717372	2475.317444
805.037967	2473.306023
805.358518	2470.921558
805.679024	2472.703606
805.999485	2474.725108
806.319901	2475.453555
806.640272	2471.849130
806.960598	2470.735035
807.280879	2471.957515
807.601115	2472.809470
807.921306	2474.233596
808.241453	2469.081537
808.561554	2469.371403
808.881611	2469.421814
809.201623	2469.663790
809.521590	2473.782412
809.841513	2471.196301
810.161390	2474.107567
810.481223	2472.718729
810.801011	2471.229068
811.120755	2473.011116
811.440453	2474.412557
811.760107	2471.455920
812.079716	2472.242340
812.399281	2474.394913
812.718801	2472.683441
813.038276	2468.196814
813.357707	2473.537917
813.677093	2472.391054
813.996434	2475.314923
814.315731	2472.113791
814.634983	2471.110601
814.954191	2473.895838
815.273354	2471.347535
815.592473	2472.035653
815.911547	2472.219655
816.230577	2472.219655
816.549562	2473.553040
816.868502	2472.746455
817.187399	2473.515231
817.506250	2472.665797
817.825058	2472.023050
818.143821	2473.953812
818.462539	2473.810139
818.781213	2473.895838
819.099843	2475.773668
819.418429	2477.618731
819.736970	2475.793833
820.055466	2475.294759
820.373919	2476.527321
820.692327	2476.915490
821.010691	2482.813640
821.329011	2487.131388
821.647286	2493.032058
821.965517	2506.428925
822.283704	2513.161386
822.601847	2518.220184
822.919945	2514.550224
823.237999	2509.224245
823.556010	2505.841630
823.873976	2499.714108
824.191897	2493.732779
824.509775	2486.811275
824.827609	2484.666264
825.145398	2482.707775
825.463144	2483.842035
825.780845	2484.847745
826.098502	2485.404793
826.416116	2486.012252
826.733685	2489.102479
827.051210	2489.709938
827.368692	2491.471821
827.686129	2488.386635
828.003522	2485.387149
828.320872	2482.811119
828.638177	2483.504278
828.955439	2478.223669
829.272656	2474.578915
829.589830	2475.355253
829.906960	2475.897177
830.224046	2472.590180
830.541088	2475.007413
830.858086	2474.021867
831.175041	2474.258802
831.491952	2471.476085
831.808819	2474.092443
832.125642	2475.841724
832.442421	2475.473720
832.759157	2474.949440
833.075849	2478.695017
833.392497	2480.003196
833.709101	2479.163844
834.025662	2480.600573
834.342179	2481.744915
834.658653	2478.412712
834.975083	2477.724595
835.291469	2478.407671
835.607811	2475.657722
835.924110	2474.868781
836.240366	2476.204687
836.556578	2472.355766
836.872746	2475.662763
837.188871	2473.056486
837.504952	2475.539255
837.820990	2472.131435
838.136984	2468.169088
838.452935	2475.158647
838.768842	2473.482464
839.084706	2471.138327
839.400526	2470.926599
839.716303	2474.082361
840.032037	2473.895838
840.347727	2469.048769
840.663373	2475.347691
840.978977	2470.150261
841.294537	2474.488174
841.610054	2471.355097
841.925527	2470.430045
842.240957	2471.975159
842.556344	2471.745786
842.871687	2471.508852
843.186987	2471.077833
843.502244	2471.153451
843.817458	2472.678400
844.132629	2470.858543
844.447756	2468.932822
844.762840	2471.418111
845.077881	2470.016671
845.392879	2472.466671
845.707833	2469.172277
846.022745	2468.597586
846.337613	2470.576239
846.652438	2469.474747
846.967221	2472.131435
847.281960	2468.620271
847.596656	2468.032977
847.911309	2468.592545
848.225919	2467.044910
848.540485	2468.955508
848.855009	2471.367700
849.169490	2470.520786
849.483928	2469.729325
849.798323	2469.394088
850.112675	2470.482977
850.426984	2470.954325
850.741251	2469.222689
851.055474	2467.354941
851.369654	2471.140848
851.683792	2469.852833
851.997887	2469.711681
852.311938	2469.615899
852.625947	2467.964921
852.939914	2470.379634
853.253837	2470.689665
853.567718	2469.318471
853.881555	2466.787812
854.195350	2468.975672
854.509103	2469.187401
854.822812	2469.535240
855.136479	2471.075313
855.450103	2470.251084
855.763685	2467.682616
856.077224	2466.064406
856.390720	2468.232102
856.704173	2463.211113
857.017584	2469.003399
857.330953	2467.100363
857.644278	2469.918368
857.957561	2471.045066
858.270802	2470.235961
858.584000	2470.472895
858.897155	2468.211937
859.210268	2468.544654
859.523339	2469.179839
859.836367	2466.109776
860.149352	2469.625981
860.462295	2469.421814
860.775195	2467.450723
861.088054	2467.851495
861.400869	2472.065900
861.713642	2469.590693
862.026373	2467.359983
862.339062	2468.622792
862.651708	2467.637246
862.964312	2469.373923
863.276873	2469.956177
863.589392	2470.185549
863.901869	2469.933492
864.214303	2467.223871
864.526696	2467.198666
864.839045	2465.744293
865.151353	2471.597072
865.463619	2472.766620
865.775842	2473.452217
866.088023	2468.549695
866.400162	2467.244036
866.712258	2471.798718
867.024313	2468.569859
867.336325	2471.234109
867.648296	2469.555405
867.960224	2471.874336
868.272110	2468.590024
868.583954	2469.643625
868.895755	2468.428707
869.207515	2469.802422
869.519233	2468.826958
869.830909	2470.813173
870.142542	2472.386013
870.454134	2468.705971
870.765684	2473.744604
871.077191	2467.397791
871.388657	2471.745786
871.700081	2467.937195
872.011463	2466.956690
872.322803	2464.476443
872.634101	2468.295117
872.945357	2467.551546
873.256571	2473.313585
873.567744	2469.167236
873.878874	2471.178657
874.189963	2470.606486
874.501010	2471.839048
874.812015	2470.389716
875.122979	2468.317802
875.433900	2471.488688
875.744780	2468.085909
876.055618	2471.715539
876.366415	2469.857874
876.677169	2470.291413
876.987882	2471.478605
877.298554	2469.948615
877.609183	2472.537248
877.919771	2471.786116
878.230317	2471.002216
878.540822	2470.699747
878.851285	2468.721094
879.161707	2471.561784
879.472087	2470.422483
879.782425	2473.401805
880.092722	2471.218986
880.402977	2475.887094
880.713191	2481.999493
881.023363	2487.259937
881.333494	2493.087511
881.643583	2488.452170
881.953631	2491.227325
882.263637	2489.702376
882.573602	2489.956955
882.883526	2485.601398
883.193408	2484.227683
883.503248	2481.525625
883.813048	2483.927735
884.122806	2479.410861
884.432522	2479.020171
884.742197	2477.369193
885.051831	2478.689976
885.361424	2473.152268
885.670975	2471.642443
885.980485	2472.272587
886.289954	2474.959522
886.599382	2473.313585
886.908768	2470.412401
887.218113	2468.274952
887.527417	2467.702781
887.836680	2468.143882
888.145901	2471.304685
888.455082	2470.331743
888.764221	2470.442648
889.073319	2472.496918
889.382376	2473.777371
889.691392	2471.183698
890.000366	2471.108080
890.309300	2467.818728
890.618193	2471.440797
890.927044	2470.682103
891.235855	2469.832668
891.544625	2471.082875
891.853353	2470.704788
892.162041	2470.533389
892.470687	2470.644294
892.779293	2471.113122
893.087858	2471.347535
893.396381	2469.200004
893.704864	2471.516414
894.013306	2472.867443
894.321707	2475.745942
894.630068	2476.371045
894.938387	2475.539255
895.246665	2476.217290
895.554903	2477.570840
895.863100	2473.762248
896.171256	2475.108236
896.479371	2473.986579
896.787446	2474.412557
897.095480	2472.882567
897.403473	2469.439458
897.711425	2474.588997
898.019336	2470.112453
898.327207	2470.901393
898.635038	2468.353090
898.942827	2471.531537
899.250576	2471.561784
899.558284	2470.866105
899.865952	2471.140848
900.173579	2466.210599
900.481165	2469.933492
900.788711	2469.734366
901.096216	2468.030456
901.403681	2472.171764
901.711105	2470.271249
902.018489	2468.700929
902.325832	2469.419294
902.633135	2466.997019
902.940397	2466.107256
903.247619	2468.506845
903.554800	2469.167236
903.861941	2473.182515
904.169041	2474.339460
904.476101	2479.083186
904.783121	2475.511528
905.090100	2474.284007
905.397039	2474.621765
905.703938	2476.131590
906.010796	2473.371558
906.317614	2471.282000
906.624391	2469.749489
906.931129	2470.314099
907.237826	2470.614047
907.544483	2471.067751
907.851099	2468.960549
908.157675	2467.906948
908.464211	2470.117494
908.770707	2469.847792
909.077163	2469.837710
909.383578	2467.662452
909.689954	2468.141361
909.996289	2470.704788
910.302584	2468.171608
910.608839	2469.351238
910.915054	2468.300158
911.221229	2470.644294
911.527363	2466.470219
911.833458	2467.286886
912.139513	2468.355610
912.445527	2470.286372
912.751502	2468.879890
913.057436	2466.311422
913.363331	2466.747482
913.669186	2469.048769
913.975000	2467.697740
914.280775	2467.919551
914.586510	2470.742597
914.892205	2470.689665
915.197859	2471.569346
915.503475	2473.709316
915.809050	2474.430201
916.114585	2475.519090
916.420081	2475.128401
916.725536	2476.527321
917.030952	2476.920531
917.336328	2475.846765
917.641665	2473.734522
917.946961	2471.977679
918.252218	2471.040025
918.557435	2467.433079
918.862612	2469.515076
919.167750	2473.059007
919.472848	2473.724439
919.777906	2470.122535
920.082925	2471.178657
920.387904	2470.304016
920.692843	2469.676393
920.997743	2468.413584
921.302603	2468.673203
921.607423	2469.189921
921.912204	2468.733697
922.216946	2467.244036
922.521647	2467.135651
922.826310	2469.215127
923.130932	2467.380147
923.435516	2467.518779
923.740059	2469.898203
924.044564	2466.069447
924.349028	2467.392750
924.653454	2467.874180
924.957840	2468.035497
925.262186	2469.353759
925.566493	2467.445682
925.870761	2468.569859
926.174989	2467.236474
926.479178	2466.447534
926.783328	2466.056844
927.087438	2466.276134
927.391509	2468.050621
927.695541	2466.084571
927.999533	2467.183542
928.303486	2467.168419
928.607400	2467.203707
928.911275	2466.129941
929.215110	2464.199179
929.518906	2469.300827
929.822663	2466.757565
930.126381	2465.754375
930.430060	2468.559777
930.733699	2466.702112
931.037299	2465.996350
931.340861	2464.915023
931.644383	2466.545836
931.947866	2465.996350
932.251309	2467.670013
932.554714	2465.532564
932.858080	2464.862091
933.161407	2463.213633
933.464694	2464.163891
933.767943	2463.861422
934.071153	2467.286886
934.374323	2465.978706
934.677455	2466.122379
934.980548	2467.085240
935.283602	2467.145733
935.586617	2467.065075
935.889593	2467.569190
936.192530	2468.718573
936.495428	2468.368213
936.798287	2469.714201
937.101108	2464.746144
937.403890	2464.766309
937.706632	2465.724128
938.009336	2465.058696
938.312002	2467.327215
938.614628	2466.238326
938.917216	2467.450723
939.219765	2467.337297
939.522275	2466.737400
939.824747	2468.370734
940.127179	2468.816876
940.429573	2467.269242
940.731929	2469.116825
941.034246	2468.602627
941.336524	2469.033646
941.638763	2466.036680
941.940964	2466.286217
942.243126	2467.337297
942.545250	2468.078347
942.847335	2468.249746
943.149381	2465.393933
943.451389	2468.837041
943.753359	2467.428038
944.055290	2468.958028
944.357182	2465.041052
944.659036	2467.075157
944.960851	2466.399643
945.262628	2466.495425
945.564367	2466.719756
945.866067	2467.160857
946.167729	2465.956021
946.469352	2466.109776
946.770937	2462.621298
947.072484	2466.800414
947.373992	2465.633387
947.675462	2466.286217
947.976893	2465.043572
948.278286	2462.250773
948.579641	2464.214303
948.880958	2461.855043
949.182236	2464.070630
949.483476	2465.635908
949.784678	2466.639097
950.085841	2465.036011
950.386967	2464.317646
950.688054	2469.242853
950.989103	2465.648511
951.290114	2468.320322
951.591087	2464.415949
951.892021	2466.755044
952.192917	2466.371916
952.493776	2466.409725
952.794596	2466.419807
953.095378	2466.540795
953.396122	2466.084571
953.696828	2468.524489
953.997496	2466.220682
954.298126	2465.335959
954.598718	2466.180352
954.899272	2467.710343
955.199788	2466.132462
955.500266	2465.913171
955.800706	2465.371247
956.101108	2464.544498
956.401472	2466.994499
956.701798	2464.773871
957.002087	2466.356793
957.302337	2466.750003
957.602550	2467.455764
957.902724	2465.572893
958.202861	2467.854016
958.502960	2462.943932
958.803022	2465.414097
959.103045	2465.761937
959.403031	2465.852677
959.702979	2465.272945
960.002889	2464.995681
960.302762	2467.657411
960.602596	2462.908644
960.902393	2467.037349
961.202153	2467.443162
961.501875	2467.097842
961.801559	2466.591207
962.101205	2465.487194
962.400814	2468.632874
962.700385	2463.974848
962.999918	2464.148768
963.299414	2458.905968
963.598873	2464.683130
963.898293	2462.782615
964.197677	2465.976186
964.497022	2462.560804
964.796331	2465.981227
965.095601	2466.127420
965.394835	2465.998871
965.694030	2464.978037
965.993189	2465.739252
966.292309	2465.104066
966.591393	2462.558283
966.890439	2463.863942
967.189447	2463.959724
967.488419	2464.453757
967.787353	2463.190948
968.086249	2468.380816
968.385108	2465.993830
968.683930	2463.833695
968.982714	2467.717904
969.281462	2465.129272
969.580172	2464.118521
969.878844	2464.819241
970.177480	2463.402677
970.476078	2466.339149
970.774639	2464.758747
971.073162	2466.606330
971.371649	2464.688171
971.670098	2464.085753
971.968510	2465.078860
972.266885	2466.863429
972.565223	2464.050465
972.863524	2465.948459
973.161788	2461.025773
973.460014	2466.031638
973.758204	2463.420321
974.056356	2469.086578
974.354471	2467.929633
974.652550	2464.731021
974.950591	2468.680765
975.248595	2466.387040
975.546563	2466.815538
975.844493	2464.531895
976.142386	2465.595579
976.440243	2466.450054
976.738062	2467.632205
977.035845	2463.629529
977.333590	2464.549539
977.631299	2463.044755
977.928971	2462.122224
978.226606	2460.463684
978.524204	2460.335135
978.821765	2459.299178
979.119290	2463.450568
979.416777	2464.224385
979.714228	2465.991309
980.011642	2466.021556
980.309020	2464.123562
980.606360	2465.814869
980.903664	2466.250929
981.200931	2466.742441
981.498162	2465.595579
981.795356	2466.949128
982.092513	2464.693212
982.389633	2465.784622
982.686717	2465.880404
982.983764	2465.182204
983.280775	2466.389560
983.577749	2465.507358
983.874686	2465.204889
984.171587	2465.719087
984.468451	2466.470219
984.765279	2467.889304
985.062070	2466.210599
985.358824	2465.381330
985.655543	2468.363172
985.952224	2466.225723
986.248869	2466.502986
986.545478	2464.725980
986.842050	2464.574745
987.138586	2466.162708
987.435086	2468.201855
987.731549	2462.772533
988.027975	2466.785291
988.324366	2464.925105
988.620719	2464.047944
988.917037	2464.909982
989.213318	2464.584827
989.509563	2463.642132
989.805772	2465.512400
990.101944	2463.944601
990.398080	2465.318315
990.694180	2463.294292
990.990244	2463.868983
991.286271	2464.637759
991.582262	2463.064919
991.878217	2464.186576
992.174136	2468.058182
992.470019	2465.950980
992.765865	2461.184569
993.061676	2462.238170
993.357450	2462.858232
993.653188	2464.042903
993.948890	2465.736731
994.244556	2462.238170
994.540186	2465.000723
994.835780	2465.391412
995.131337	2463.531226
995.426859	2461.928139
995.722345	2465.308233
996.017795	2465.595579
996.313208	2464.799076
996.608586	2462.785135
996.903928	2465.182204
997.199234	2464.872173
997.494504	2462.402008
997.789738	2466.208079
998.084936	2464.778912
998.380099	2466.515589
998.675225	2465.177163
998.970316	2464.254632
999.265371	2465.298151
999.560390	2467.617081
999.855373	2463.952163
1000.150320	2464.110959
1000.445232	2462.714559
1000.740108	2464.287399
1001.034948	2466.439972
1001.329752	2464.153809
1001.624521	2467.395271
1001.919254	2465.459468
1002.213951	2464.602471
1002.508613	2464.199179
1002.803239	2464.194138
1003.097829	2463.644652
1003.392384	2464.413428
1003.686903	2462.908644
1003.981386	2466.717235
1004.275834	2465.000722
1004.570246	2464.678089
1004.864623	2463.702625
1005.158964	2465.343521
1005.453270	2462.679271
1005.747540	2462.485187
1006.041775	2463.601802
1006.335974	2464.126082
1006.630138	2463.206072
1006.924266	2464.521813
1007.218359	2464.173973
1007.512416	2463.410238
1007.806438	2459.702470
1008.100425	2463.901751
1008.394376	2460.015021
1008.688292	2464.332770
1008.982172	2463.390074
1009.276017	2463.637090
1009.569827	2463.924436
1009.863602	2465.555249
1010.157341	2465.688840
1010.451045	2465.439303
1010.744714	2463.942080
1011.038347	2465.714046
1011.331945	2461.363530
1011.625508	2462.286061
1011.919036	2462.938891
1012.212528	2466.639097
1012.505986	2463.770681
1012.799408	2464.887297
1013.092795	2461.484518
1013.386147	2463.659776
1013.679464	2462.349076
1013.972745	2465.036011
1014.265992	2463.178345
1014.559204	2463.581638
1014.852380	2464.799076
1015.145521	2464.516772
1015.438628	2462.984261
1015.731699	2463.483335
1016.024736	2465.310753
1016.317737	2462.535598
1016.610703	2464.841926
1016.903635	2463.165742
1017.196531	2461.968468
1017.489393	2463.107769
1017.782219	2459.581482
1018.075011	2466.886114
1018.367768	2463.231278
1018.660490	2464.204220
1018.953177	2464.204220
1019.245829	2464.204220
