Dividing Wavelength (nm)	Counts (n)	Blue Motor Position (mm): 0.000000	Red Motor Position (mm): 37.000000	
326.493990	2053.307332
326.888308	2053.307332
327.282561	2053.307332
327.676750	2027.105935
328.070874	2028.076357
328.464933	2036.104394
328.858929	2045.770807
329.252859	2054.688608
329.646726	2066.081616
330.040528	2083.161045
330.434265	2100.714343
330.827938	2121.859463
331.221547	2142.031640
331.615091	2161.795483
332.008571	2184.105110
332.401986	2200.758561
332.795338	2221.107179
333.188625	2242.985787
333.581847	2261.267531
333.975006	2278.162958
334.368100	2298.067954
334.761129	2312.354584
335.154095	2330.333859
335.546996	2350.410254
335.939833	2393.350803
336.332606	2406.563667
336.725315	2417.518094
337.117960	2429.420259
337.510540	2441.473658
337.903056	2448.362394
338.295508	2452.891871
338.687896	2461.550053
339.080220	2466.162708
339.472480	2473.646301
339.864676	2476.537403
340.256807	2479.569657
340.648875	2480.562764
341.040879	2482.690131
341.432818	2483.053094
341.824694	2483.872282
342.216506	2485.243476
342.608253	2486.024855
342.999937	2484.928404
343.391557	2481.946561
343.783113	2481.588639
344.174605	2480.046046
344.566033	2479.945223
344.957397	2480.184678
345.348697	2477.026395
345.739934	2474.722588
346.131106	2472.484315
346.522215	2472.607824
346.913260	2467.785960
347.304241	2467.843933
347.695159	2466.631536
348.086012	2468.395940
348.476802	2462.225567
348.867528	2458.492593
349.258191	2455.893878
349.648789	2456.224074
350.039324	2456.226594
350.429796	2459.369754
350.820203	2457.832202
351.210548	2457.897737
351.600828	2456.571913
351.991045	2457.144084
352.381198	2458.656430
352.771288	2454.953703
353.161314	2455.788014
353.551276	2455.120061
353.941175	2455.762808
354.331010	2456.776080
354.720782	2457.363374
355.110490	2456.738271
355.500135	2455.767849
355.889717	2458.865638
356.279235	2454.580657
356.668689	2458.611060
357.058080	2457.081070
357.447408	2457.418827
357.836672	2457.239866
358.225873	2458.971502
358.615010	2461.214816
359.004084	2460.619960
359.393095	2462.684312
359.782043	2459.631894
360.170927	2461.514765
360.559748	2462.530557
360.948505	2463.201031
361.337199	2466.409725
361.725830	2462.195320
362.114398	2463.876545
362.502903	2465.283027
362.891344	2466.863429
363.279722	2463.516103
363.668037	2467.107925
364.056289	2465.840075
364.444478	2468.022894
364.832603	2468.965590
365.220665	2467.906948
365.608665	2470.130097
365.996601	2470.089767
366.384474	2471.884418
366.772284	2471.753348
367.160031	2471.289562
367.547715	2470.661938
367.935336	2472.386013
368.322893	2471.491208
368.710388	2469.184880
369.097820	2470.233440
369.485189	2469.071454
369.872495	2475.629995
370.259738	2474.231075
370.646918	2475.060345
371.034035	2477.149903
371.421090	2477.238123
371.808081	2480.623258
372.195010	2478.004379
372.581875	2482.017137
372.968678	2483.126191
373.355418	2486.869248
373.742096	2487.774135
374.128710	2487.854793
374.515262	2492.432161
374.901751	2493.914260
375.288177	2496.757471
375.674540	2498.703357
376.060841	2505.980262
376.447079	2510.124091
376.833254	2513.675583
377.219367	2517.859741
377.605417	2524.055319
377.991404	2528.249559
378.377329	2539.171219
378.763191	2546.276725
379.148991	2550.985163
379.534727	2562.587379
379.920402	2568.278841
380.306013	2579.797878
380.691563	2591.120309
381.077049	2598.992071
381.462474	2613.230810
381.847835	2626.499127
382.233134	2638.076137
382.618371	2651.273878
383.003545	2667.019922
383.388657	2680.144566
383.773706	2699.774819
384.158693	2710.683876
384.543618	2729.999057
384.928480	2743.413567
385.313280	2767.487597
385.698017	2785.920576
386.082692	2807.416056
386.467305	2823.514981
386.851856	2849.066069
387.236344	2875.378372
387.620770	2893.244221
388.005133	2912.153589
388.389435	2945.498301
388.773674	2961.025055
389.157851	2995.579644
389.541965	3021.302132
389.926018	3032.737989
390.310008	3064.431723
390.693936	3091.260744
391.077802	3117.976339
391.461606	3148.009013
391.845348	3169.459123
392.229027	3196.343596
392.612645	3238.137282
392.996200	3264.421858
393.379694	3301.570121
393.763125	3344.659383
394.146494	3370.545708
394.529801	3407.885535
394.913047	3453.538224
395.296230	3455.277422
395.679351	3482.930672
396.062410	3531.711397
396.445408	3511.312368
396.828343	3550.880384
397.211217	3585.815581
397.594028	3560.430850
397.976778	3605.040021
398.359466	3641.767347
398.742092	3652.421826
399.124656	3664.739885
399.507158	3725.531159
399.889598	3730.226994
400.271977	3794.612611
400.654294	3786.660191
401.036549	3843.579859
401.418742	3844.320909
401.800874	3911.000251
402.182944	3937.133592
402.564952	4023.564175
402.946898	4019.415305
403.328783	4014.023791
403.710606	4062.333168
404.092367	4137.050630
404.474067	4194.154300
404.855705	4179.245088
405.237282	4151.133093
405.618797	4250.925254
406.000250	4326.845031
406.381642	4409.283020
406.762972	4411.599430
407.144240	4375.403946
407.525447	4439.973565
407.906593	4460.604487
408.287677	4540.920150
408.668700	4568.049119
409.049661	4608.713587
409.430560	4643.575686
409.811399	4624.762100
410.192176	4681.134803
410.572891	4754.942337
410.953545	4864.889902
411.334138	4760.548100
411.714669	4869.530284
412.095139	4785.912665
412.475547	4897.657402
412.855894	4900.984563
413.236180	4997.822608
413.616405	4925.023306
413.996568	5035.359040
414.376670	5036.868865
414.756711	5029.864182
415.136691	5102.184575
415.516609	5185.282955
415.896466	5222.579932
416.276262	5300.874092
416.655997	5411.018263
417.035670	5504.294732
417.415283	5647.130785
417.794834	5716.655859
418.174324	5680.775446
418.553753	5683.114542
418.933121	5844.267627
419.312428	5859.481829
419.691674	5784.114059
420.070859	6007.348954
420.449983	5886.094081
420.829045	6085.096149
421.208047	6007.263254
421.586988	6165.361401
421.965867	6237.039047
422.344686	6324.578683
422.723444	6487.463405
423.102141	6108.275375
423.480777	6495.521690
423.859352	6306.138142
424.237866	6680.065729
424.616319	6669.998545
424.994712	6838.141190
425.373044	6748.023003
425.751314	7063.528658
426.129524	6787.109590
426.507673	7053.713532
426.885762	7092.621157
427.263789	7136.559854
427.641756	7220.401804
428.019662	7299.404247
428.397508	7341.739857
428.775292	7320.516599
429.153016	7493.836509
429.530679	7427.046262
429.908282	7480.419478
430.285824	7412.454642
430.663305	7699.399640
431.040726	7583.939573
431.418086	7589.978875
431.795385	7719.541570
432.172624	7913.492402
432.549802	7795.441182
432.926920	7928.966224
433.303977	7872.452369
433.680974	7910.450066
434.057910	8117.112168
434.434786	8167.732914
434.811601	8129.026935
435.188355	8462.171587
435.565050	8353.466666
435.941683	8361.824899
436.318257	8696.423924
436.694770	8649.813415
437.071222	8873.441521
437.447614	8654.728540
437.823946	8616.567006
438.200218	8769.074513
438.576429	8649.548755
438.952580	8814.689393
439.328670	8824.534767
439.704700	8897.323987
440.080670	8788.523284
440.456580	9061.920181
440.832429	9039.066110
441.208218	8780.575905
441.583947	8892.983553
441.959616	9011.632150
442.335224	9043.230103
442.710773	9122.603070
443.086261	9309.410588
443.461689	9024.308132
443.837057	9192.264254
444.212365	9406.397346
444.587612	9394.674143
444.962800	9285.046691
445.337927	9420.520139
445.712995	8960.076270
446.088002	9630.227098
446.462949	9690.045429
446.837837	9675.121093
447.212664	9694.673208
447.587431	10523.874961
447.962139	11533.270236
448.336786	12472.311169
448.711374	12262.352153
449.085901	11042.365195
449.460369	10963.851745
449.834776	10739.943856
450.209124	11657.249853
450.583412	11476.610188
450.957640	11796.506687
451.331808	11384.168029
451.705917	10814.240381
452.079965	10699.201250
452.453954	10893.046218
452.827883	10832.761580
453.201752	10810.976234
453.575562	10815.969497
453.949311	11157.837865
454.323001	11223.647608
454.696632	11140.788683
455.070202	11729.003117
455.443713	11788.818928
455.817164	11963.346194
456.190556	12268.182247
456.563888	12140.225159
456.937160	12401.339285
457.310373	11890.446069
457.683526	11900.092317
458.056619	11919.420100
458.429653	11985.771767
458.802628	12121.840071
459.175542	12176.203874
459.548398	12731.789440
459.921194	13302.891677
460.293930	13577.937031
460.666607	14440.942240
461.039224	15236.433796
461.411782	15592.568630
461.784280	15263.809782
462.156719	15221.065839
462.529099	15124.230314
462.901419	14478.443383
463.273680	14077.928751
463.645882	14291.406493
464.018024	14173.146065
464.390106	14545.566347
464.762130	15599.848056
465.134094	17128.719112
465.505999	19428.886707
465.877845	21702.870549
466.249631	22956.512249
466.621358	22504.474504
466.993026	21700.133202
467.364634	20948.018254
467.736184	20145.345574
468.107674	19525.820534
468.479105	19390.737775
468.850477	19119.196023
469.221790	18686.440692
469.593043	18017.920678
469.964238	17627.311913
470.335373	17686.734514
470.706449	18406.875944
471.077467	19249.797196
471.448425	21724.136656
471.819324	23612.023566
472.190164	23529.893087
472.560945	21785.432046
472.931667	20203.467557
473.302330	19864.036587
473.672934	19302.416760
474.043479	19739.424305
474.413965	19515.982722
474.784393	19348.003914
475.154761	20014.121819
475.525070	20128.472832
475.895321	19968.862340
476.265513	20496.073771
476.635645	21090.385480
477.005719	21151.428812
477.375734	21519.301973
477.745691	22150.950988
478.115588	22783.217544
478.485427	23986.213292
478.855207	25795.443078
479.224928	27610.596220
479.594591	29044.383553
479.964194	28696.576705
480.333739	29174.568831
480.703226	29383.837209
481.072653	29825.023870
481.442022	30347.282368
481.811333	30757.561715
482.180584	30331.972383
482.549777	30107.769587
482.918912	29863.034170
483.287988	29815.304526
483.657005	29654.728652
484.025964	29292.925041
484.394864	29478.689039
484.763706	29394.554702
485.132489	28860.668784
485.501213	28939.988819
485.869879	29120.792322
486.238487	29046.818431
486.607036	29315.501848
486.975527	29002.453756
487.343959	29351.846047
487.712333	29704.739419
488.080648	29661.700568
488.448905	30103.860172
488.817104	29971.734050
489.185244	30802.846400
489.553326	31770.279111
489.921350	33654.460772
490.289315	36181.434920
490.657222	37108.843390
491.025070	37701.972948
491.392861	37433.491177
491.760593	36661.410739
492.128267	35649.925905
492.495883	34682.233574
492.863440	33764.821712
493.230939	32792.350368
493.598380	32215.894426
493.965763	32057.642524
494.333088	31545.801571
494.700354	31354.840143
495.067563	31316.411427
495.434713	31188.875276
495.801805	31476.979739
496.168839	31302.439869
496.535815	31155.565852
496.902733	31287.392025
497.269593	31106.404520
497.636395	31257.936563
498.003139	31535.605837
498.369825	31285.647786
498.736453	31697.527699
499.103023	31523.776770
499.469535	31626.868366
499.835989	31729.455847
500.202385	31603.825252
500.568723	31638.954532
500.935003	31950.185289
501.301226	31828.653152
501.667390	32550.891702
502.033497	32769.282048
502.399546	32548.388769
502.765537	32168.167302
503.131470	32633.445637
503.497345	33079.045828
503.863163	32011.485719
504.228923	32792.148722
504.594625	33178.401929
504.960269	32650.772083
505.325856	33324.134125
505.691385	32982.812722
506.056856	33317.205059
506.422270	33810.434072
506.787625	33313.726663
507.152924	33775.753454
507.518164	33942.224957
507.883347	33532.205230
508.248472	33668.364275
508.613540	34359.443453
508.978550	34587.298565
509.343503	34425.386786
509.708398	34771.547697
510.073236	35367.323862
510.438016	35454.248477
510.802738	35135.072863
511.167403	35679.827509
511.532010	35946.038241
511.896561	36455.131765
512.261053	37211.541776
512.625488	36997.093612
512.989866	36896.852788
513.354186	36954.856304
513.718449	36923.883455
514.082655	37804.875501
514.446803	37483.045719
514.810894	38125.497927
515.174927	38112.464024
515.538904	38126.357444
515.902822	38762.324207
516.266684	38448.671177
516.630488	38799.253180
516.994235	38799.432141
517.357925	39388.291842
517.721558	39639.293413
518.085133	40011.171770
518.448651	40199.015245
518.812112	40089.808729
519.175516	40240.826575
519.538863	40686.421725
519.902152	40749.257187
520.265385	41283.319546
520.628560	41303.705972
520.991678	41253.838878
521.354739	41484.965700
521.717743	41828.976559
522.080690	41725.322874
522.443580	42412.389294
522.806413	42428.089967
523.169189	42558.633167
523.531908	42780.481745
523.894569	42618.577527
524.257174	42809.980056
524.619722	43145.272240
524.982213	43303.123370
525.344647	43352.950134
525.707025	43453.785814
526.069345	43880.474117
526.431608	43796.440603
526.793815	44180.357236
527.155964	43700.018453
527.518057	43964.550481
527.880093	43812.002645
528.242072	44433.720587
528.603995	44155.567362
528.965860	44059.530860
529.327669	44277.885918
529.689421	44325.194627
530.051117	44283.143842
530.412755	44541.530703
530.774337	44585.192136
531.135862	44511.303944
531.497331	44668.824879
531.858743	44641.985776
532.220098	45041.958483
532.581396	44739.572432
532.942638	44500.314229
533.303824	44744.089306
533.664953	44790.122602
534.026025	44449.897649
534.387040	45004.427093
534.747999	45043.571653
535.108902	45362.104520
535.469748	44668.441751
535.830537	44921.916008
536.191270	45156.349826
536.551947	44878.799019
536.912567	45107.652280
537.273131	45226.951186
537.633638	44844.367938
537.994089	44998.405435
538.354483	44723.682715
538.714821	45339.789853
539.075103	45620.640095
539.435328	45442.548733
539.795497	45176.542168
540.155609	45270.048010
540.515665	45833.928794
540.875665	45099.830930
541.235609	45335.739286
541.595496	45463.426671
541.955328	45981.528737
542.315102	45387.864816
542.674821	45260.401762
543.034483	45125.490403
543.394090	45095.694663
543.753640	45042.747424
544.113134	46044.921247
544.472571	45121.165093
544.831953	46209.429220
545.191278	45426.679180
545.550548	45083.396768
545.909761	45659.414130
546.268918	45735.979175
546.628019	46091.801457
546.987064	45489.713768
547.346053	44781.313186
547.704986	45627.216280
548.063863	45199.071084
548.422684	45342.950656
548.781449	44883.751952
549.140158	45342.350759
549.498811	45035.205858
549.857408	44394.265996
550.215949	45142.433721
550.574434	44917.636068
550.932864	44821.166027
551.291237	45443.869515
551.649555	45126.163397
552.007817	45212.294031
552.366022	44864.799734
552.724173	44850.109812
553.082267	45157.037943
553.440305	45436.428772
553.798288	44620.311335
554.156215	44929.384477
554.514086	45038.825406
554.871902	44554.912446
555.229661	44651.397610
555.587365	44252.702834
555.945014	44287.620387
556.302606	44218.367536
556.660143	44219.690838
557.017625	44349.293863
557.375050	43941.562819
557.732421	44216.373759
558.089735	44195.407600
558.446994	43952.066063
558.804197	44310.885312
559.161345	44069.736676
559.518437	43340.256509
559.875474	43493.704191
560.232455	43577.798199
560.589381	43499.768699
560.946251	43257.516051
561.303065	43722.166763
561.659825	43311.917663
562.016528	43006.048173
562.373177	42510.454859
562.729770	42978.352074
563.086307	42401.434866
563.442789	42784.192034
563.799216	42517.484748
564.155587	42314.598471
564.511904	42150.380364
564.868164	42067.294587
565.224370	42223.651014
565.580520	41841.395442
565.936615	41876.431461
566.292654	41423.173757
566.648638	41610.354320
567.004567	41409.706314
567.360441	41351.173477
567.716260	40962.475310
568.072023	41161.119456
568.427732	40933.060177
568.783385	40365.511953
569.138982	40592.585687
569.494525	40569.953427
569.850013	40069.046737
570.205445	40036.455677
570.560823	39683.713540
570.916145	39414.626830
571.271412	39457.995876
571.626625	39004.753296
571.981782	38897.671626
572.336884	38406.053262
572.691931	38514.082668
573.046923	38047.458345
573.401860	37745.500791
573.756743	37606.564071
574.111570	37552.560710
574.466342	37311.021385
574.821059	37287.085987
575.175722	36699.128652
575.530330	36611.374767
575.884882	36166.621489
576.239380	35893.262401
576.593823	35804.775028
576.948211	35597.429849
577.302544	35062.679373
577.656823	34892.200153
578.011047	34910.096249
578.365216	34608.448726
578.719330	34202.552662
579.073389	34021.076165
579.427394	33887.677152
579.781344	33621.345433
580.135239	33257.893364
580.489080	33142.450941
580.842866	32589.993411
581.196597	32761.954731
581.550273	32583.865889
581.903895	32339.821111
582.257463	32476.365804
582.610975	31895.420714
582.964434	31929.660231
583.317837	31384.091438
583.671186	31193.109845
584.024481	31193.684537
584.377721	30693.150892
584.730906	30653.638328
585.084037	30575.351729
585.437113	30206.669463
585.790135	30101.316910
586.143103	29599.994324
586.496016	29536.833708
586.848874	29437.129767
587.201679	29263.734239
587.554428	28730.208763
587.907124	28718.941784
588.259765	28393.802485
588.612352	28314.918509
588.964884	27776.893803
589.317362	27787.702037
589.669786	27595.094672
590.022155	27334.509868
590.374470	27434.680116
590.726731	26993.017066
591.078937	26412.059373
591.431090	26461.588709
591.783188	25961.385260
592.135232	25669.515055
592.487222	25647.704503
592.839157	25554.995163
593.191038	25170.985269
593.542866	24881.827205
593.894639	24350.935732
594.246358	24353.731052
594.598022	24172.882178
594.949633	23740.562907
595.301190	23565.040012
595.652692	23359.492005
596.004141	23472.323110
596.355535	22689.346218
596.706876	22525.516280
597.058162	22195.834901
597.409395	22300.211991
597.760573	22245.288620
598.111698	21871.721476
598.462768	21653.608393
598.813785	21502.416628
599.164748	21143.312554
599.515657	21112.558995
599.866511	20696.162208
600.217312	20865.234946
600.568060	20209.953002
600.918753	20446.506625
601.269392	20230.846064
601.619978	19953.597726
601.970510	19882.041067
602.320988	19788.280647
602.671412	19752.808568
603.021783	19532.053921
603.372100	19186.566003
603.722363	19081.730168
604.072572	18929.567980
604.422728	18773.425802
604.772830	18531.808339
605.122878	18451.739693
605.472872	18239.086179
605.822813	18189.251853
606.172701	17926.711081
606.522534	17915.340759
606.872314	17846.019852
607.222041	17625.323178
607.571714	17613.915047
607.921333	17249.535406
608.270899	17194.092796
608.620411	17203.136626
608.969870	16965.736088
609.319276	16824.324161
609.668627	16707.273610
610.017926	16710.167232
610.367171	16623.053573
610.716362	16505.912281
611.065500	16335.750654
611.414585	16268.806651
611.763616	16194.583222
612.112594	16022.321954
612.461518	15940.776250
612.810389	15939.163081
613.159207	15740.652524
613.507971	15598.701194
613.856682	15636.991278
614.205340	15449.682166
614.553945	15540.919488
614.902496	15202.831985
615.250994	15222.182454
615.599439	15115.582215
615.947830	15031.586510
616.296169	14911.163427
616.644454	14798.198731
616.992686	14727.020159
617.340864	14746.398354
617.688990	14492.563655
618.037063	14575.409978
618.385082	14408.683896
618.733048	14394.919026
619.080961	14242.756838
619.428821	14142.158093
619.776628	14029.803376
620.124382	13872.436197
620.472083	13778.078400
620.819731	13702.496380
621.167326	13461.002426
621.514868	13341.232172
621.862357	13075.321389
622.209793	12974.120226
622.557176	12742.398548
622.904506	12548.175493
623.251783	12346.642765
623.599007	12159.633602
623.946179	12024.346677
624.293297	11856.977848
624.640363	11616.497166
624.987376	11483.808955
625.334336	11334.585760
625.681243	11146.185238
626.028097	11029.326251
626.374899	10897.762218
626.721647	10791.776999
627.068343	10658.728347
627.414987	10506.364513
627.761577	10370.724707
628.108115	10355.041677
628.454600	10115.806160
628.801032	10082.761396
629.147412	9980.073092
629.493739	9875.025528
629.840014	9714.391682
630.186236	9722.076921
630.532405	9546.133090
630.878521	9513.055559
631.224585	9400.509279
631.570597	9277.374055
631.916556	9236.636491
632.262462	9155.438626
632.608316	9070.134741
632.954117	8980.142583
633.299866	8898.969924
633.645562	8818.366915
633.991206	8660.019231
634.336797	8515.995987
634.682336	8425.847553
635.027823	8312.230028
635.373257	8217.539514
635.718639	8098.994261
636.063968	8018.005604
636.409245	7840.196546
636.754470	7771.253726
637.099642	7675.388624
637.444762	7523.259204
637.789829	7480.250600
638.134845	7365.556788
638.479808	7293.286806
638.824719	7236.215904
639.169577	7112.074970
639.514383	7068.728608
639.859137	6962.095602
640.203839	6929.562515
640.548489	6845.297108
640.893086	6791.755013
641.237632	6698.687751
641.582125	6664.692730
641.926566	6591.568273
642.270955	6545.797117
642.615292	6487.924671
642.959576	6427.198932
643.303809	6383.386263
643.647990	6349.325707
643.992118	6303.698224
644.336195	6239.980560
644.680219	6206.174582
645.024192	6186.362848
645.368112	6203.636361
645.711981	6166.780486
646.055797	6204.521084
646.399562	6154.283465
646.743274	6214.888217
647.086935	6220.556994
647.430544	6189.274114
647.774101	6154.419576
648.117606	6147.714842
648.461059	6124.870853
648.804460	6038.969592
649.147810	5941.972750
649.491108	5866.025247
649.834354	5808.883768
650.177548	5688.095202
650.520690	5592.638433
650.863781	5549.856681
651.206820	5500.183671
651.549807	5422.459161
651.892742	5330.984904
652.235626	5286.584942
652.578458	5238.754474
652.921238	5142.508765
653.263967	5139.761336
653.606644	5079.854784
653.949269	5038.300553
654.291843	4968.793124
654.634365	4969.468638
654.976836	4902.804420
655.319255	4882.055031
655.661622	4839.595912
656.003938	4795.687462
656.346203	4756.643726
656.688416	4745.507817
657.030577	4697.309345
657.372687	4656.390299
657.714746	4640.467815
658.056753	4625.883757
658.398708	4552.411460
658.740612	4525.521946
659.082465	4517.937530
659.424266	4481.883197
659.766016	4459.107264
660.107715	4422.594187
660.449362	4403.284047
660.790958	4383.308475
661.132503	4351.924772
661.473996	4333.247297
661.815438	4314.952949
662.156829	4298.410403
662.498168	4260.682408
662.839456	4236.308429
663.180693	4221.535328
663.521879	4199.898695
663.863013	4176.346424
664.204097	4149.182167
664.545129	4153.325995
664.886110	4128.649547
665.227040	4111.335704
665.567918	4091.710492
665.908746	4074.769695
666.249522	4060.586409
666.590248	4045.122669
666.930922	4032.038354
667.271545	4011.863657
667.612118	3992.765245
667.952639	3963.181234
668.293109	3947.016774
668.633528	3918.486364
668.973896	3891.942168
669.314213	3871.780074
669.654480	3842.128007
669.994695	3821.902898
670.334859	3801.183755
670.674973	3774.500928
671.015035	3759.730347
671.355047	3744.768203
671.695008	3723.318093
672.034918	3704.237326
672.374777	3690.560675
672.714585	3673.219106
673.054342	3662.526819
673.394049	3641.865650
673.733705	3635.932212
674.073310	3613.577215
674.412864	3593.221036
674.752368	3569.419228
675.091820	3564.141140
675.431223	3532.134854
675.770574	3512.421422
676.109875	3489.015344
676.449125	3465.785708
676.788324	3445.777368
677.127473	3413.153541
677.466571	3398.345151
677.805619	3379.508880
678.144616	3367.692415
678.483562	3355.578523
678.822458	3331.698577
679.161303	3320.169458
679.500098	3302.737148
679.838842	3290.708955
680.177535	3282.426339
680.516179	3280.661935
680.854771	3266.322373
681.193314	3278.542130
681.531805	3296.828916
681.870247	3309.893066
682.208638	3322.926969
682.546978	3322.949654
682.885268	3320.978563
683.223508	3301.292858
683.561697	3284.435239
683.899836	3269.664658
684.237925	3252.093717
684.575963	3241.928230
684.913951	3221.100703
685.251889	3218.688511
685.589776	3209.359855
685.927614	3200.943649
686.265401	3198.052547
686.603137	3192.043492
686.940824	3197.906354
687.278460	3201.162939
687.616046	3201.067157
687.953582	3208.462530
688.291068	3206.095708
688.628504	3206.952704
688.965889	3200.487425
689.303224	3190.198430
689.640510	3176.085719
689.977745	3150.925321
690.314930	3134.413021
690.652065	3113.469548
690.989150	3087.187492
691.326185	3066.266703
691.663170	3046.175185
692.000105	3025.251876
692.336990	3006.108094
692.673825	2993.701814
693.010610	2975.911583
693.347345	2963.762402
693.684030	2944.399330
694.020665	2940.227775
694.357251	2918.104671
694.693786	2919.619538
695.030272	2909.280132
695.366707	2895.860580
695.703093	2887.222563
696.039429	2886.249620
696.375716	2875.630430
696.711952	2872.114225
697.048139	2864.706249
697.384276	2862.268851
697.720363	2863.057792
698.056400	2857.804910
698.392388	2850.759897
698.728326	2848.927438
699.064214	2842.343691
699.400053	2840.488546
699.735842	2831.018739
700.071581	2825.748212
700.407270	2820.583550
700.742910	2816.235555
701.078501	2807.458906
701.414042	2804.018319
701.749533	2795.723100
702.084974	2788.541976
702.420366	2788.796555
702.755709	2781.287756
703.091002	2777.743825
703.426246	2775.223248
703.761440	2772.523710
704.096584	2768.989861
704.431679	2766.068512
704.766725	2764.344438
705.101721	2763.714294
705.436668	2759.179776
705.771565	2751.486975
706.106413	2757.627100
706.441212	2757.566607
706.775961	2757.735485
707.110661	2755.794641
707.445311	2758.988212
707.779913	2757.024682
708.114465	2756.752460
708.448967	2757.092738
708.783421	2764.457864
709.117825	2769.141096
709.452180	2771.896086
709.786485	2772.727877
710.120742	2778.610903
710.454949	2778.084103
710.789107	2782.679114
711.123216	2789.918211
711.457275	2795.952472
711.791286	2803.804070
712.125247	2805.036632
712.459159	2803.287351
712.793023	2812.774803
713.126837	2800.882721
713.460602	2800.111424
713.794318	2796.983388
714.127985	2789.474590
714.461602	2779.538476
714.795171	2777.176695
715.128691	2763.968872
715.462162	2758.842018
715.795584	2749.495719
716.128957	2744.023547
716.462281	2739.935171
716.795556	2735.917371
717.128782	2728.496793
717.461960	2721.852552
717.795088	2721.398848
718.128167	2714.474823
718.461198	2709.146324
718.794180	2706.935778
719.127113	2700.830941
719.459997	2699.139633
719.792833	2694.743747
720.125619	2692.220650
720.458357	2690.887265
720.791046	2687.101358
721.123686	2683.348219
721.456278	2680.507529
721.788821	2677.860923
722.121315	2674.977383
722.453761	2674.566529
722.786158	2672.872701
723.118506	2675.123577
723.450805	2671.854388
723.783056	2674.717764
724.115259	2675.287414
724.447412	2671.050324
724.779518	2675.884791
725.111574	2674.054852
725.443582	2674.299348
725.775542	2675.045439
726.107453	2678.324709
726.439315	2679.159020
726.771129	2683.819567
727.102895	2683.771676
727.434612	2684.394258
727.766281	2685.659588
728.097901	2692.192923
728.429473	2690.105886
728.760996	2694.083356
729.092471	2692.187882
729.423897	2691.560259
729.755276	2689.528674
730.086606	2690.521781
730.417887	2694.582430
730.749120	2700.490663
731.080305	2701.589634
731.411442	2705.483926
731.742530	2703.734645
732.073570	2706.895449
732.404562	2711.069524
732.735506	2710.394009
733.066401	2707.223124
733.397249	2703.379244
733.728048	2693.861545
734.058798	2688.923735
734.389501	2678.543999
734.720156	2673.487722
735.050762	2665.883142
735.381320	2661.983809
735.711831	2657.908036
736.042293	2653.315545
736.372707	2652.544248
736.703073	2650.051398
737.033391	2650.661377
737.363661	2652.052736
737.693883	2652.788744
738.024056	2652.340082
738.354182	2652.234217
738.684260	2657.270330
739.014290	2659.438026
739.344272	2661.590599
739.674207	2665.076557
740.004093	2666.185611
740.333931	2665.318532
740.663722	2666.470436
740.993464	2664.862308
741.323159	2665.308450
741.652806	2662.482883
741.982405	2661.474652
742.311956	2654.301091
742.641460	2656.436019
742.970915	2652.309835
743.300323	2645.970584
743.629683	2641.894811
743.958996	2640.160654
744.288260	2634.383492
744.617477	2634.902731
744.946647	2635.742083
745.275768	2632.525827
745.604842	2629.092801
745.933869	2625.634569
746.262847	2625.014507
746.591778	2623.451750
746.920662	2623.766822
747.249498	2621.069804
747.578286	2624.850670
747.907027	2626.514251
748.235720	2630.587503
748.564365	2630.968110
748.892963	2628.714714
749.221514	2627.913171
749.550017	2627.164559
749.878473	2628.918881
750.206881	2621.631893
750.535242	2622.309928
750.863555	2620.958899
751.191821	2620.371605
751.520039	2620.162397
751.848210	2621.228601
752.176334	2622.017541
752.504411	2618.261882
752.832440	2616.290791
753.160421	2616.172323
753.488356	2613.550923
753.816243	2617.029320
754.144082	2613.593773
754.471875	2612.414143
754.799620	2615.015379
755.127318	2613.656788
755.454969	2612.512446
755.782572	2612.761983
756.110129	2611.572271
756.437638	2610.548916
756.765100	2608.996241
757.092515	2609.016406
757.419882	2608.832403
757.747203	2610.793412
758.074477	2610.087651
758.401703	2609.533124
758.728882	2610.637137
759.056014	2612.701489
759.383099	2613.719802
759.710138	2611.181581
760.037129	2612.741818
760.364073	2614.793568
760.690970	2610.569081
761.017820	2619.058384
761.344623	2618.796244
761.671379	2622.214146
761.998088	2625.506020
762.324751	2641.017650
762.651366	2669.474964
762.977935	2708.319575
763.304456	2736.214799
763.630931	2754.927562
763.957359	2749.142838
764.283740	2731.937380
764.610074	2713.383414
764.936362	2689.720238
765.262602	2670.422701
765.588796	2650.618528
765.914943	2637.970273
766.241044	2623.323200
766.567097	2618.937396
766.893104	2608.630757
767.219064	2601.174891
767.544978	2596.209354
767.870845	2593.005701
768.196665	2589.181986
768.522438	2586.918508
768.848165	2583.616552
769.173846	2582.452045
769.499479	2578.666139
769.825066	2577.093299
770.150607	2576.349729
770.476101	2576.337126
770.801548	2573.110787
771.126949	2571.331260
771.452303	2571.888307
771.777611	2568.851012
772.102872	2568.167936
772.428087	2568.188101
772.753256	2568.914027
773.078378	2565.798594
773.403453	2561.722821
773.728482	2562.602502
774.053465	2561.248952
774.378401	2558.715772
774.703291	2553.967006
775.028135	2556.502706
775.352932	2556.157387
775.677683	2554.892057
776.002388	2552.938610
776.327046	2550.324772
776.651658	2554.009855
776.976224	2546.271684
777.300743	2554.496327
777.625216	2548.832590
777.949643	2550.874258
778.274024	2551.058260
778.598359	2548.310831
778.922647	2549.361912
779.246889	2550.770914
779.571086	2547.612631
779.895236	2549.339226
780.219339	2551.937941
780.543397	2550.473486
780.867409	2550.113043
781.191374	2548.709082
781.515294	2549.404761
781.839167	2551.428785
782.162995	2551.854762
782.486776	2550.488609
782.810511	2550.342416
783.134201	2547.053063
783.457844	2549.457693
783.781441	2545.762528
784.104993	2548.250337
784.428498	2548.129349
784.751958	2549.679504
785.075372	2546.266643
785.398739	2545.853268
785.722061	2547.388300
786.045337	2545.369318
786.368568	2549.911397
786.691752	2547.020296
787.014891	2551.577499
787.337983	2553.961964
787.661030	2562.748696
787.984031	2565.521330
788.306987	2572.336970
788.629897	2573.493915
788.952760	2574.139183
789.275579	2573.740932
789.598351	2569.652556
789.921078	2565.531412
790.243759	2561.014539
790.566395	2558.251986
790.888984	2556.104455
791.211529	2551.834597
791.534027	2550.423074
791.856480	2551.428785
792.178888	2544.650953
792.501249	2542.165664
792.823566	2542.573998
793.145836	2540.665921
793.468062	2544.325799
793.790241	2545.011396
794.112375	2543.637681
794.434464	2546.284287
794.756507	2544.396375
795.078505	2547.531973
795.400457	2549.624052
795.722364	2557.006821
796.044226	2558.035217
796.366042	2556.991698
796.687812	2559.398849
797.009538	2563.162070
797.331218	2558.640155
797.652852	2559.799621
797.974442	2558.098231
798.295986	2553.903991
798.617484	2556.676626
798.938938	2552.585729
799.260346	2552.875596
799.581709	2552.447098
799.903026	2549.813095
800.224299	2547.539534
800.545526	2547.368135
800.866708	2542.745397
801.187845	2545.089534
801.508936	2543.899821
801.829983	2544.320758
802.150984	2541.006199
802.471940	2540.461754
802.792851	2541.333874
803.113717	2539.690458
803.434538	2539.025026
803.755314	2538.833462
804.076045	2540.489481
804.396731	2540.277752
804.717372	2541.535520
805.037967	2539.120807
805.358518	2539.952598
805.679024	2540.839841
805.999485	2544.973587
806.319901	2539.909748
806.640272	2542.263967
806.960598	2540.761703
807.280879	2541.540561
807.601115	2544.650953
807.921306	2539.849254
808.241453	2541.780016
808.561554	2538.730118
808.881611	2540.602907
809.201623	2537.948739
809.521590	2542.465613
809.841513	2543.249512
810.161390	2545.081972
810.481223	2541.951415
810.801011	2539.440921
811.120755	2540.325643
811.440453	2540.250026
811.760107	2539.113246
812.079716	2539.856816
812.399281	2538.878832
812.718801	2538.548637
813.038276	2537.202648
813.357707	2536.459078
813.677093	2539.887063
813.996434	2536.650642
814.315731	2537.482432
814.634983	2534.150230
814.954191	2536.416228
815.273354	2536.832124
815.592473	2540.053421
815.911547	2541.792619
816.230577	2543.882177
816.549562	2544.416540
816.868502	2545.233207
817.187399	2547.829401
817.506250	2548.560368
817.825058	2549.641696
818.143821	2554.057746
818.462539	2555.534804
818.781213	2560.901113
819.099843	2567.676423
819.418429	2576.488360
819.736970	2593.219950
820.055466	2602.881321
820.373919	2619.801954
820.692327	2645.847076
821.010691	2685.193281
821.329011	2769.952722
821.647286	2919.644744
821.965517	3114.109774
822.283704	3252.144128
822.601847	3333.468022
822.919945	3281.667646
823.237999	3204.008671
823.556010	3111.019547
823.873976	3022.522091
824.191897	2937.959256
824.509775	2871.577342
824.827609	2817.281594
825.145398	2775.782816
825.463144	2756.898654
825.780845	2752.487644
826.098502	2760.659354
826.416116	2798.452885
826.733685	2837.922599
827.051210	2864.003008
827.368692	2857.048737
827.686129	2815.905359
828.003522	2773.214348
828.320872	2730.838409
828.638177	2690.738551
828.955439	2664.537153
829.272656	2641.741056
829.589830	2620.815226
829.906960	2607.259563
830.224046	2588.357757
830.541088	2582.646130
830.858086	2572.531055
831.175041	2568.631722
831.491952	2562.884807
831.808819	2564.893707
832.125642	2568.067113
832.442421	2577.801581
832.759157	2597.509972
833.075849	2627.343520
833.392497	2667.355158
833.709101	2694.121165
834.025662	2701.382947
834.342179	2688.555731
834.658653	2665.971362
834.975083	2643.220634
835.291469	2625.589199
835.607811	2602.485591
835.924110	2589.802048
836.240366	2581.680749
836.556578	2567.966290
836.872746	2560.069322
837.188871	2550.039947
837.504952	2547.302600
837.820990	2540.232382
838.136984	2537.202648
838.452935	2536.648122
838.768842	2537.258101
839.084706	2539.728267
839.400526	2551.761501
839.716303	2571.936198
840.032037	2587.581419
840.347727	2592.849425
840.663373	2584.753332
840.978977	2564.147616
841.294537	2558.882131
841.610054	2546.866540
841.925527	2540.789429
842.240957	2537.396733
842.556344	2532.219468
842.871687	2529.572862
843.186987	2522.522808
843.502244	2523.084897
843.817458	2519.402334
844.132629	2514.141890
844.447756	2514.194822
844.762840	2514.900584
845.077881	2511.641478
845.392879	2514.842611
845.707833	2510.635768
846.022745	2510.877743
846.337613	2508.009327
846.652438	2508.493277
846.967221	2509.579646
847.281960	2508.258864
847.596656	2506.771723
847.911309	2507.129645
848.225919	2510.686179
848.540485	2507.527896
848.855009	2504.644356
849.169490	2502.610251
849.483928	2506.106291
849.798323	2506.814573
850.112675	2508.238699
850.426984	2506.582680
850.741251	2503.762154
851.055474	2505.788698
851.369654	2506.963287
851.683792	2504.228461
851.997887	2504.072185
852.311938	2505.269459
852.625947	2508.256343
852.939914	2503.026146
853.253837	2506.600324
853.567718	2505.362721
853.881555	2504.014212
854.195350	2506.323061
854.509103	2505.435818
854.822812	2503.275683
855.136479	2506.297855
855.450103	2507.081754
855.763685	2502.232164
856.077224	2501.274345
856.390720	2504.929182
856.704173	2501.034890
857.017584	2504.165447
857.330953	2507.301044
857.644278	2506.963287
857.957561	2509.824142
858.270802	2508.233658
858.584000	2507.895901
858.897155	2508.163082
859.210268	2506.154182
859.523339	2508.705006
859.836367	2505.440859
860.149352	2509.647702
860.462295	2507.359018
860.775195	2506.088647
861.088054	2505.645025
861.400869	2505.168636
861.713642	2504.528410
862.026373	2504.672083
862.339062	2506.907834
862.651708	2507.676610
862.964312	2506.988493
863.276873	2508.331960
863.589392	2506.292814
863.901869	2508.500839
864.214303	2507.457320
864.526696	2510.398833
864.839045	2512.357322
865.151353	2512.672394
865.463619	2510.287928
865.775842	2512.377486
866.088023	2515.205574
866.400162	2512.639626
866.712258	2510.686179
867.024313	2512.778258
867.336325	2513.090810
867.648296	2513.496622
867.960224	2510.797085
868.272110	2511.681807
868.583954	2515.361849
868.895755	2512.526200
869.207515	2513.282373
869.519233	2512.811026
869.830909	2515.805471
870.142542	2512.654750
870.454134	2515.810512
870.765684	2517.527025
871.077191	2518.275636
871.388657	2514.651047
871.700081	2513.070645
872.011463	2516.203722
872.322803	2515.681963
872.634101	2518.565503
872.945357	2518.028620
873.256571	2523.825947
873.567744	2521.743950
873.878874	2523.145391
874.189963	2523.578930
874.501010	2521.441481
874.812015	2522.734537
875.122979	2523.226049
875.433900	2526.333921
875.744780	2526.112110
876.055618	2527.329549
876.366415	2524.856863
876.677169	2528.937677
876.987882	2527.833664
877.298554	2528.042872
877.609183	2530.737369
877.919771	2533.028573
878.230317	2535.246681
878.540822	2541.648946
878.851285	2545.223124
879.161707	2551.264947
879.472087	2563.688871
879.782425	2582.547827
880.092722	2617.672067
880.402977	2668.199552
880.713191	2738.047259
881.023363	2811.844710
881.333494	2863.153574
881.643583	2894.023079
881.953631	2893.219015
882.263637	2881.082438
882.573602	2855.874148
882.883526	2829.675271
883.193408	2799.040179
883.503248	2770.918102
883.813048	2746.949937
884.122806	2719.460525
884.432522	2694.259797
884.742197	2669.772392
885.051831	2645.935296
885.361424	2625.072481
885.670975	2610.228803
885.980485	2595.979982
886.289954	2586.883220
886.599382	2579.150090
886.908768	2565.559139
887.218113	2553.719989
887.527417	2551.307797
887.836680	2543.662887
888.145901	2544.494678
888.455082	2539.811446
888.764221	2538.856147
889.073319	2536.726259
889.382376	2534.729963
889.691392	2531.763243
890.000366	2533.041176
890.309300	2530.545805
890.618193	2527.836185
890.927044	2530.235774
891.235855	2531.669982
891.544625	2531.644776
891.853353	2534.228368
892.162041	2535.052596
892.470687	2537.638708
892.779293	2541.414533
893.087858	2548.512477
893.396381	2557.342058
893.704864	2575.049111
894.013306	2593.343458
894.321707	2612.547734
894.630068	2631.540281
894.938387	2636.226033
895.246665	2637.670324
895.554903	2629.599437
895.863100	2616.389093
896.171256	2610.133021
896.479371	2595.513675
896.787446	2591.687439
897.095480	2578.071283
897.403473	2573.105746
897.711425	2566.267421
898.019336	2563.507389
898.327207	2555.469269
898.635038	2550.692776
898.942827	2544.779503
899.250576	2542.581560
899.558284	2539.287166
899.865952	2537.278266
900.173579	2531.775846
900.481165	2527.231246
900.788711	2526.419620
901.096216	2526.404497
901.403681	2524.020031
901.711105	2523.241173
902.018489	2526.442306
902.325832	2522.265710
902.633135	2525.809641
902.940397	2532.174098
903.247619	2543.380582
903.554800	2571.563153
903.861941	2610.218721
904.169041	2645.113588
904.476101	2663.864159
904.783121	2662.440033
905.090100	2650.817653
905.397039	2636.505817
905.703938	2618.934876
906.010796	2606.556322
906.317614	2592.647779
906.624391	2582.250399
906.931129	2569.382854
907.237826	2564.276165
907.544483	2555.164280
907.851099	2547.368135
908.157675	2541.139790
908.464211	2533.217616
908.770707	2526.795186
909.077163	2519.442663
909.383578	2515.926459
909.689954	2515.807992
909.996289	2512.654750
910.302584	2512.621982
910.608839	2509.892197
910.915054	2511.016375
911.221229	2508.929337
911.527363	2510.832373
911.833458	2510.582836
912.139513	2512.269102
912.445527	2511.961591
912.751502	2512.606859
913.057436	2513.025275
913.363331	2519.301511
913.669186	2520.733199
913.975000	2528.471370
914.280775	2532.408511
914.586510	2548.802343
914.892205	2562.113510
915.197859	2584.198805
915.503475	2609.200408
915.809050	2637.057824
916.114585	2651.863693
916.420081	2658.606236
916.725536	2662.855929
917.030952	2656.362922
917.336328	2644.168371
917.641665	2632.808131
917.946961	2624.885958
918.252218	2619.219701
918.557435	2603.761003
918.862612	2601.999119
919.167750	2589.943200
919.472848	2583.240986
919.777906	2572.636919
920.082925	2564.319015
920.387904	2556.671585
920.692843	2548.772097
920.997743	2540.827238
921.302603	2538.064686
921.607423	2530.293747
921.912204	2529.406504
922.216946	2524.196472
922.521647	2522.792510
922.826310	2521.985926
923.130932	2518.673888
923.435516	2516.163393
923.740059	2513.768845
924.044564	2510.197187
924.349028	2510.411436
924.653454	2511.034019
924.957840	2507.797598
925.262186	2506.093688
925.566493	2505.876918
925.870761	2501.160919
926.174989	2504.024294
926.479178	2501.181084
926.783328	2500.795435
927.087438	2498.247132
927.391509	2497.664879
927.695541	2500.130003
927.999533	2498.899962
928.303486	2498.559684
928.607400	2496.805362
928.911275	2498.168994
929.215110	2494.327635
929.518906	2497.080105
929.822663	2496.734786
930.126381	2497.100270
930.430060	2494.589775
930.733699	2499.028511
931.037299	2495.280413
931.340861	2492.737151
931.644383	2497.453150
931.947866	2497.032214
932.251309	2497.392657
932.554714	2494.672954
932.858080	2491.970896
933.161407	2492.595999
933.464694	2493.004332
933.767943	2488.318580
934.071153	2493.936946
934.374323	2494.620022
934.677455	2495.731596
934.980548	2491.920484
935.283602	2494.299909
935.586617	2493.974754
935.889593	2494.748571
936.192530	2493.992398
936.495428	2496.618839
936.798287	2496.182780
937.101108	2493.974754
937.403890	2496.429796
937.706632	2500.371978
938.009336	2500.278717
938.312002	2501.629746
938.614628	2504.951867
938.917216	2501.387771
939.219765	2507.905983
939.522275	2506.375993
939.824747	2506.675941
940.127179	2506.416322
940.429573	2507.185098
940.731929	2507.540499
941.034246	2505.733246
941.336524	2506.852382
941.638763	2506.431445
941.940964	2504.049500
942.243126	2501.322236
942.545250	2504.354490
942.847335	2503.774757
943.149381	2502.678306
943.451389	2500.026659
943.753359	2502.068327
944.055290	2499.668737
944.357182	2500.961793
944.659036	2498.453819
944.960851	2497.934581
945.262628	2496.805362
945.564367	2496.767553
945.866067	2498.340393
946.167729	2496.815444
946.469352	2498.562204
946.770937	2496.623881
947.072484	2497.732934
947.373992	2496.271000
947.675462	2496.956597
947.976893	2495.224960
948.278286	2492.548108
948.579641	2494.252018
948.880958	2492.210350
949.182236	2497.100270
949.483476	2497.163284
949.784678	2497.569097
950.085841	2494.123468
950.386967	2494.667913
950.688054	2498.007677
950.989103	2499.532626
951.290114	2498.693274
951.591087	2499.020949
951.892021	2497.858963
952.192917	2499.764519
952.493776	2499.739314
952.794596	2502.302740
953.095378	2501.294510
953.396122	2501.125631
953.696828	2499.575476
953.997496	2500.248470
954.298126	2496.787718
954.598718	2500.470281
954.899272	2498.378202
955.199788	2498.862153
955.500266	2494.156236
955.800706	2496.560866
956.101108	2496.407111
956.401472	2495.214878
956.701798	2493.034579
957.002087	2489.120123
957.302337	2491.580206
957.602550	2490.042654
957.902724	2490.947541
958.202861	2488.575678
958.502960	2486.266830
958.803022	2486.365133
959.103045	2485.689618
959.403031	2485.477889
959.702979	2486.138281
960.002889	2486.594505
960.302762	2484.043681
960.602596	2483.950420
960.902393	2484.162148
961.202153	2484.499906
961.501875	2484.426809
961.801559	2486.299598
962.101205	2483.179123
962.400814	2482.569144
962.700385	2477.923720
962.999918	2479.753659
963.299414	2478.702579
963.598873	2480.880357
963.898293	2477.117136
964.197677	2481.591160
964.497022	2480.885398
964.796331	2481.563433
965.095601	2479.088227
965.394835	2479.536890
965.694030	2479.872126
965.993189	2483.647951
966.292309	2482.606952
966.591393	2480.466982
966.890439	2481.500419
967.189447	2482.158290
967.488419	2482.065028
967.787353	2482.155769
968.086249	2481.334061
968.385108	2482.228866
968.683930	2480.605614
968.982714	2481.606283
969.281462	2479.776344
969.580172	2482.609473
969.878844	2480.424133
970.177480	2482.564102
970.476078	2482.979998
970.774639	2479.713330
971.073162	2480.282980
971.371649	2484.991418
971.670098	2481.238279
971.968510	2479.257106
972.266885	2482.997642
972.565223	2481.439925
972.863524	2481.286170
973.161788	2480.393886
973.460014	2484.008393
973.758204	2482.395224
974.056356	2482.884216
974.354471	2482.450677
974.652550	2479.862044
974.950591	2485.649289
975.248595	2483.169041
975.546563	2484.915801
975.844493	2481.818012
976.142386	2483.642909
976.440243	2481.409678
976.738062	2483.025368
977.035845	2481.424802
977.333590	2481.911273
977.631299	2481.762559
977.928971	2479.254585
978.226606	2477.386838
978.524204	2478.823566
978.821765	2474.921713
979.119290	2481.870944
979.416777	2480.678711
979.714228	2482.412868
980.011642	2479.060501
980.309020	2480.963536
980.606360	2480.686273
980.903664	2480.746767
981.200931	2484.167189
981.498162	2485.760194
981.795356	2489.107520
982.092513	2490.675319
982.389633	2492.714466
982.686717	2497.261587
982.983764	2497.364930
983.280775	2500.979437
983.577749	2503.961280
983.874686	2500.460199
984.171587	2499.986330
984.468451	2500.349293
984.765279	2495.242604
985.062070	2495.320742
985.358824	2492.434682
985.655543	2492.908550
985.952224	2489.367140
986.248869	2488.419403
986.545478	2487.317911
986.842050	2483.683239
987.138586	2482.760707
987.435086	2484.469659
987.731549	2479.549492
988.027975	2480.340954
988.324366	2479.806591
988.620719	2477.238123
988.917037	2477.573360
989.213318	2475.748462
989.509563	2474.697382
989.805772	2479.292394
990.101944	2478.039667
990.398080	2476.572691
990.694180	2476.537403
990.990244	2475.995479
991.286271	2476.890284
991.582262	2477.407002
991.878217	2476.245016
992.174136	2478.538741
992.470019	2475.372897
992.765865	2475.889615
993.061676	2471.713019
993.357450	2475.486323
993.653188	2471.191259
993.948890	2478.861375
994.244556	2475.559419
994.540186	2476.446662
994.835780	2480.091417
995.131337	2480.335912
995.426859	2481.760038
995.722345	2482.798516
996.017795	2485.359422
996.313208	2485.435040
996.608586	2491.582727
996.903928	2488.232880
997.199234	2488.225318
997.494504	2489.455360
997.789738	2489.619197
998.084936	2488.920998
998.380099	2486.627273
998.675225	2483.529483
998.970316	2484.000831
999.265371	2484.036119
999.560390	2480.504791
999.855373	2481.419761
1000.150320	2480.852631
1000.445232	2480.903042
1000.740108	2479.983032
1001.034948	2476.731487
1001.329752	2476.582773
1001.624521	2474.720067
1001.919254	2478.241313
1002.213951	2476.013123
1002.508613	2475.430870
1002.803239	2472.857361
1003.097829	2478.263998
1003.392384	2475.660242
1003.686903	2474.326857
1003.981386	2473.633698
1004.275834	2472.096147
1004.570246	2473.537917
1004.864623	2476.814667
1005.158964	2473.779892
1005.453270	2471.990282
1005.747540	2468.728656
1006.041775	2472.978348
1006.335974	2472.232258
1006.630138	2471.730663
1006.924266	2473.200159
1007.218359	2471.173615
1007.512416	2472.159161
1007.806438	2468.900055
1008.100425	2471.082875
1008.394376	2467.077678
1008.688292	2469.812504
1008.982172	2470.241002
1009.276017	2470.644294
1009.569827	2470.213276
1009.863602	2470.883749
1010.157341	2471.982721
1010.451045	2471.826445
1010.744714	2468.184211
1011.038347	2473.565643
1011.331945	2471.728142
1011.625508	2471.763430
1011.919036	2469.444500
1012.212528	2473.789974
1012.505986	2471.672690
1012.799408	2472.156640
1013.092795	2472.769141
1013.386147	2471.138327
1013.679464	2469.353759
1013.972745	2471.788636
1014.265992	2470.094808
1014.559204	2469.978862
1014.852380	2472.968266
1015.145521	2470.689665
1015.438628	2472.968266
1015.731699	2470.177987
1016.024736	2470.551033
1016.317737	2471.458441
1016.610703	2471.105560
1016.903635	2470.513224
1017.196531	2470.339304
1017.489393	2472.181846
1017.782219	2468.600106
1018.075011	2470.609006
1018.367768	2469.895683
1018.660490	2471.208903
1018.953177	2471.208903
1019.245829	2471.208903
