Dividing Wavelength (nm)	Counts (n)	Blue Motor Position (mm): 0.000000	Red Motor Position (mm): 32.000000	
326.493990	2051.333720
326.888308	2051.333720
327.282561	2051.333720
327.676750	2027.143743
328.070874	2026.765657
328.464933	2034.143386
328.858929	2041.364838
329.252859	2050.431354
329.646726	2064.871739
330.040528	2082.629203
330.434265	2095.595051
330.827938	2118.837291
331.221547	2138.908645
331.615091	2159.655513
332.008571	2181.098061
332.401986	2200.980372
332.795338	2220.661037
333.188625	2240.263563
333.581847	2260.108066
333.975006	2277.482402
334.368100	2293.634259
334.761129	2312.286528
335.154095	2326.484938
335.546996	2346.485716
335.939833	2376.420088
336.332606	2390.285781
336.725315	2399.564025
337.117960	2412.943247
337.510540	2421.523291
337.903056	2427.923036
338.295508	2434.148861
338.687896	2440.994748
339.080220	2447.409616
339.472480	2452.879268
339.864676	2456.115689
340.256807	2463.075002
340.648875	2462.409569
341.040879	2464.635239
341.432818	2463.745475
341.824694	2467.072637
342.216506	2466.122379
342.608253	2468.166567
342.999937	2464.816720
343.391557	2463.574076
343.783113	2463.246401
344.174605	2459.704990
344.566033	2459.478138
344.957397	2458.570731
345.348697	2456.529063
345.739934	2455.581327
346.131106	2453.567386
346.522215	2453.229628
346.913260	2451.369443
347.304241	2450.149483
347.695159	2447.366766
348.086012	2447.089503
348.476802	2443.359049
348.867528	2440.203287
349.258191	2436.765220
349.648789	2439.409305
350.039324	2436.107349
350.429796	2439.303441
350.820203	2437.665066
351.210548	2436.954263
351.600828	2439.376538
351.991045	2437.329829
352.381198	2435.688933
352.771288	2436.999633
353.161314	2437.904521
353.551276	2440.465427
353.941175	2437.286979
354.331010	2437.332350
354.720782	2433.927050
355.110490	2437.460899
355.500135	2438.111208
355.889717	2440.175560
356.279235	2436.787905
356.668689	2437.297062
357.058080	2436.944181
357.447408	2439.631116
357.836672	2439.807556
358.225873	2441.645057
358.615010	2440.566250
359.004084	2442.023143
359.393095	2441.002310
359.782043	2443.084306
360.170927	2441.014912
360.559748	2442.617999
360.948505	2444.173195
361.337199	2444.417691
361.725830	2446.542538
362.114398	2444.387444
362.502903	2445.246961
362.891344	2447.391972
363.279722	2445.514142
363.668037	2445.642692
364.056289	2448.581684
364.444478	2447.765017
364.832603	2449.720985
365.220665	2448.637137
365.608665	2449.214349
365.996601	2450.746860
366.384474	2449.143773
366.772284	2452.049998
367.160031	2453.612756
367.547715	2453.501851
367.935336	2452.473455
368.322893	2452.176027
368.710388	2451.538321
369.097820	2455.896399
369.485189	2448.745522
369.872495	2454.235338
370.259738	2455.165431
370.646918	2457.746502
371.034035	2456.375308
371.421090	2460.665330
371.808081	2458.099383
372.195010	2460.619960
372.581875	2461.025773
372.968678	2461.955866
373.355418	2466.228243
373.742096	2469.908286
374.128710	2469.623461
374.515262	2471.423153
374.901751	2473.686631
375.288177	2478.309369
375.674540	2481.329020
376.060841	2486.223980
376.447079	2491.000473
376.833254	2493.067347
377.219367	2498.095897
377.605417	2505.357680
377.991404	2509.115860
378.377329	2518.968795
378.763191	2521.469207
379.148991	2531.790970
379.534727	2541.061652
379.920402	2549.694628
380.306013	2557.745350
380.691563	2572.677248
381.077049	2583.982036
381.462474	2593.043510
381.847835	2604.156733
382.233134	2620.235493
382.618371	2631.164715
383.003545	2646.809936
383.388657	2664.247287
383.773706	2682.161027
384.158693	2693.145702
384.543618	2711.868547
384.928480	2723.768191
385.313280	2748.893301
385.698017	2768.268976
386.082692	2793.605815
386.467305	2809.593835
386.851856	2831.719459
387.236344	2856.151411
387.620770	2872.308309
388.005133	2894.648183
388.389435	2926.717483
388.773674	2941.394802
389.157851	2975.104998
389.541965	3002.458299
389.926018	3015.547655
390.310008	3047.737943
390.693936	3072.237950
391.077802	3100.843978
391.461606	3135.693474
391.845348	3153.108140
392.229027	3177.172088
392.612645	3217.912173
392.996200	3250.901484
393.379694	3287.036474
393.763125	3330.778566
394.146494	3353.703213
394.529801	3391.065725
394.913047	3433.625667
395.296230	3441.441976
395.679351	3468.323928
396.062410	3515.557019
396.445408	3496.171262
396.828343	3536.949156
397.211217	3572.315371
397.594028	3542.701112
397.976778	3591.209615
398.359466	3625.938124
398.742092	3638.407418
399.124656	3649.165240
399.507158	3709.114642
399.889598	3716.210066
400.271977	3777.588635
400.654294	3767.718055
401.036549	3826.470183
401.418742	3825.464473
401.800874	3898.236049
402.182944	3922.839400
402.564952	4008.042462
402.946898	4005.025332
403.328783	3999.311184
403.710606	4044.978996
404.092367	4115.847537
404.474067	4180.439841
404.855705	4167.216895
405.237282	4136.861587
405.618797	4238.274479
406.000250	4313.458247
406.381642	4396.912029
406.762972	4394.036050
407.144240	4363.486658
407.525447	4431.620373
407.906593	4446.164102
408.287677	4533.108882
408.668700	4556.814908
409.049661	4595.223459
409.430560	4632.769973
409.811399	4614.112663
410.192176	4663.377339
410.572891	4745.709463
410.953545	4852.874312
411.334138	4752.454527
411.714669	4858.656515
412.095139	4773.418165
412.475547	4884.739445
412.855894	4888.643819
413.236180	4993.051156
413.616405	4918.454682
413.996568	5022.675497
414.376670	5026.784037
414.756711	5017.543602
415.136691	5091.358697
415.516609	5175.379608
415.896466	5210.813879
416.276262	5286.186691
416.655997	5400.091562
417.035670	5494.446838
417.415283	5635.387417
417.794834	5706.538263
418.174324	5673.329662
418.553753	5669.697511
418.933121	5836.342933
419.312428	5852.373803
419.691674	5777.661382
420.070859	6002.078428
420.449983	5878.643255
420.829045	6073.506537
421.208047	6001.521380
421.586988	6159.009547
421.965867	6226.692078
422.344686	6314.970244
422.723444	6480.783876
423.102141	6096.721050
423.480777	6495.312482
423.859352	6301.414581
424.237866	6669.847310
424.616319	6664.780951
424.994712	6831.683472
425.373044	6746.992088
425.751314	7060.287196
426.129524	6778.390914
426.507673	7043.119547
426.885762	7086.717966
427.263789	7127.873946
427.641756	7211.433591
428.019662	7297.244112
428.397508	7333.530337
428.775292	7315.273799
429.153016	7488.170252
429.530679	7418.211640
429.908282	7471.748694
430.285824	7418.849346
430.663305	7702.867953
431.040726	7581.439160
431.418086	7582.389418
431.795385	7716.015283
432.172624	7910.467710
432.549802	7791.917416
432.926920	7925.046727
433.303977	7863.393415
433.680974	7909.293121
434.057910	8112.549924
434.434786	8163.410125
434.811601	8123.189279
435.188355	8463.744427
435.565050	8345.499122
435.941683	8356.060340
436.318257	8693.245476
436.694770	8646.735791
437.071222	8880.952840
437.447614	8650.320051
437.823946	8613.249927
438.200218	8768.973689
438.576429	8650.100761
438.952580	8808.884504
439.328670	8823.783635
439.704700	8900.257938
440.080670	8789.423130
440.456580	9060.574193
440.832429	9037.268938
441.208218	8777.883929
441.583947	8892.842401
441.959616	9002.202672
442.335224	9041.271614
442.710773	9121.990570
443.086261	9304.719794
443.461689	9027.690746
443.837057	9192.738123
444.212365	9404.927850
444.587612	9383.107216
444.962800	9284.471999
445.337927	9419.398482
445.712995	8957.898492
446.088002	9627.643506
446.462949	9686.703144
446.837837	9666.536008
447.212664	9688.056694
447.587431	10515.662921
447.962139	11525.090964
448.336786	12468.076600
448.711374	12257.356369
449.085901	11047.242512
449.460369	10968.764349
449.834776	10744.062478
450.209124	11652.783391
450.583412	11479.849129
450.957640	11796.514249
451.331808	11381.712987
451.705917	10815.286420
452.079965	10693.214880
452.453954	10892.043029
452.827883	10840.991264
453.201752	10808.667385
453.575562	10812.733076
453.949311	11157.714357
454.323001	11218.049407
454.696632	11137.857252
455.070202	11723.251160
455.443713	11783.671910
455.817164	11954.756068
456.190556	12263.985486
456.563888	12134.455559
456.937160	12408.825398
457.310373	11884.976417
457.683526	11893.737942
458.056619	11918.280800
458.429653	11982.215233
458.802628	12121.421656
459.175542	12167.722133
459.548398	12717.699415
459.921194	13291.160912
460.293930	13562.884145
460.666607	14427.225260
461.039224	15230.596140
461.411782	15579.938019
461.784280	15264.112251
462.156719	15212.132914
462.529099	15132.263393
462.901419	14492.132637
463.273680	14086.526439
463.645882	14294.186690
464.018024	14179.253423
464.390106	14542.009813
464.762130	15601.962820
465.134094	17118.450282
465.505999	19396.151975
465.877845	21668.101711
466.249631	22940.567079
466.621358	22501.774966
466.993026	21714.714740
467.364634	20971.779733
467.736184	20166.631846
468.107674	19546.625376
468.479105	19402.486184
468.850477	19139.229569
469.221790	18692.555612
469.593043	18029.205301
469.964238	17636.315414
470.335373	17694.079475
470.706449	18408.927693
471.077467	19253.721734
471.448425	21721.361501
471.819324	23599.269447
472.190164	23540.408934
472.560945	21795.751288
472.931667	20202.645849
473.302330	19869.725529
473.672934	19313.396393
474.043479	19728.185052
474.413965	19520.066057
474.784393	19331.635288
475.154761	20000.609006
475.525070	20121.624425
475.895321	19960.912440
476.265513	20489.129581
476.635645	21086.629820
477.005719	21142.100157
477.375734	21500.291781
477.745691	22131.779480
478.115588	22772.167335
478.485427	23957.801349
478.855207	25756.921101
479.224928	27548.567343
479.594591	28998.955195
479.964194	28650.208172
480.333739	29112.671023
480.703226	29335.858028
481.072653	29771.955644
481.442022	30286.176021
481.811333	30678.707986
482.180584	30247.061709
482.549777	30033.379800
482.918912	29775.343299
483.287988	29701.344202
483.657005	29548.372909
484.025964	29168.000207
484.394864	29357.363590
484.763706	29275.449881
485.132489	28724.247599
485.501213	28781.436969
485.869879	28947.764799
486.238487	28854.737866
486.607036	29117.550860
486.975527	28776.133675
487.343959	29115.272259
487.712333	29451.973445
488.080648	29381.752692
488.448905	29794.398861
488.817104	29634.319541
489.185244	30432.422415
489.553326	31332.893480
489.921350	33144.127124
490.289315	35590.422646
490.657222	36475.230845
491.025070	37003.001844
491.392861	36711.187092
491.760593	35923.486639
492.128267	34901.264147
492.495883	33904.353289
492.863440	32965.914774
493.230939	31959.120734
493.598380	31349.413341
493.965763	31141.092699
494.333088	30592.297568
494.700354	30354.365189
495.067563	30250.754354
495.434713	30066.376673
495.801805	30277.227973
496.168839	30055.167667
496.535815	29837.498206
496.902733	29891.957791
497.269593	29642.864297
497.636395	29719.653673
498.003139	29904.356508
498.369825	29575.842156
498.736453	29890.011905
499.103023	29651.398970
499.469535	29645.704987
499.835989	29671.717341
500.202385	29446.841550
500.568723	29402.066022
500.935003	29593.329919
501.301226	29357.477016
501.667390	29930.114284
502.033497	30023.166422
502.399546	29741.265099
502.765537	29254.566901
503.131470	29586.809187
503.497345	29846.451295
503.863163	28768.395504
504.228923	29349.456540
504.594625	29586.748693
504.960269	28988.782147
505.325856	29443.693349
505.691385	29014.242494
506.056856	29177.928760
506.422270	29461.667583
506.787625	28900.776204
507.152924	29153.297682
507.518164	29152.173505
507.883347	28642.901020
508.248472	28613.521175
508.613540	29046.619305
508.978550	29089.239740
509.343503	28796.557910
509.708398	28926.097919
510.073236	29267.540311
510.438016	29161.144238
510.802738	28731.852179
511.167403	29005.211267
511.532010	29031.705051
511.896561	29293.169537
512.261053	29703.753873
512.625488	29337.738378
512.989866	29079.777494
513.354186	28931.643189
513.718449	28720.953205
514.082655	29219.840913
514.446803	28781.275652
514.810894	29080.027032
515.174927	28866.629948
515.538904	28672.270782
515.902822	28943.744478
516.266684	28505.824485
516.630488	28554.665704
516.994235	28353.697585
517.357925	28563.860769
517.721558	28539.143991
518.085133	28593.046529
518.448651	28511.319343
518.812112	28213.830772
519.175516	28107.938815
519.538863	28202.490696
519.902152	28019.509415
520.265385	28169.604729
520.628560	27950.274208
520.991678	27689.581019
521.354739	27614.727446
521.717743	27618.369680
522.080690	27312.527917
522.443580	27543.135500
522.806413	27309.793091
523.169189	27167.637594
523.531908	27067.668992
523.894569	26744.420125
524.257174	26625.070808
524.619722	26604.381913
524.982213	26453.041433
525.344647	26244.506543
525.707025	26079.244917
526.069345	26100.513545
526.431608	25805.290972
526.793815	25790.767408
527.155964	25282.412413
527.518057	25186.958165
527.880093	24865.113260
528.242072	24991.280737
528.603995	24590.635036
528.965860	24310.833353
529.327669	24190.180897
529.689421	23995.741073
530.051117	23734.513522
530.412755	23633.400579
530.774337	23430.670577
531.135862	23150.054748
531.497331	22997.632941
531.858743	22747.281679
532.220098	22716.576011
532.581396	22342.671110
532.942638	21993.349395
533.303824	21897.156618
533.664953	21683.278104
534.026025	21304.979837
534.387040	21339.426042
534.747999	21143.660394
535.108902	21065.703991
535.469748	20525.340189
535.830537	20420.058212
536.191270	20305.046807
536.551947	19964.834458
536.912567	19862.655310
537.273131	19701.545075
537.633638	19326.521037
537.994089	19183.148101
538.354483	18867.677735
538.714821	18912.622142
539.075103	18806.888981
539.435328	18541.331079
539.795497	18215.725472
540.155609	18056.777892
540.515665	18066.658553
540.875665	17570.263696
541.235609	17458.307230
541.595496	17301.260165
541.955328	17298.900905
542.315102	16892.904018
542.674821	16645.121224
543.034483	16412.174546
543.394090	16214.911675
543.753640	16018.352046
544.113134	16162.592060
544.472571	15677.227247
544.831953	15835.471587
545.191278	15412.848975
545.550548	15125.248627
545.909761	15117.472648
546.268918	14976.436287
546.628019	14899.296550
546.987064	14553.238983
547.346053	14173.745962
547.704986	14246.777158
548.063863	13972.326661
548.422684	13840.606352
548.781449	13545.356053
549.140158	13499.579856
549.498811	13270.580401
549.857408	12933.158330
550.215949	12970.019247
550.574434	12753.229467
550.932864	12563.243502
551.291237	12566.918503
551.649555	12323.551760
552.007817	12196.517204
552.366022	11970.950775
552.724173	11827.199753
553.082267	11746.400139
553.440305	11665.227479
553.798288	11353.674089
554.156215	11271.410020
554.514086	11154.961887
554.871902	10927.641137
555.229661	10804.934411
555.587365	10591.950702
555.945014	10468.838163
556.302606	10327.630403
556.660143	10202.791269
557.017625	10093.738509
557.375050	9895.772397
557.732421	9819.744235
558.089735	9695.557931
558.446994	9531.528867
558.804197	9468.068302
559.161345	9308.329260
559.518437	9069.958300
559.875474	8979.078899
560.232455	8876.178867
560.589381	8751.942151
560.946251	8597.135878
561.303065	8552.269609
561.659825	8390.118375
562.016528	8238.104901
562.373177	8060.754588
562.729770	8021.025255
563.086307	7840.846855
563.442789	7785.941128
563.799216	7657.248032
564.155587	7524.383381
564.511904	7406.632109
564.868164	7302.169319
565.224370	7227.635860
565.580520	7087.988337
565.936615	7004.753845
566.292654	6865.446600
566.648638	6804.312527
567.004567	6699.075920
567.360441	6603.818277
567.716260	6483.727910
568.072023	6423.884373
568.427732	6324.293858
568.783385	6194.448858
569.138982	6137.085569
569.494525	6063.817439
569.850013	5950.265448
570.205445	5868.061873
570.560823	5772.589981
570.916145	5680.261248
571.271412	5621.027691
571.626625	5522.697464
571.981782	5446.976813
572.336884	5348.545764
572.691931	5293.241785
573.046923	5199.839287
573.401860	5120.030260
573.756743	5058.054314
574.111570	5001.301004
574.466342	4929.426753
574.821059	4873.553125
575.175722	4786.391575
575.530330	4730.117174
575.884882	4653.292510
576.239380	4590.996452
576.593823	4540.005181
576.948211	4479.934791
577.302544	4410.414759
577.656823	4356.998693
578.011047	4320.165503
578.365216	4267.220784
578.719330	4210.780026
579.073389	4160.582736
579.427394	4118.569760
579.781344	4073.282555
580.135239	4024.597611
580.489080	3986.405830
580.842866	3932.195782
581.196597	3908.088984
581.550273	3877.779047
581.903895	3842.369982
582.257463	3822.563289
582.610975	3773.757358
582.964434	3750.759614
583.317837	3706.631874
583.671186	3678.179601
584.024481	3657.553720
584.377721	3618.736836
584.730906	3590.907146
585.084037	3571.670103
585.437113	3539.648694
585.790135	3516.043491
586.143103	3482.529900
586.496016	3463.736478
586.848874	3444.449024
587.201679	3425.204419
587.554428	3395.010428
587.907124	3382.679766
588.259765	3359.747557
588.612352	3347.295907
588.964884	3319.577123
589.317362	3308.529434
589.669786	3288.952113
590.022155	3271.902931
590.374470	3260.530088
590.726731	3244.877305
591.078937	3215.434446
591.431090	3211.162068
591.783188	3191.090714
592.135232	3174.573373
592.487222	3168.859225
592.839157	3156.722647
593.191038	3141.014412
593.542866	3129.545787
593.894639	3112.496605
594.246358	3103.730038
594.598022	3097.325252
594.949633	3080.848241
595.301190	3072.704257
595.652692	3066.216292
596.004141	3062.715211
596.355535	3043.304248
596.706876	3031.969213
597.058162	3021.173582
597.409395	3020.606452
597.760573	3019.933458
598.111698	3003.950480
598.462768	2997.454953
598.813785	2990.626711
599.164748	2984.423571
599.515657	2980.872078
599.866511	2968.082671
600.217312	2972.241623
600.568060	2952.445011
600.918753	2962.005560
601.269392	2955.051288
601.619978	2941.997220
601.970510	2942.340018
602.320988	2937.745007
602.671412	2936.845161
603.021783	2930.631939
603.372100	2923.264292
603.722363	2916.181471
604.072572	2914.759866
604.422728	2911.369690
604.772830	2905.537075
605.122878	2901.771333
605.472872	2895.268244
605.822813	2893.584499
606.172701	2885.861451
606.522534	2887.247769
606.872314	2886.229456
607.222041	2881.314331
607.571714	2879.617982
607.921333	2868.393853
608.270899	2866.536188
608.620411	2864.723893
608.969870	2865.230529
609.319276	2862.667102
609.668627	2859.191227
610.017926	2858.475383
610.367171	2857.552852
610.716362	2855.070084
611.065500	2852.383149
611.414585	2850.071780
611.763616	2848.294773
612.112594	2843.843434
612.461518	2844.055162
612.810389	2842.426870
613.159207	2839.656756
613.507971	2835.623833
613.856682	2835.573421
614.205340	2833.738441
614.553945	2834.600478
614.902496	2828.636793
615.250994	2827.575631
615.599439	2827.290805
615.947830	2826.582523
616.296169	2824.434992
616.644454	2818.839311
616.992686	2821.380052
617.340864	2820.674291
617.688990	2814.909732
618.037063	2817.095072
618.385082	2813.112560
618.733048	2812.351346
619.080961	2811.315389
619.428821	2808.749442
619.776628	2805.084523
620.124382	2804.834986
620.472083	2804.953453
620.819731	2804.174594
621.167326	2797.782411
621.514868	2793.381484
621.862357	2787.899229
622.209793	2788.257151
622.557176	2780.206428
622.904506	2780.208949
623.251783	2776.279370
623.599007	2769.904831
623.946179	2768.158071
624.293297	2766.759151
624.640363	2761.549118
624.987376	2758.776483
625.334336	2753.248858
625.681243	2751.527304
626.028097	2746.743249
626.374899	2748.600914
626.721647	2747.532190
627.068343	2744.825090
627.414987	2740.368710
627.761577	2740.298134
628.108115	2736.560118
628.454600	2733.326218
628.801032	2733.263204
629.147412	2730.770353
629.493739	2728.683316
629.840014	2724.831874
630.186236	2727.886813
630.532405	2721.807182
630.878521	2724.234497
631.224585	2720.708210
631.570597	2719.926831
631.916556	2718.434650
632.262462	2715.682180
632.608316	2716.506408
632.954117	2713.814432
633.299866	2714.318548
633.645562	2714.726881
633.991206	2708.269163
634.336797	2707.717157
634.682336	2703.598534
635.027823	2701.574511
635.373257	2699.547967
635.718639	2697.145857
636.063968	2697.390353
636.409245	2694.116124
636.754470	2694.287523
637.099642	2687.993642
637.444762	2686.377952
637.789829	2686.168745
638.134845	2682.377797
638.479808	2684.905936
638.824719	2683.033147
639.169577	2681.636747
639.514383	2679.204391
639.859137	2675.506704
640.203839	2676.371262
640.548489	2673.916220
640.893086	2674.707681
641.237632	2669.578307
641.582125	2673.288597
641.926566	2671.007474
642.270955	2669.333811
642.615292	2666.851043
642.959576	2665.477329
643.303809	2663.594458
643.647990	2666.230981
643.992118	2667.534119
644.336195	2668.655776
644.680219	2664.562359
645.024192	2666.412463
645.368112	2669.868174
645.711981	2671.897238
646.055797	2672.345901
646.399562	2670.878925
646.743274	2674.165757
647.086935	2677.709688
647.430544	2677.618948
647.774101	2674.536282
648.117606	2677.795388
648.461059	2678.750687
648.804460	2678.846469
649.147810	2673.528051
649.491108	2670.899090
649.834354	2670.301713
650.177548	2666.064623
650.520690	2665.353820
650.863781	2663.481032
651.206820	2662.460198
651.549807	2659.934580
651.892742	2657.867707
652.235626	2655.155566
652.578458	2652.808909
652.921238	2651.780514
653.263967	2654.802685
653.606644	2652.982829
653.949269	2651.094917
654.291843	2647.316572
654.634365	2652.821512
654.976836	2646.131901
655.319255	2646.124339
655.661622	2645.481592
656.003938	2648.589463
656.346203	2644.851448
656.688416	2645.337919
657.030577	2646.562919
657.372687	2643.565953
657.714746	2648.201294
658.056753	2647.326654
658.398708	2641.453710
658.740612	2645.073258
659.082465	2644.433032
659.424266	2641.073103
659.766016	2642.492188
660.107715	2640.115284
660.449362	2637.045221
660.790958	2642.633340
661.132503	2641.698206
661.473996	2642.683752
661.815438	2642.134266
662.156829	2641.478916
662.498168	2639.843061
662.839456	2641.632671
663.180693	2640.319450
663.521879	2641.783906
663.863013	2642.590490
664.204097	2641.743576
664.545129	2641.665438
664.886110	2640.364821
665.227040	2644.221303
665.567918	2643.150058
665.908746	2643.833135
666.249522	2647.112405
666.590248	2644.927065
666.930922	2644.617034
667.271545	2646.278094
667.612118	2645.554689
667.952639	2641.257105
668.293109	2643.878505
668.633528	2643.964205
668.973896	2642.640902
669.314213	2640.586632
669.654480	2642.464461
669.994695	2642.358597
670.334859	2641.718371
670.674973	2639.190232
671.015035	2639.840541
671.355047	2641.166364
671.695008	2637.554377
672.034918	2640.463123
672.374777	2640.674852
672.714585	2636.863739
673.054342	2642.101498
673.394049	2640.258957
673.733705	2640.392547
674.073310	2638.975983
674.412864	2637.730818
674.752368	2638.073616
675.091820	2640.291724
675.431223	2637.196456
675.770574	2634.754017
676.109875	2635.250570
676.449125	2629.165897
676.788324	2628.175311
677.127473	2627.966103
677.466571	2624.238170
677.805619	2627.134312
678.144616	2628.697070
678.483562	2628.848305
678.822458	2626.035341
679.161303	2626.327728
679.500098	2624.492748
679.838842	2623.807151
680.177535	2623.723972
680.516179	2624.903602
680.854771	2625.344703
681.193314	2626.743623
681.531805	2634.128913
681.870247	2638.285345
682.208638	2641.630150
682.546978	2643.399595
682.885268	2646.147024
683.223508	2641.133597
683.561697	2639.270890
683.899836	2639.805253
684.237925	2636.488173
684.575963	2638.182001
684.913951	2634.857360
685.251889	2636.536064
685.589776	2631.739407
685.927614	2635.356434
686.265401	2635.737042
686.603137	2635.812659
686.940824	2636.347021
687.278460	2640.606796
687.616046	2640.871457
687.953582	2644.793474
688.291068	2642.285500
688.628504	2644.740542
688.965889	2645.869761
689.303224	2644.438073
689.640510	2643.167702
689.977745	2639.558236
690.314930	2640.211066
690.652065	2633.607154
690.989150	2631.749489
691.326185	2628.195475
691.663170	2623.328241
692.000105	2621.077366
692.336990	2618.972684
692.673825	2614.838938
693.010610	2614.508743
693.347345	2612.008330
693.684030	2602.457864
694.020665	2604.184460
694.357251	2602.412494
694.693786	2601.915940
695.030272	2600.975765
695.366707	2598.112390
695.703093	2596.269848
696.039429	2595.521237
696.375716	2599.165991
696.711952	2595.059971
697.048139	2596.511823
697.384276	2595.029724
697.720363	2593.993767
698.056400	2593.272882
698.392388	2594.954107
698.728326	2594.286154
699.064214	2593.890423
699.400053	2594.122317
699.735842	2595.924529
700.071581	2592.615012
700.407270	2587.815833
700.742910	2587.183168
701.078501	2588.138467
701.414042	2584.604618
701.749533	2583.246027
702.084974	2582.837694
702.420366	2583.220821
702.755709	2580.869123
703.091002	2577.335274
703.426246	2580.405337
703.761440	2579.467682
704.096584	2578.514904
704.431679	2576.143041
704.766725	2578.789647
705.101721	2576.874009
705.436668	2577.378124
705.771565	2573.403174
706.106413	2579.780234
706.441212	2578.678742
706.775961	2578.923238
707.110661	2579.795357
707.445311	2578.333423
707.779913	2580.042374
708.114465	2577.889801
708.448967	2581.469020
708.783421	2583.747622
709.117825	2587.820874
709.452180	2590.308684
709.786485	2593.550146
710.120742	2590.606112
710.454949	2593.106524
710.789107	2595.954776
711.123216	2596.355548
711.457275	2601.714294
711.791286	2603.577001
712.125247	2606.959615
712.459159	2605.442227
712.793023	2608.182095
713.126837	2602.946856
713.460602	2606.858792
713.794318	2607.743514
714.127985	2605.001127
714.461602	2599.284458
714.795171	2599.816300
715.128691	2591.621904
715.462162	2588.773652
715.795584	2585.728795
716.128957	2585.184351
716.462281	2584.382807
716.795556	2585.564958
717.128782	2580.125553
717.461960	2578.189750
717.795088	2578.025912
718.128167	2576.760583
718.461198	2574.040880
718.794180	2574.353432
719.127113	2570.121383
719.459997	2570.249932
719.792833	2567.683985
720.125619	2567.381516
720.458357	2564.586196
720.791046	2566.869839
721.123686	2565.745662
721.456278	2562.542008
721.788821	2565.581824
722.121315	2564.442523
722.453761	2563.088973
722.786158	2562.368088
723.118506	2561.851370
723.450805	2564.379509
723.783056	2565.443192
724.115259	2564.467729
724.447412	2561.306926
724.779518	2563.686350
725.111574	2563.807338
725.443582	2564.019066
725.775542	2563.890517
726.107453	2569.478636
726.439315	2567.459654
726.771129	2572.495767
727.102895	2567.000909
727.434612	2572.215982
727.766281	2571.061558
728.097901	2577.630182
728.429473	2576.390058
728.760996	2573.214131
729.092471	2577.494071
729.423897	2578.714030
729.755276	2578.099009
730.086606	2576.833679
730.417887	2577.400809
730.749120	2582.063877
731.080305	2586.414392
731.411442	2586.696697
731.742530	2587.082345
732.073570	2587.914136
732.404562	2588.153590
732.735506	2589.872624
733.066401	2589.723910
733.397249	2588.808940
733.728048	2584.203846
734.058798	2579.689493
734.389501	2576.798391
734.720156	2573.002402
735.050762	2569.211455
735.381320	2566.968141
735.711831	2566.975703
736.042293	2565.261711
736.372707	2559.277861
736.703073	2560.205433
737.033391	2561.667368
737.363661	2562.882286
737.693883	2563.086453
738.024056	2564.986968
738.354182	2562.778942
738.684260	2570.746486
739.014290	2567.366393
739.344272	2571.222875
739.674207	2571.094326
740.004093	2575.896025
740.333931	2573.791343
740.663722	2572.319326
740.993464	2573.950139
741.323159	2574.544996
741.652806	2572.805797
741.982405	2570.025601
742.311956	2568.551064
742.641460	2569.007288
742.970915	2565.491083
743.300323	2563.983778
743.629683	2560.470094
743.958996	2559.076215
744.288260	2552.709238
744.617477	2557.170659
744.946647	2557.087480
745.275768	2558.594785
745.604842	2556.366595
745.933869	2552.762170
746.262847	2553.077242
746.591778	2555.582695
746.920662	2554.902140
747.249498	2552.094217
747.578286	2553.659495
747.907027	2552.880637
748.235720	2559.156873
748.564365	2556.376677
748.892963	2555.565051
749.221514	2557.006821
749.550017	2556.918601
749.878473	2558.241904
750.206881	2553.165462
750.535242	2554.478683
750.863555	2557.914229
751.191821	2551.632951
751.520039	2553.558672
751.848210	2552.953734
752.176334	2554.148487
752.504411	2553.336861
752.832440	2553.437684
753.160421	2551.953065
753.488356	2552.187478
753.816243	2553.230997
754.144082	2549.697148
754.471875	2547.375697
754.799620	2549.278732
755.127318	2550.788558
755.454969	2549.971891
755.782572	2551.166645
756.110129	2551.577499
756.437638	2549.424926
756.765100	2546.803526
757.092515	2549.553475
757.419882	2548.600697
757.747203	2552.860472
758.074477	2552.184958
758.401703	2550.254196
758.728882	2552.621017
759.056014	2550.677653
759.383099	2550.571788
759.710138	2550.869217
760.037129	2551.494320
760.364073	2553.906512
760.690970	2550.198743
761.017820	2555.355843
761.344623	2557.586554
761.671379	2557.798282
761.998088	2562.257183
762.324751	2568.878739
762.651366	2588.062850
762.977935	2613.261057
763.304456	2633.571866
763.630931	2644.566622
763.957359	2641.819194
764.283740	2629.463326
764.610074	2619.214660
764.936362	2601.893255
765.262602	2593.996288
765.588796	2580.828794
765.914943	2568.944274
766.241044	2562.514282
766.567097	2557.568910
766.893104	2553.397355
767.219064	2548.983825
767.544978	2546.077600
767.870845	2542.016950
768.196665	2541.417053
768.522438	2540.020653
768.848165	2537.921013
769.173846	2536.058307
769.499479	2535.191228
769.825066	2534.074613
770.150607	2535.077802
770.476101	2529.066226
770.801548	2530.011442
771.126949	2528.410876
771.452303	2529.116638
771.777611	2526.394415
772.102872	2527.432892
772.428087	2525.948273
772.753256	2529.214940
773.078378	2526.091945
773.403453	2523.833508
773.728482	2524.630011
774.053465	2521.141532
774.378401	2523.168076
774.703291	2517.927797
775.028135	2521.320493
775.352932	2520.808816
775.677683	2522.217819
776.002388	2512.790861
776.327046	2514.416633
776.651658	2515.853362
776.976224	2514.950995
777.300743	2516.919566
777.625216	2518.686490
777.949643	2517.950482
778.274024	2516.768331
778.598359	2516.634741
778.922647	2515.104751
779.246889	2517.567354
779.571086	2517.448887
779.895236	2519.213291
780.219339	2514.532580
780.543397	2517.448887
780.867409	2518.532735
781.191374	2515.762621
781.515294	2516.639782
781.839167	2516.551562
782.162995	2517.519463
782.486776	2517.829494
782.810511	2514.567868
783.134201	2515.208094
783.457844	2514.320851
783.781441	2517.816891
784.104993	2516.501150
784.428498	2516.793537
784.751958	2515.868485
785.075372	2515.646675
785.398739	2515.656757
785.722061	2516.881757
786.045337	2515.896212
786.368568	2518.613394
786.691752	2514.761952
787.014891	2518.822602
787.337983	2520.304701
787.661030	2524.665299
787.984031	2528.108407
788.306987	2533.487318
788.629897	2535.017308
788.952760	2536.456558
789.275579	2529.819879
789.598351	2530.437420
789.921078	2529.073788
790.243759	2524.960206
790.566395	2524.559435
790.888984	2523.644465
791.211529	2519.480472
791.534027	2519.102386
791.856480	2517.227076
792.178888	2516.148269
792.501249	2511.681807
792.823566	2510.434122
793.145836	2508.521004
793.468062	2513.345388
793.790241	2513.642816
794.112375	2514.963598
794.434464	2513.330264
794.756507	2516.607014
795.078505	2516.095337
795.400457	2516.186078
795.722364	2521.219670
796.044226	2522.542973
796.366042	2527.309384
796.687812	2521.784279
797.009538	2524.884589
797.331218	2525.063550
797.652852	2522.265710
797.974442	2522.527850
798.295986	2524.650175
798.617484	2524.904754
798.938938	2522.094310
799.260346	2523.213447
799.581709	2516.775893
799.903026	2518.482324
800.224299	2514.759432
800.545526	2514.920748
800.866708	2514.378824
801.187845	2514.668691
801.508936	2515.439987
801.829983	2514.729185
802.150984	2512.715244
802.471940	2512.745491
802.792851	2514.124246
803.113717	2511.502846
803.434538	2507.573267
803.755314	2511.780110
804.076045	2511.157527
804.396731	2510.648371
804.717372	2510.300531
805.037967	2510.648371
805.358518	2513.010151
805.679024	2514.646006
805.999485	2511.724657
806.319901	2512.062414
806.640272	2513.501664
806.960598	2512.619462
807.280879	2512.672394
807.601115	2513.141221
807.921306	2512.551406
808.241453	2513.453773
808.561554	2507.212824
808.881611	2511.480161
809.201623	2508.016888
809.521590	2512.362363
809.841513	2511.215500
810.161390	2513.698269
810.481223	2511.724657
810.801011	2512.662312
811.120755	2511.853206
811.440453	2512.420336
811.760107	2510.174502
812.079716	2512.621982
812.399281	2510.703823
812.718801	2510.262722
813.038276	2510.240037
813.357707	2510.247599
813.677093	2510.101405
813.996434	2510.265243
814.315731	2511.684328
814.634983	2512.150634
814.954191	2508.596621
815.273354	2508.941940
815.592473	2511.553258
815.911547	2511.202897
816.230577	2514.998886
816.549562	2516.102899
816.868502	2516.501150
817.187399	2517.683301
817.506250	2518.326048
817.825058	2517.511902
818.143821	2521.640607
818.462539	2524.312418
818.781213	2529.638397
819.099843	2532.093439
819.418429	2540.083668
819.736970	2545.528114
820.055466	2559.663509
820.373919	2571.979048
820.692327	2587.483117
821.010691	2618.309773
821.329011	2677.860923
821.647286	2788.925104
821.965517	2930.216043
822.283704	3032.133051
822.601847	3093.123451
822.919945	3054.404868
823.237999	2995.889675
823.556010	2929.779984
823.873976	2866.052237
824.191897	2805.167702
824.509775	2760.490476
824.827609	2714.144628
825.145398	2687.096317
825.463144	2675.368072
825.780845	2670.815911
826.098502	2676.199863
826.416116	2703.517876
826.733685	2734.326887
827.051210	2748.588312
827.368692	2744.323495
827.686129	2715.541027
828.003522	2684.240503
828.320872	2652.032571
828.638177	2628.016514
828.955439	2603.297217
829.272656	2586.565627
829.589830	2574.320664
829.906960	2557.624363
830.224046	2549.566078
830.541088	2543.302445
830.858086	2535.065199
831.175041	2530.870959
831.491952	2530.112266
831.808819	2530.182842
832.125642	2532.990764
832.442421	2539.045190
832.759157	2555.738971
833.075849	2579.117322
833.392497	2604.708740
833.709101	2627.361164
834.025662	2633.702936
834.342179	2625.022069
834.658653	2606.576487
834.975083	2590.832964
835.291469	2571.918554
835.607811	2560.507903
835.924110	2548.426777
836.240366	2537.805066
836.556578	2532.088398
836.872746	2527.080012
837.188871	2522.071625
837.504952	2516.745646
837.820990	2512.329595
838.136984	2508.198370
838.452935	2509.463699
838.768842	2506.595283
839.084706	2507.956394
839.400526	2520.556758
839.716303	2536.151568
840.032037	2545.389482
840.347727	2545.245809
840.663373	2541.308668
840.978977	2530.034128
841.294537	2525.227387
841.610054	2516.700276
841.925527	2515.576098
842.240957	2511.220542
842.556344	2507.154851
842.871687	2503.724346
843.186987	2501.203769
843.502244	2496.003819
843.817458	2494.557008
844.132629	2494.181442
844.447756	2492.797645
844.762840	2493.395022
845.077881	2488.006028
845.392879	2490.892089
845.707833	2490.332521
846.022745	2488.142139
846.337613	2489.450319
846.652438	2490.445947
846.967221	2490.876965
847.281960	2490.125833
847.596656	2488.550473
847.911309	2489.619197
848.225919	2487.461583
848.540485	2486.879330
848.855009	2487.764053
849.169490	2486.339927
849.483928	2488.673981
849.798323	2487.325472
850.112675	2485.510657
850.426984	2487.073415
850.741251	2489.697335
851.055474	2485.278764
851.369654	2486.458394
851.683792	2485.966881
851.997887	2485.490492
852.311938	2486.881851
852.625947	2486.985194
852.939914	2489.125164
853.253837	2486.690287
853.567718	2484.404124
853.881555	2485.850935
854.195350	2488.056440
854.509103	2486.594505
854.822812	2486.526449
855.136479	2487.181799
855.450103	2486.985194
855.763685	2483.463948
856.077224	2484.051243
856.390720	2483.519401
856.704173	2481.109730
857.017584	2485.326655
857.330953	2485.125009
857.644278	2487.539721
857.957561	2490.773622
858.270802	2484.018475
858.584000	2488.031234
858.897155	2486.534011
859.210268	2487.184320
859.523339	2484.935965
859.836367	2486.549135
860.149352	2486.387818
860.462295	2486.518888
860.775195	2488.139619
861.088054	2489.346975
861.400869	2485.598877
861.713642	2485.838332
862.026373	2484.872951
862.339062	2484.278095
862.651708	2486.919659
862.964312	2485.188023
863.276873	2486.551655
863.589392	2486.937303
863.901869	2486.423106
864.214303	2486.949906
864.526696	2491.038282
864.839045	2490.574496
865.151353	2490.493837
865.463619	2490.503920
865.775842	2490.768580
866.088023	2492.709425
866.400162	2490.975268
866.712258	2491.958293
867.024313	2490.763539
867.336325	2489.498210
867.648296	2490.110710
867.960224	2489.553662
868.272110	2492.742192
868.583954	2491.381081
868.895755	2492.732110
869.207515	2491.655823
869.519233	2493.140443
869.830909	2491.431492
870.142542	2492.880824
870.454134	2495.751761
870.765684	2493.440392
871.077191	2493.757985
871.388657	2491.098776
871.700081	2490.640031
872.011463	2493.112717
872.322803	2491.650782
872.634101	2496.608757
872.945357	2495.928201
873.256571	2500.843326
873.567744	2496.646566
873.878874	2500.765188
874.189963	2497.680002
874.501010	2502.078409
874.812015	2499.308295
875.122979	2498.010198
875.433900	2499.015908
875.744780	2501.160919
876.055618	2501.483553
876.366415	2499.504900
876.677169	2501.894407
876.987882	2502.811897
877.298554	2500.966835
877.609183	2504.009171
877.919771	2504.465395
878.230317	2506.854902
878.540822	2510.229955
878.851285	2515.450070
879.161707	2519.974505
879.472087	2528.365506
879.782425	2546.390151
880.092722	2570.270097
880.402977	2613.840790
880.713191	2664.433810
881.023363	2722.991853
881.333494	2766.159253
881.643583	2786.759928
881.953631	2787.105247
882.263637	2776.523866
882.573602	2756.752460
882.883526	2736.292937
883.193408	2714.424412
883.503248	2691.842563
883.813048	2671.607372
884.122806	2652.887047
884.432522	2633.864253
884.742197	2612.930862
885.051831	2598.981989
885.361424	2580.511201
885.670975	2568.614078
885.980485	2556.492624
886.289954	2547.131201
886.599382	2538.863709
886.908768	2529.993798
887.218113	2523.316790
887.527417	2519.523322
887.836680	2511.099554
888.145901	2514.789678
888.455082	2508.788185
888.764221	2510.429080
889.073319	2506.582680
889.382376	2508.339522
889.691392	2506.781806
890.000366	2506.822135
890.309300	2502.958090
890.618193	2506.378513
890.927044	2504.777947
891.235855	2502.398522
891.544625	2505.854233
891.853353	2505.776095
892.162041	2506.040756
892.470687	2508.921775
892.779293	2512.261540
893.087858	2515.629031
893.396381	2524.148581
893.704864	2534.790456
894.013306	2550.097920
894.321707	2568.430076
894.630068	2580.289390
894.938387	2586.850452
895.246665	2585.963209
895.554903	2580.450707
895.863100	2572.263873
896.171256	2562.736093
896.479371	2557.299208
896.787446	2550.246634
897.095480	2541.585932
897.403473	2538.382278
897.711425	2531.725435
898.019336	2525.441637
898.327207	2522.764784
898.635038	2519.876203
898.942827	2514.177178
899.250576	2514.409071
899.558284	2507.638802
899.865952	2510.343381
900.173579	2505.682834
900.481165	2499.217554
900.788711	2504.598986
901.096216	2503.563029
901.403681	2500.843326
901.711105	2502.128821
902.018489	2499.852740
902.325832	2500.951711
902.633135	2497.183449
902.940397	2504.125118
903.247619	2511.848165
903.554800	2535.778522
903.861941	2564.971844
904.169041	2591.750454
904.476101	2606.760489
904.783121	2608.653442
905.090100	2597.126844
905.397039	2587.838518
905.703938	2572.402505
906.010796	2564.629046
906.317614	2552.126984
906.624391	2545.649102
906.931129	2535.876825
907.237826	2531.014632
907.544483	2522.636234
907.851099	2516.798578
908.157675	2510.108967
908.464211	2507.026302
908.770707	2499.852740
909.077163	2495.509786
909.383578	2495.154384
909.689954	2494.562049
909.996289	2490.211533
910.302584	2492.043992
910.608839	2490.113230
910.915054	2489.241111
911.221229	2488.174907
911.527363	2488.510143
911.833458	2486.344968
912.139513	2487.897643
912.445527	2490.002325
912.751502	2493.342089
913.057436	2488.772283
913.363331	2495.280413
913.669186	2498.267297
913.975000	2502.746362
914.280775	2509.587208
914.586510	2517.605163
914.892205	2527.518592
915.197859	2545.119781
915.503475	2567.552915
915.809050	2585.945565
916.114585	2600.171701
916.420081	2606.808380
916.725536	2608.988679
917.030952	2600.474170
917.336328	2594.155084
917.641665	2586.674012
917.946961	2577.312589
918.252218	2573.125911
918.557435	2559.325752
918.862612	2556.666543
919.167750	2552.421892
919.472848	2546.191026
919.777906	2537.048893
920.082925	2532.635363
920.387904	2522.825278
920.692843	2519.583816
920.997743	2511.497805
921.302603	2509.884636
921.607423	2503.663852
921.912204	2504.583862
922.216946	2499.958604
922.521647	2497.397698
922.826310	2497.284272
923.130932	2497.488438
923.435516	2492.104486
923.740059	2494.640187
924.044564	2491.721358
924.349028	2490.191368
924.653454	2488.048878
924.957840	2486.647437
925.262186	2486.034937
925.566493	2483.375728
925.870761	2484.315903
926.174989	2482.705255
926.479178	2482.669967
926.783328	2481.029071
927.087438	2479.436067
927.391509	2478.863896
927.695541	2481.482775
927.999533	2476.673514
928.303486	2478.689976
928.607400	2477.654019
928.911275	2476.678555
929.215110	2478.568988
929.518906	2476.970942
929.822663	2481.563433
930.126381	2477.717033
930.430060	2477.931282
930.733699	2474.944398
931.037299	2476.978504
931.340861	2478.637044
931.644383	2477.054121
931.947866	2477.593525
932.251309	2481.129894
932.554714	2478.803402
932.858080	2477.482619
933.161407	2471.521455
933.464694	2477.081848
933.767943	2471.251753
934.071153	2477.253247
934.374323	2477.228041
934.677455	2476.381127
934.980548	2476.978504
935.283602	2476.313072
935.586617	2476.129070
935.889593	2477.122177
936.192530	2475.551858
936.495428	2477.434728
936.798287	2475.756024
937.101108	2477.361632
937.403890	2480.807260
937.706632	2478.238793
938.009336	2481.104688
938.312002	2482.790954
938.614628	2485.540904
938.917216	2485.593836
939.219765	2485.606439
939.522275	2484.623414
939.824747	2485.006542
940.127179	2485.503095
940.429573	2488.434526
940.731929	2487.537201
941.034246	2485.702221
941.336524	2486.985194
941.638763	2483.683239
941.940964	2484.661222
942.243126	2482.869092
942.545250	2485.558548
942.847335	2483.660553
943.149381	2484.210039
943.451389	2481.205512
943.753359	2481.694503
944.055290	2479.854482
944.357182	2483.975626
944.659036	2481.626448
944.960851	2481.475213
945.262628	2480.209884
945.564367	2481.273567
945.866067	2481.011427
946.167729	2478.513535
946.469352	2477.291056
946.770937	2477.719554
947.072484	2481.749956
947.373992	2479.567137
947.675462	2480.073772
947.976893	2479.413381
948.278286	2474.594038
948.579641	2475.032619
948.880958	2470.425004
949.182236	2477.152424
949.483476	2478.102681
949.784678	2479.310038
950.085841	2480.618217
950.386967	2478.846252
950.688054	2479.552013
950.989103	2480.497229
951.290114	2478.556385
951.591087	2478.132928
951.892021	2478.216107
952.192917	2483.282467
952.493776	2480.857672
952.794596	2485.195585
953.095378	2482.722899
953.396122	2481.870944
953.696828	2483.610142
953.997496	2480.477065
954.298126	2480.262816
954.598718	2482.029740
954.899272	2480.703917
955.199788	2481.356746
955.500266	2479.511684
955.800706	2475.657722
956.101108	2478.211066
956.401472	2473.913483
956.701798	2481.107209
957.002087	2476.615541
957.302337	2477.142342
957.602550	2474.238637
957.902724	2474.478092
958.202861	2477.159986
958.502960	2472.023050
958.803022	2471.317288
959.103045	2472.340642
959.403031	2471.186218
959.702979	2473.512711
960.002889	2470.997175
960.302762	2471.019860
960.602596	2471.261836
960.902393	2470.926599
961.202153	2469.936012
961.501875	2469.444500
961.801559	2469.968780
962.101205	2467.864098
962.400814	2468.083388
962.700385	2469.182360
962.999918	2467.314612
963.299414	2466.384519
963.598873	2467.057513
963.898293	2460.745989
964.197677	2469.300827
964.497022	2466.238326
964.796331	2469.729325
965.095601	2467.773357
965.394835	2467.327215
965.694030	2468.688327
965.993189	2469.353759
966.292309	2466.104735
966.591393	2468.252267
966.890439	2467.821248
967.189447	2467.975003
967.488419	2468.451392
967.787353	2470.850982
968.086249	2468.121197
968.385108	2467.528861
968.683930	2466.485342
968.982714	2465.940898
969.281462	2468.703450
969.580172	2467.438120
969.878844	2467.004581
970.177480	2468.595065
970.476078	2466.308902
970.774639	2468.030456
971.073162	2468.932822
971.371649	2466.611371
971.670098	2469.464664
971.968510	2466.928964
972.266885	2467.944756
972.565223	2469.169757
972.863524	2468.973152
973.161788	2468.872329
973.460014	2468.169088
973.758204	2471.607155
974.056356	2467.667493
974.354471	2467.594396
974.652550	2470.306537
974.950591	2468.834520
975.248595	2466.873511
975.546563	2470.031794
975.844493	2469.696557
976.142386	2472.570015
976.440243	2471.571867
976.738062	2467.969962
977.035845	2468.809314
977.333590	2469.431897
977.631299	2471.350056
977.928971	2466.722277
978.226606	2465.600620
978.524204	2466.255970
978.821765	2467.208748
979.119290	2467.909468
979.416777	2467.894345
979.714228	2466.712194
980.011642	2468.569859
980.309020	2465.121710
980.606360	2468.027935
980.903664	2468.204376
981.200931	2471.380303
981.498162	2473.379120
981.795356	2474.510859
982.092513	2474.815849
982.389633	2478.644605
982.686717	2480.650985
982.983764	2484.580564
983.280775	2485.276243
983.577749	2483.085862
983.874686	2485.659371
984.171587	2483.279946
984.468451	2486.392859
984.765279	2480.686273
985.062070	2479.085706
985.358824	2479.756180
985.655543	2476.275263
985.952224	2477.883391
986.248869	2471.589511
986.545478	2473.956332
986.842050	2474.183184
987.138586	2469.605817
987.435086	2471.201342
987.731549	2466.291258
988.027975	2469.099181
988.324366	2465.598099
988.620719	2469.820066
988.917037	2466.039200
989.213318	2468.148923
989.509563	2468.093470
989.805772	2466.830661
990.101944	2464.554580
990.398080	2468.738738
990.694180	2465.905610
990.990244	2464.645321
991.286271	2466.346711
991.582262	2463.314457
991.878217	2463.957204
992.174136	2465.396453
992.470019	2464.678089
992.765865	2463.863942
993.061676	2461.061061
993.357450	2465.986268
993.653188	2461.698767
993.948890	2464.173973
994.244556	2466.966772
994.540186	2464.738583
994.835780	2467.949797
995.131337	2469.484829
995.426859	2473.174953
995.722345	2472.827114
996.017795	2473.323668
996.313208	2473.059007
996.608586	2474.147896
996.903928	2475.287197
997.199234	2475.042701
997.494504	2477.006230
997.789738	2475.682928
998.084936	2475.327526
998.380099	2476.232413
998.675225	2472.259984
998.970316	2470.586321
999.265371	2471.579428
999.560390	2470.800570
999.855373	2470.964407
1000.150320	2467.022225
1000.445232	2466.452575
1000.740108	2468.973152
1001.034948	2464.216823
1001.329752	2465.184725
1001.624521	2465.580455
1001.919254	2464.869652
1002.213951	2465.429221
1002.508613	2463.382512
1002.803239	2466.142544
1003.097829	2464.221864
1003.392384	2464.506689
1003.686903	2461.905454
1003.981386	2464.231947
1004.275834	2465.464509
1004.570246	2464.637759
1004.864623	2461.144240
1005.158964	2464.761268
1005.453270	2462.833026
1005.747540	2462.699436
1006.041775	2464.355455
1006.335974	2461.378653
1006.630138	2464.257152
1006.924266	2465.565332
1007.218359	2464.655403
1007.512416	2459.490741
1007.806438	2456.017386
1008.100425	2462.558283
1008.394376	2457.373457
1008.688292	2463.690022
1008.982172	2461.560135
1009.276017	2463.664817
1009.569827	2464.446196
1009.863602	2464.438634
1010.157341	2464.491566
1010.451045	2462.714559
1010.744714	2465.446865
1011.038347	2465.154478
1011.331945	2464.264714
1011.625508	2462.964096
1011.919036	2461.262707
1012.212528	2463.014508
1012.505986	2462.238170
1012.799408	2463.417800
1013.092795	2462.170115
1013.386147	2462.386884
1013.679464	2462.104580
1013.972745	2465.494756
1014.265992	2459.669702
1014.559204	2463.390074
1014.852380	2464.105918
1015.145521	2463.299333
1015.438628	2463.052317
1015.731699	2463.561473
1016.024736	2464.282358
1016.317737	2463.445527
1016.610703	2463.611885
1016.903635	2463.594241
1017.196531	2462.548201
1017.489393	2464.547019
1017.782219	2462.606174
1018.075011	2462.419652
1018.367768	2463.395115
1018.660490	2461.802110
1018.953177	2461.802110
1019.245829	2461.802110
