Dividing Wavelength (nm)	Counts (n)	Blue Motor Position (mm): 0.000000	Red Motor Position (mm): 12.000000	
326.493990	2053.506457
326.888308	2053.506457
327.282561	2053.506457
327.676750	2029.956707
328.070874	2029.394619
328.464933	2036.810156
328.858929	2044.094623
329.252859	2056.316901
329.646726	2068.108160
330.040528	2083.355129
330.434265	2100.893304
330.827938	2121.985491
331.221547	2142.208080
331.615091	2161.583755
332.008571	2184.785665
332.401986	2202.202852
332.795338	2223.778990
333.188625	2243.321023
333.581847	2261.864908
333.975006	2280.832249
334.368100	2295.441513
334.761129	2314.779379
335.154095	2330.744713
335.546996	2343.609738
335.939833	2357.886286
336.332606	2370.090919
336.725315	2381.741026
337.117960	2395.160577
337.510540	2404.769016
337.903056	2414.458114
338.295508	2422.977664
338.687896	2427.265165
339.080220	2433.584252
339.472480	2433.574169
339.864676	2441.665221
340.256807	2443.164965
340.648875	2445.788885
341.040879	2445.609924
341.432818	2446.272836
341.824694	2451.172837
342.216506	2448.589246
342.608253	2446.323247
342.999937	2446.371138
343.391557	2445.572116
343.783113	2443.437187
344.174605	2441.072886
344.566033	2442.670932
344.957397	2442.358380
345.348697	2439.162288
345.739934	2437.569284
346.131106	2437.246650
346.522215	2432.765064
346.913260	2431.288006
347.304241	2430.786411
347.695159	2428.172573
348.086012	2427.355906
348.476802	2425.588982
348.867528	2422.352561
349.258191	2417.097158
349.648789	2419.675708
350.039324	2416.983732
350.429796	2422.697880
350.820203	2419.395924
351.210548	2420.520102
351.600828	2418.339802
351.991045	2418.506161
352.381198	2418.032292
352.771288	2418.054977
353.161314	2415.612538
353.551276	2420.751995
353.941175	2415.816705
354.331010	2417.550862
354.720782	2417.414751
355.110490	2415.342837
355.500135	2418.070101
355.889717	2418.571696
356.279235	2419.688311
356.668689	2418.675039
357.058080	2418.488517
357.447408	2421.147725
357.836672	2420.993970
358.225873	2423.469177
358.615010	2422.158477
359.004084	2423.428847
359.393095	2421.626635
359.782043	2424.570669
360.170927	2423.617891
360.559748	2423.885072
360.948505	2426.113262
361.337199	2424.157294
361.725830	2425.878848
362.114398	2424.263158
362.502903	2426.287182
362.891344	2426.017480
363.279722	2426.211564
363.668037	2429.800866
364.056289	2428.071750
364.444478	2427.338262
364.832603	2428.454878
365.220665	2431.686257
365.608665	2431.698860
365.996601	2429.692481
366.384474	2429.957142
366.772284	2429.891607
367.160031	2431.093922
367.547715	2432.351690
367.935336	2431.729107
368.322893	2432.132399
368.710388	2425.997315
369.097820	2430.557039
369.485189	2429.639549
369.872495	2434.353028
370.259738	2430.115938
370.646918	2434.973090
371.034035	2430.519230
371.421090	2436.997113
371.808081	2436.835796
372.195010	2438.270004
372.581875	2440.087340
372.968678	2443.469954
373.355418	2442.237392
373.742096	2444.521035
374.128710	2445.095727
374.515262	2447.815429
374.901751	2453.222067
375.288177	2454.641151
375.674540	2458.172480
376.060841	2459.972172
376.447079	2465.797225
376.833254	2470.145220
377.219367	2475.894656
377.605417	2480.351036
377.991404	2487.060812
378.377329	2495.076246
378.763191	2503.111846
379.148991	2509.279697
379.534727	2516.566685
379.920402	2525.280320
380.306013	2535.153419
380.691563	2547.221942
381.077049	2556.772408
381.462474	2566.895045
381.847835	2580.889288
382.233134	2598.903851
382.618371	2606.783174
383.003545	2625.889147
383.388657	2641.000006
383.773706	2658.898623
384.158693	2669.177536
384.543618	2689.077490
384.928480	2700.253728
385.313280	2723.528736
385.698017	2741.941550
386.082692	2767.240581
386.467305	2779.830862
386.851856	2804.177115
387.236344	2833.410766
387.620770	2847.830987
388.005133	2868.335880
388.389435	2903.218144
388.773674	2914.853127
389.157851	2948.812860
389.541965	2973.388485
389.926018	2987.672594
390.310008	3016.644106
390.693936	3043.654608
391.077802	3070.206365
391.461606	3101.501848
391.845348	3114.936523
392.229027	3142.221768
392.612645	3177.575380
392.996200	3207.398847
393.379694	3240.738517
393.763125	3276.066924
394.146494	3298.938639
394.529801	3328.230263
394.913047	3366.212837
395.296230	3366.595964
395.679351	3382.694889
396.062410	3423.553441
396.445408	3392.782238
396.828343	3424.972526
397.211217	3447.927420
397.594028	3414.418870
397.976778	3447.587142
398.359466	3461.195737
398.742092	3460.038792
399.124656	3463.673464
399.507158	3500.360461
399.889598	3490.615911
400.271977	3528.601005
400.654294	3504.058148
401.036549	3533.634597
401.418742	3520.356198
401.800874	3553.814336
402.182944	3554.424316
402.564952	3598.489041
402.946898	3574.977100
403.328783	3549.204201
403.710606	3562.447312
404.092367	3592.195161
404.474067	3608.016822
404.855705	3572.859815
405.237282	3529.198382
405.618797	3564.851942
406.000250	3589.190633
406.381642	3611.159982
406.762972	3580.202256
407.144240	3529.848691
407.525447	3536.434958
407.906593	3513.477543
408.287677	3529.636962
408.668700	3512.890249
409.049661	3498.442302
409.430560	3482.381186
409.811399	3441.996503
410.192176	3433.514761
410.572891	3432.118362
410.953545	3445.210238
411.334138	3367.556304
411.714669	3375.407901
412.095139	3308.824341
412.475547	3315.125784
412.855894	3284.999848
413.236180	3284.979684
413.616405	3226.794686
413.996568	3226.225036
414.376670	3196.089018
414.756711	3158.073677
415.136691	3144.389465
415.516609	3134.859163
415.896466	3112.000051
416.276262	3098.746858
416.655997	3090.192020
417.035670	3079.754311
417.415283	3078.494022
417.794834	3058.639438
418.174324	3017.841380
418.553753	2986.860969
418.933121	2986.629076
419.312428	2954.007769
419.691674	2916.786410
420.070859	2919.707758
420.449983	2877.452807
420.829045	2874.428114
421.208047	2843.598938
421.586988	2832.609223
421.965867	2815.257571
422.344686	2798.742751
422.723444	2790.480300
423.102141	2737.250757
423.480777	2747.955647
423.859352	2718.815257
424.237866	2720.299877
424.616319	2704.034594
424.994712	2694.862214
425.373044	2673.603669
425.751314	2671.047804
426.129524	2637.708133
426.507673	2637.443472
426.885762	2624.505351
427.263789	2615.766511
427.641756	2607.075561
428.019662	2596.857142
428.397508	2586.414392
428.775292	2577.864595
429.153016	2570.058369
429.530679	2559.668551
429.908282	2554.723179
430.285824	2543.723381
430.663305	2541.044008
431.040726	2535.881866
431.418086	2529.308202
431.795385	2528.166380
432.172624	2525.371060
432.549802	2517.368229
432.926920	2511.671725
433.303977	2510.744153
433.680974	2509.239368
434.057910	2508.243740
434.434786	2505.234171
434.811601	2503.391630
435.188355	2500.787874
435.565050	2499.114211
435.941683	2496.969200
436.318257	2497.329642
436.694770	2499.971207
437.071222	2493.397542
437.447614	2496.036586
437.823946	2495.494662
438.200218	2494.617501
438.576429	2492.835453
438.952580	2491.350834
439.328670	2491.350834
439.704700	2490.312356
440.080670	2489.409989
440.456580	2489.341934
440.832429	2490.322438
441.208218	2486.816316
441.583947	2488.532829
441.959616	2489.162973
442.335224	2488.802530
442.710773	2489.190699
443.086261	2487.960658
443.461689	2485.787920
443.837057	2489.210864
444.212365	2488.167345
444.587612	2487.305308
444.962800	2484.124340
445.337927	2485.805564
445.712995	2478.274081
446.088002	2487.138950
446.462949	2486.140801
446.837837	2489.367140
447.212664	2487.179279
447.587431	2491.156749
447.962139	2494.436020
448.336786	2494.746051
448.711374	2497.692605
449.085901	2494.584734
449.460369	2491.638179
449.834776	2490.579537
450.209124	2493.803355
450.583412	2492.694301
450.957640	2492.570793
451.331808	2495.867708
451.705917	2489.835967
452.079965	2488.671460
452.453954	2491.151708
452.827883	2491.348313
453.201752	2488.106851
453.575562	2489.415031
453.949311	2491.088694
454.323001	2492.008704
454.696632	2490.387973
455.070202	2496.664210
455.443713	2492.532984
455.817164	2495.547594
456.190556	2495.681185
456.563888	2495.260248
456.937160	2493.483242
457.310373	2492.711945
457.683526	2493.947028
458.056619	2493.057264
458.429653	2494.403252
458.802628	2496.709580
459.175542	2494.861997
459.548398	2497.652276
459.921194	2498.098418
460.293930	2497.415342
460.666607	2502.456496
461.039224	2501.929695
461.411782	2503.557988
461.784280	2503.449603
462.156719	2502.436331
462.529099	2503.195025
462.901419	2500.850888
463.273680	2499.257883
463.645882	2496.671772
464.018024	2498.317708
464.390106	2492.875783
464.762130	2501.889366
465.134094	2507.986641
465.505999	2510.998731
465.877845	2517.615245
466.249631	2522.817716
466.621358	2518.250431
466.993026	2519.089783
467.364634	2518.822602
467.736184	2516.173475
468.107674	2510.144255
468.479105	2511.948988
468.850477	2509.088133
469.221790	2509.541837
469.593043	2509.221724
469.964238	2506.970849
470.335373	2506.469254
470.706449	2506.885149
471.077467	2510.441683
471.448425	2517.615245
471.819324	2520.879392
472.190164	2518.825122
472.560945	2513.121057
472.931667	2512.616941
473.302330	2511.018895
473.672934	2507.792557
474.043479	2510.532424
474.413965	2508.251302
474.784393	2508.430263
475.154761	2511.596108
475.525070	2512.054852
475.895321	2510.948319
476.265513	2511.218021
476.635645	2509.559481
477.005719	2511.182733
477.375734	2512.644668
477.745691	2513.806653
478.115588	2514.835049
478.485427	2517.811850
478.855207	2521.229753
479.224928	2523.810823
479.594591	2526.832995
479.964194	2526.772501
480.333739	2529.479601
480.703226	2527.016997
481.072653	2528.894827
481.442022	2528.993129
481.811333	2529.237625
482.180584	2526.679240
482.549777	2527.523633
482.918912	2524.133457
483.287988	2526.036493
483.657005	2526.946421
484.025964	2526.926256
484.394864	2528.471370
484.763706	2526.298633
485.132489	2524.602284
485.501213	2525.093797
485.869879	2524.713190
486.238487	2526.346524
486.607036	2522.598426
486.975527	2525.771832
487.343959	2525.439116
487.712333	2527.163191
488.080648	2525.237470
488.448905	2528.433561
488.817104	2523.165556
489.185244	2525.250073
489.553326	2528.524302
489.921350	2535.128214
490.289315	2539.650129
490.657222	2536.822041
491.025070	2539.503935
491.392861	2540.905376
491.760593	2539.438400
492.128267	2536.391023
492.495883	2534.722401
492.863440	2533.222657
493.230939	2531.299457
493.598380	2529.212420
493.965763	2528.851977
494.333088	2528.133613
494.700354	2523.636903
495.067563	2527.674868
495.434713	2528.088242
495.801805	2526.941380
496.168839	2527.145547
496.535815	2527.881555
496.902733	2526.197810
497.269593	2526.704446
497.636395	2526.107069
498.003139	2525.018180
498.369825	2525.953314
498.736453	2527.624456
499.103023	2529.676206
499.469535	2525.350896
499.835989	2528.531864
500.202385	2525.136647
500.568723	2522.207736
500.935003	2521.882582
501.301226	2521.212108
501.667390	2528.788963
502.033497	2531.102852
502.399546	2529.000691
502.765537	2527.064888
503.131470	2527.001874
503.497345	2529.590506
503.863163	2524.597243
504.228923	2529.913140
504.594625	2527.543798
504.960269	2525.988602
505.325856	2526.270906
505.691385	2527.755526
506.056856	2524.902233
506.422270	2527.311905
506.787625	2527.906761
507.152924	2527.942049
507.518164	2526.684281
507.883347	2525.023221
508.248472	2526.260824
508.613540	2529.673685
508.978550	2526.722090
509.343503	2528.181504
509.708398	2527.768129
510.073236	2528.405835
510.438016	2525.910464
510.802738	2526.812830
511.167403	2527.823582
511.532010	2527.090094
511.896561	2529.250228
512.261053	2528.564631
512.625488	2526.459950
512.989866	2527.498427
513.354186	2527.919364
513.718449	2526.580937
514.082655	2526.064219
514.446803	2530.122348
514.810894	2528.597399
515.174927	2525.718900
515.538904	2524.587161
515.902822	2529.479601
516.266684	2525.479445
516.630488	2530.039169
516.994235	2525.174455
517.357925	2526.792666
517.721558	2528.592358
518.085133	2527.211082
518.448651	2527.117820
518.812112	2523.533560
519.175516	2523.594054
519.538863	2521.539783
519.902152	2529.880373
520.265385	2524.549352
520.628560	2528.899868
520.991678	2525.146729
521.354739	2529.257790
521.717743	2527.901720
522.080690	2526.896009
522.443580	2528.849457
522.806413	2529.867770
523.169189	2525.625639
523.531908	2527.795855
523.894569	2528.809127
524.257174	2527.788294
524.619722	2527.097656
524.982213	2527.725279
525.344647	2526.724610
525.707025	2527.372398
526.069345	2525.340813
526.431608	2528.448685
526.793815	2529.396422
527.155964	2529.315763
527.518057	2527.495907
527.880093	2526.550690
528.242072	2526.795186
528.603995	2525.507172
528.965860	2526.233098
529.327669	2524.040196
529.689421	2523.954496
530.051117	2525.119003
530.412755	2524.665299
530.774337	2525.401307
531.135862	2524.040196
531.497331	2525.219826
531.858743	2526.515402
532.220098	2526.505320
532.581396	2524.491379
532.942638	2526.550690
533.303824	2524.055319
533.664953	2522.338806
534.026025	2523.979702
534.387040	2522.931142
534.747999	2526.119672
535.108902	2521.224711
535.469748	2525.406348
535.830537	2525.736544
536.191270	2524.060360
536.551947	2522.212777
536.912567	2519.644310
537.273131	2522.726975
537.633638	2514.804802
537.994089	2524.685463
538.354483	2521.610360
538.714821	2523.026924
539.075103	2524.695546
539.435328	2523.581451
539.795497	2524.216636
540.155609	2523.399969
540.515665	2522.973992
540.875665	2521.897705
541.235609	2520.390400
541.595496	2524.630011
541.955328	2523.596574
542.315102	2523.415093
542.674821	2521.988446
543.034483	2527.536236
543.394090	2521.479290
543.753640	2520.828981
544.113134	2523.094979
544.472571	2522.661440
544.831953	2522.817716
545.191278	2521.512057
545.550548	2522.313601
545.909761	2523.657068
546.268918	2526.220495
546.628019	2523.273940
546.987064	2521.736388
547.346053	2523.904085
547.704986	2521.615401
548.063863	2522.563138
548.422684	2519.782941
548.781449	2521.060874
549.140158	2523.641945
549.498811	2521.224711
549.857408	2522.759743
550.215949	2525.668488
550.574434	2522.018693
550.932864	2523.215967
551.291237	2522.104393
551.649555	2523.672192
552.007817	2520.738240
552.366022	2521.769156
552.724173	2523.120185
553.082267	2522.205216
553.440305	2522.467356
553.798288	2522.979033
554.156215	2520.778569
554.514086	2517.166583
554.871902	2519.044412
555.229661	2519.001563
555.587365	2519.094824
555.945014	2520.970133
556.302606	2521.940555
556.660143	2522.149763
557.017625	2522.946265
557.375050	2522.003570
557.732421	2523.848632
558.089735	2521.862417
558.446994	2520.352592
558.804197	2525.121523
559.161345	2523.364681
559.518437	2520.949968
559.875474	2520.115657
560.232455	2522.278312
560.589381	2524.602284
560.946251	2521.691018
561.303065	2522.797551
561.659825	2521.464166
562.016528	2521.670853
562.373177	2518.699093
562.729770	2520.599608
563.086307	2521.859897
563.442789	2524.173786
563.799216	2523.147912
564.155587	2521.771677
564.511904	2521.837212
564.868164	2522.134640
565.224370	2520.982736
565.580520	2522.371574
565.936615	2523.697397
566.292654	2522.459794
566.648638	2523.014321
567.004567	2522.492562
567.360441	2521.275123
567.716260	2520.445853
568.072023	2521.582633
568.427732	2521.940555
568.783385	2521.244876
569.138982	2523.218488
569.494525	2522.943745
569.850013	2521.958199
570.205445	2523.939373
570.560823	2520.609691
570.916145	2520.997859
571.271412	2523.505833
571.626625	2522.792510
571.981782	2519.354443
572.336884	2518.431912
572.691931	2518.293280
573.046923	2520.256810
573.401860	2515.848321
573.756743	2521.353261
574.111570	2521.489372
574.466342	2520.972654
574.821059	2519.377128
575.175722	2518.479803
575.530330	2520.529032
575.884882	2518.295801
576.239380	2519.412417
576.593823	2521.078518
576.948211	2519.742612
577.302544	2520.828981
577.656823	2521.325534
578.011047	2520.899557
578.365216	2521.292767
578.719330	2519.767818
579.073389	2517.012827
579.427394	2519.488034
579.781344	2517.673218
580.135239	2518.265554
580.489080	2517.685821
580.842866	2519.452746
581.196597	2517.968126
581.550273	2518.121881
581.903895	2520.231604
582.257463	2516.405368
582.610975	2518.757067
582.964434	2516.569206
583.317837	2517.169103
583.671186	2518.764628
584.024481	2520.057684
584.377721	2518.283198
584.730906	2517.280008
585.084037	2518.741943
585.437113	2519.014165
585.790135	2516.531397
586.143103	2519.210770
586.496016	2517.587519
586.848874	2518.363857
587.201679	2518.177334
587.554428	2518.699093
587.907124	2520.256810
588.259765	2518.109278
588.612352	2520.103055
588.964884	2518.071470
589.317362	2519.349402
589.669786	2518.361336
590.022155	2513.272291
590.374470	2513.610048
590.726731	2516.440656
591.078937	2508.702485
591.431090	2515.014010
591.783188	2516.483506
592.135232	2516.049967
592.487222	2517.035512
592.839157	2515.853362
593.191038	2512.818587
593.542866	2517.998373
593.894639	2514.991325
594.246358	2514.966119
594.598022	2513.935203
594.949633	2516.498630
595.301190	2515.014010
595.652692	2511.318844
596.004141	2513.572240
596.355535	2511.500326
596.706876	2515.876047
597.058162	2514.915707
597.409395	2513.920079
597.760573	2518.051305
598.111698	2513.894874
598.462768	2515.233300
598.813785	2512.780779
599.164748	2514.620800
599.515657	2510.920593
599.866511	2512.367404
600.217312	2514.250275
600.568060	2513.478978
600.918753	2515.591222
601.269392	2514.512415
601.619978	2511.079389
601.970510	2512.269102
602.320988	2513.655419
602.671412	2511.754904
603.021783	2515.966788
603.372100	2514.804802
603.722363	2513.743639
604.072572	2512.380007
604.422728	2511.215500
604.772830	2510.638288
605.122878	2514.436798
605.472872	2513.179030
605.822813	2513.325223
606.172701	2513.254647
606.522534	2512.735408
606.872314	2514.845131
607.222041	2512.831190
607.571714	2512.591735
607.921333	2509.337671
608.270899	2510.920593
608.620411	2511.122239
608.969870	2514.940913
609.319276	2512.012003
609.668627	2513.347908
610.017926	2514.643485
610.367171	2514.497292
610.716362	2513.098371
611.065500	2514.184740
611.414585	2515.891171
611.763616	2514.550224
612.112594	2510.766838
612.461518	2514.119205
612.810389	2512.410254
613.159207	2514.076355
613.507971	2511.265912
613.856682	2516.037364
614.205340	2514.688855
614.553945	2512.392610
614.902496	2514.779596
615.250994	2514.535100
615.599439	2516.879237
615.947830	2513.327744
616.296169	2516.102899
616.644454	2515.109792
616.992686	2515.976870
617.340864	2512.619462
617.688990	2514.537621
618.037063	2513.635254
618.385082	2513.930162
618.733048	2515.797909
619.080961	2514.827487
619.428821	2512.788340
619.776628	2515.868485
620.124382	2517.050636
620.472083	2513.552075
620.819731	2512.932013
621.167326	2513.761283
621.514868	2516.496109
621.862357	2512.316992
622.209793	2514.131808
622.557176	2515.629031
622.904506	2512.130470
623.251783	2512.248937
623.599007	2514.804802
623.946179	2510.852537
624.293297	2513.045439
624.640363	2511.727177
624.987376	2510.978566
625.334336	2505.788698
625.681243	2508.692403
626.028097	2507.298524
626.374899	2509.153668
626.721647	2508.929337
627.068343	2510.915552
627.414987	2510.313134
627.761577	2509.239368
628.108115	2510.537465
628.454600	2511.283556
628.801032	2511.112157
629.147412	2509.153668
629.493739	2508.004285
629.840014	2510.134173
630.186236	2509.093175
630.532405	2507.449758
630.878521	2510.582836
631.224585	2508.042094
631.570597	2507.235509
631.916556	2509.178874
632.262462	2507.296003
632.608316	2510.020747
632.954117	2509.625016
633.299866	2511.785151
633.645562	2511.311282
633.991206	2508.430263
634.336797	2506.285252
634.682336	2507.028822
635.027823	2508.105108
635.373257	2505.350118
635.718639	2508.019409
636.063968	2509.428411
636.409245	2508.067300
636.754470	2507.855571
637.099642	2504.483039
637.444762	2506.507063
637.789829	2503.905827
638.134845	2504.989675
638.479808	2506.118894
638.824719	2505.738287
639.169577	2502.804335
639.514383	2503.404233
639.859137	2503.784840
640.203839	2503.061434
640.548489	2503.212669
640.893086	2502.370796
641.237632	2502.953049
641.582125	2503.915910
641.926566	2504.122597
642.270955	2505.133348
642.615292	2499.588079
642.959576	2503.116887
643.303809	2497.783346
643.647990	2504.709891
643.992118	2504.102432
644.336195	2503.081599
644.680219	2502.937926
645.024192	2504.160406
645.368112	2504.634274
645.711981	2506.418843
646.055797	2504.561177
646.399562	2505.027484
646.743274	2504.558657
647.086935	2508.026971
647.430544	2504.694768
647.774101	2505.120745
648.117606	2504.762823
648.461059	2506.857423
648.804460	2509.352794
649.147810	2505.662669
649.491108	2503.948677
649.834354	2503.590755
650.177548	2504.997237
650.520690	2504.125118
650.863781	2504.314161
651.206820	2506.814573
651.549807	2504.568739
651.892742	2503.517658
652.235626	2505.793739
652.578458	2503.752072
652.921238	2504.324243
653.263967	2501.715446
653.606644	2498.721001
653.949269	2502.978255
654.291843	2502.761485
654.634365	2501.644870
654.976836	2500.180415
655.319255	2502.385919
655.661622	2500.031701
656.003938	2504.263749
656.346203	2503.217710
656.688416	2502.486742
657.030577	2501.289468
657.372687	2501.365086
657.714746	2503.245436
658.056753	2502.927843
658.398708	2500.908861
658.740612	2501.765858
659.082465	2501.324757
659.424266	2498.804180
659.766016	2499.910713
660.107715	2496.938953
660.449362	2496.379385
660.790958	2500.089674
661.132503	2500.926505
661.473996	2503.346259
661.815438	2498.655466
662.156829	2499.888028
662.498168	2501.970024
662.839456	2500.107318
663.180693	2502.070847
663.521879	2501.944818
663.863013	2500.719818
664.204097	2499.681340
664.545129	2503.477329
664.886110	2502.401043
665.227040	2502.290138
665.567918	2503.941115
665.908746	2502.401043
666.249522	2503.389109
666.590248	2501.677637
666.930922	2501.725528
667.271545	2500.805518
667.612118	2501.027328
667.952639	2501.077740
668.293109	2501.488594
668.633528	2501.995230
668.973896	2501.566732
669.314213	2501.912051
669.654480	2498.189159
669.994695	2501.919613
670.334859	2500.155209
670.674973	2501.944818
671.015035	2502.433810
671.355047	2502.834582
671.695008	2500.467760
672.034918	2502.191835
672.374777	2499.673779
672.714585	2497.687564
673.054342	2500.780312
673.394049	2500.543378
673.733705	2501.712925
674.073310	2501.264263
674.412864	2503.870539
674.752368	2499.628408
675.091820	2500.245950
675.431223	2500.661845
675.770574	2501.266783
676.109875	2500.074550
676.449125	2499.494818
676.788324	2495.411483
677.127473	2495.451812
677.466571	2494.877121
677.805619	2498.378202
678.144616	2497.654797
678.483562	2500.160250
678.822458	2498.065651
679.161303	2499.066320
679.500098	2499.560353
679.838842	2497.070023
680.177535	2502.708553
680.516179	2498.083295
680.854771	2495.620691
681.193314	2499.199910
681.531805	2499.449447
681.870247	2501.168481
682.208638	2501.725528
682.546978	2504.888852
682.885268	2500.702174
683.223508	2501.667555
683.561697	2502.801815
683.899836	2501.256701
684.237925	2501.821310
684.575963	2501.385250
684.913951	2500.724859
685.251889	2500.621516
685.589776	2499.520023
685.927614	2497.740496
686.265401	2501.163440
686.603137	2498.889879
686.940824	2502.721156
687.278460	2502.703512
687.616046	2501.876763
687.953582	2503.638646
688.291068	2499.905672
688.628504	2502.368275
688.965889	2503.608399
689.303224	2503.373986
689.640510	2502.065806
689.977745	2499.504900
690.314930	2502.839623
690.652065	2498.186638
690.989150	2499.625888
691.326185	2496.767553
691.663170	2497.647235
692.000105	2499.605723
692.336990	2495.419045
692.673825	2498.637822
693.010610	2495.235043
693.347345	2494.584734
693.684030	2490.640031
694.020665	2490.506440
694.357251	2488.913436
694.693786	2495.136740
695.030272	2494.541884
695.366707	2495.885352
695.703093	2491.302943
696.039429	2493.931904
696.375716	2491.625577
696.711952	2493.384939
697.048139	2494.080618
697.384276	2496.747389
697.720363	2494.730927
698.056400	2495.086329
698.392388	2494.544405
698.728326	2493.054744
699.064214	2493.999960
699.400053	2494.025166
699.735842	2493.604229
700.071581	2494.032727
700.407270	2492.669095
700.742910	2493.281596
701.078501	2491.073570
701.414042	2492.684219
701.749533	2492.376708
702.084974	2491.444095
702.420366	2490.796307
702.755709	2489.110041
703.091002	2490.831595
703.426246	2490.234218
703.761440	2490.022490
704.096584	2490.879486
704.431679	2491.960813
704.766725	2488.661378
705.101721	2488.041316
705.436668	2489.702376
705.771565	2488.071563
706.106413	2491.406286
706.441212	2490.221615
706.775961	2491.691112
707.110661	2492.548108
707.445311	2491.073570
707.779913	2492.936277
708.114465	2490.319918
708.448967	2489.987202
708.783421	2489.684732
709.117825	2492.404435
709.452180	2491.865031
709.786485	2493.216061
710.120742	2492.487614
710.454949	2489.087356
710.789107	2491.255052
711.123216	2490.193889
711.457275	2495.308139
711.791286	2497.496000
712.125247	2493.047182
712.459159	2496.575990
712.793023	2497.327122
713.126837	2495.139261
713.460602	2494.970382
713.794318	2495.320742
714.127985	2495.139261
714.461602	2492.747233
714.795171	2493.566421
715.128691	2494.478870
715.462162	2490.607263
715.795584	2491.154229
716.128957	2490.309835
716.462281	2492.122130
716.795556	2491.381081
717.128782	2492.490134
717.461960	2488.815133
717.795088	2492.275885
718.128167	2490.224136
718.461198	2489.735144
718.794180	2489.301605
719.127113	2488.101810
719.459997	2489.488127
719.792833	2487.080976
720.125619	2488.174907
720.458357	2488.575678
720.791046	2488.764722
721.123686	2486.418065
721.456278	2488.984012
721.788821	2487.673312
722.121315	2489.316728
722.453761	2488.192551
722.786158	2487.973261
723.118506	2484.822539
723.450805	2486.811275
723.783056	2486.108034
724.115259	2487.315390
724.447412	2485.503095
724.779518	2488.016110
725.111574	2486.914618
725.443582	2488.421923
725.775542	2488.915956
726.107453	2488.192551
726.439315	2487.552324
726.771129	2491.076091
727.102895	2483.920173
727.434612	2486.591984
727.766281	2482.748105
728.097901	2489.755308
728.429473	2488.754639
728.760996	2491.524753
729.092471	2491.209681
729.423897	2490.138436
729.755276	2491.333190
730.086606	2491.315546
730.417887	2490.241780
730.749120	2491.726400
731.080305	2489.921667
731.411442	2492.333859
731.742530	2490.413179
732.073570	2489.823364
732.404562	2491.910402
732.735506	2493.097593
733.066401	2490.135916
733.397249	2492.091883
733.728048	2493.362254
734.058798	2491.854949
734.389501	2489.001656
734.720156	2489.581389
735.050762	2490.466111
735.381320	2487.469145
735.711831	2490.022490
736.042293	2486.806233
736.372707	2486.208857
736.703073	2483.229535
737.033391	2487.809423
737.363661	2486.690287
737.693883	2488.734475
738.024056	2486.221460
738.354182	2489.732623
738.684260	2488.580720
739.014290	2488.729434
739.344272	2489.404948
739.674207	2487.905205
740.004093	2491.068529
740.333931	2488.631131
740.663722	2490.057778
740.993464	2489.384784
741.323159	2489.034423
741.652806	2488.711790
741.982405	2492.033910
742.311956	2488.336224
742.641460	2490.945021
742.970915	2487.116264
743.300323	2485.586274
743.629683	2484.401603
743.958996	2485.518219
744.288260	2483.111068
744.617477	2485.392190
744.946647	2485.056953
745.275768	2488.873107
745.604842	2485.976964
745.933869	2486.899495
746.262847	2486.632314
746.591778	2484.169710
746.920662	2485.893785
747.249498	2484.492344
747.578286	2485.664412
747.907027	2487.572489
748.235720	2484.935965
748.564365	2488.626090
748.892963	2487.985863
749.221514	2487.907726
749.550017	2485.840852
749.878473	2486.685246
750.206881	2483.516881
750.535242	2486.445791
750.863555	2487.653147
751.191821	2484.688949
751.520039	2483.736171
751.848210	2485.185502
752.176334	2488.865545
752.504411	2487.582571
752.832440	2482.879175
753.160421	2486.077787
753.488356	2486.718013
753.816243	2483.249699
754.144082	2484.736840
754.471875	2485.997128
754.799620	2483.234576
755.127318	2485.450163
755.454969	2484.431850
755.782572	2484.691469
756.110129	2483.877323
756.437638	2484.681387
756.765100	2486.627272
757.092515	2485.540904
757.419882	2485.500575
757.747203	2486.261789
758.074477	2484.633496
758.401703	2486.591984
758.728882	2484.797334
759.056014	2485.099803
759.383099	2485.619042
759.710138	2484.976295
760.037129	2478.677373
760.364073	2484.164669
760.690970	2480.829946
761.017820	2483.819350
761.344623	2484.840183
761.671379	2487.532160
761.998088	2485.319093
762.324751	2487.065853
762.651366	2491.839826
762.977935	2496.560866
763.304456	2502.559839
763.630931	2501.932216
763.957359	2502.035559
764.283740	2501.551608
764.610074	2496.739827
764.936362	2494.123468
765.262602	2491.549959
765.588796	2490.811430
765.914943	2488.885709
766.241044	2488.684063
766.567097	2486.513847
766.893104	2485.452684
767.219064	2483.393372
767.544978	2483.743733
767.870845	2484.726758
768.196665	2482.919504
768.522438	2483.297590
768.848165	2483.496716
769.173846	2483.380769
769.499479	2481.984370
769.825066	2483.098465
770.150607	2482.551500
770.476101	2479.821715
770.801548	2481.916314
771.126949	2479.824235
771.452303	2482.506129
771.777611	2479.960347
772.102872	2480.456900
772.428087	2480.338433
772.753256	2479.768783
773.078378	2480.661067
773.403453	2478.924389
773.728482	2480.643423
774.053465	2478.568988
774.378401	2481.460090
774.703291	2475.748463
775.028135	2481.331540
775.352932	2477.520428
775.677683	2481.132415
776.002388	2478.014461
776.327046	2476.499594
776.651658	2477.603607
776.976224	2471.586990
777.300743	2480.345995
777.625216	2476.527321
777.949643	2481.349184
778.274024	2476.245016
778.598359	2478.188381
778.922647	2477.727115
779.246889	2477.749801
779.571086	2477.747280
779.895236	2476.053452
780.219339	2480.562764
780.543397	2480.310707
780.867409	2476.066055
781.191374	2477.273412
781.515294	2478.891622
781.839167	2480.454380
782.162995	2478.977322
782.486776	2477.775006
782.810511	2478.059832
783.134201	2478.735346
783.457844	2480.189719
783.781441	2476.678555
784.104993	2478.090078
784.428498	2478.558906
784.751958	2477.785089
785.075372	2478.979842
785.398739	2479.675521
785.722061	2475.965232
786.045337	2478.536221
786.368568	2478.833649
786.691752	2476.247537
787.014891	2478.629482
787.337983	2478.140490
787.661030	2479.428505
787.984031	2479.448669
788.306987	2484.227683
788.629897	2479.862044
788.952760	2481.253402
789.275579	2481.664257
789.598351	2481.782724
789.921078	2480.414050
790.243759	2479.723412
790.566395	2481.008907
790.888984	2480.212404
791.211529	2479.491519
791.534027	2482.029740
791.856480	2478.465644
792.178888	2475.173771
792.501249	2474.588997
792.823566	2475.574543
793.145836	2472.328040
793.468062	2478.296766
793.790241	2474.722588
794.112375	2479.655357
794.434464	2477.084368
794.756507	2478.982363
795.078505	2478.687455
795.400457	2479.388176
795.722364	2479.168885
796.044226	2482.496047
796.366042	2481.137456
796.687812	2479.940182
797.009538	2479.509163
797.331218	2478.604276
797.652852	2481.681901
797.974442	2480.081334
798.295986	2480.051087
798.617484	2479.816674
798.938938	2477.830459
799.260346	2481.399596
799.581709	2478.538741
799.903026	2480.930769
800.224299	2476.786940
800.545526	2479.005048
800.866708	2476.048411
801.187845	2476.040849
801.508936	2477.225521
801.829983	2476.819708
802.150984	2476.003041
802.471940	2478.513535
802.792851	2476.839872
803.113717	2475.652681
803.434538	2475.892135
803.755314	2476.708802
804.076045	2476.101343
804.396731	2475.138483
804.717372	2476.524800
805.037967	2477.628813
805.358518	2477.374235
805.679024	2479.032774
805.999485	2478.415233
806.319901	2477.684266
806.640272	2478.788278
806.960598	2475.579584
807.280879	2477.207877
807.601115	2476.857516
807.921306	2475.546816
808.241453	2476.950778
808.561554	2471.319809
808.881611	2476.829790
809.201623	2471.982721
809.521590	2478.979842
809.841513	2475.322485
810.161390	2473.671507
810.481223	2480.590491
810.801011	2478.891622
811.120755	2476.189563
811.440453	2478.284163
811.760107	2478.364821
812.079716	2477.495222
812.399281	2478.591673
812.718801	2474.599079
813.038276	2474.520942
813.357707	2476.343319
813.677093	2477.306179
813.996434	2478.163175
814.315731	2475.819039
814.634983	2478.745428
814.954191	2476.222331
815.273354	2478.115284
815.592473	2477.729636
815.911547	2476.227372
816.230577	2478.400109
816.549562	2476.943216
816.868502	2478.069914
817.187399	2477.616210
817.506250	2478.153093
817.825058	2475.927423
818.143821	2478.556385
818.462539	2482.256592
818.781213	2479.075624
819.099843	2480.509832
819.418429	2483.595018
819.736970	2483.181644
820.055466	2486.362612
820.373919	2490.324959
820.692327	2492.482573
821.010691	2497.223778
821.329011	2514.199863
821.647286	2534.341794
821.965517	2565.624674
822.283704	2587.036975
822.601847	2599.912082
822.919945	2591.984867
823.237999	2578.320820
823.556010	2562.352965
823.873976	2551.774104
824.191897	2538.233564
824.509775	2526.933818
824.827609	2516.755728
825.145398	2508.193329
825.463144	2509.456138
825.780845	2508.883967
826.098502	2511.984276
826.416116	2515.901253
826.733685	2523.442819
827.051210	2525.416431
827.368692	2524.166225
827.686129	2518.651202
828.003522	2512.286746
828.320872	2504.929182
828.638177	2501.594458
828.955439	2495.101452
829.272656	2492.233036
829.589830	2490.879486
829.906960	2486.564258
830.224046	2486.478558
830.541088	2483.506798
830.858086	2480.834987
831.175041	2481.371870
831.491952	2478.327013
831.808819	2482.700214
832.125642	2482.647282
832.442421	2481.240800
832.759157	2487.892602
833.075849	2489.856132
833.392497	2497.102790
833.709101	2501.576814
834.025662	2500.858450
834.342179	2499.935919
834.658653	2494.738489
834.975083	2492.374188
835.291469	2492.260762
835.607811	2485.074597
835.924110	2485.510657
836.240366	2483.325317
836.556578	2481.107209
836.872746	2478.027064
837.188871	2480.290542
837.504952	2477.739718
837.820990	2477.880871
838.136984	2476.567650
838.452935	2473.852989
838.768842	2475.750983
839.084706	2475.549337
839.400526	2480.328351
839.716303	2480.343474
840.032037	2482.979998
840.347727	2480.910604
840.663373	2482.473362
840.978977	2475.158647
841.294537	2478.468165
841.610054	2476.902887
841.925527	2478.271560
842.240957	2476.076138
842.556344	2475.670325
842.871687	2479.564616
843.186987	2475.355253
843.502244	2473.356435
843.817458	2474.972125
844.132629	2473.784933
844.447756	2470.261167
844.762840	2470.241002
845.077881	2472.325519
845.392879	2472.005406
845.707833	2470.253605
846.022745	2471.768472
846.337613	2468.947946
846.652438	2470.593883
846.967221	2471.818883
847.281960	2473.071610
847.596656	2471.650004
847.911309	2469.205045
848.225919	2470.102370
848.540485	2471.597072
848.855009	2472.028091
849.169490	2471.579428
849.483928	2471.266877
849.798323	2472.582618
850.112675	2473.623616
850.426984	2471.551702
850.741251	2471.793677
851.055474	2471.377782
851.369654	2472.842237
851.683792	2472.033132
851.997887	2471.881897
852.311938	2471.778554
852.625947	2473.308544
852.939914	2472.219655
853.253837	2472.118832
853.567718	2472.481795
853.881555	2472.595221
854.195350	2470.800570
854.509103	2471.518934
854.822812	2471.402988
855.136479	2470.886270
855.450103	2469.754531
855.763685	2469.368882
856.077224	2466.999540
856.390720	2471.876856
856.704173	2466.465178
857.017584	2468.499283
857.330953	2469.462144
857.644278	2471.292082
857.957561	2472.955663
858.270802	2470.074644
858.584000	2472.562453
858.897155	2472.766620
859.210268	2468.834520
859.523339	2470.412401
859.836367	2469.439458
860.149352	2470.369551
860.462295	2470.150261
860.775195	2470.576239
861.088054	2469.290744
861.400869	2468.078347
861.713642	2472.259984
862.026373	2470.296455
862.339062	2471.632360
862.651708	2470.183029
862.964312	2473.114460
863.276873	2472.620427
863.589392	2472.927937
863.901869	2471.866774
864.214303	2473.648822
864.526696	2470.823255
864.839045	2472.680920
865.151353	2469.073975
865.463619	2472.539768
865.775842	2474.649491
866.088023	2471.375262
866.400162	2471.629840
866.712258	2471.682772
867.024313	2474.170581
867.336325	2473.916003
867.648296	2473.369038
867.960224	2469.691516
868.272110	2472.292752
868.583954	2471.939871
868.895755	2474.115129
869.207515	2472.242340
869.519233	2472.464151
869.830909	2472.242340
870.142542	2470.724953
870.454134	2471.186218
870.765684	2475.325006
871.077191	2472.585138
871.388657	2472.451548
871.700081	2467.859057
872.011463	2469.537761
872.322803	2466.482822
872.634101	2471.725622
872.945357	2470.349387
873.256571	2473.313585
873.567744	2471.171095
873.878874	2472.819552
874.189963	2472.633029
874.501010	2474.760396
874.812015	2472.396095
875.122979	2472.101188
875.433900	2473.167392
875.744780	2474.750314
876.055618	2474.737711
876.366415	2473.487505
876.677169	2473.479943
876.987882	2475.811477
877.298554	2474.422639
877.609183	2474.533544
877.919771	2474.672176
878.230317	2473.996662
878.540822	2476.280304
878.851285	2476.756693
879.161707	2478.901704
879.472087	2477.646457
879.782425	2482.974957
880.092722	2488.610967
880.402977	2498.007677
880.713191	2507.611075
881.023363	2521.000380
881.333494	2529.661082
881.643583	2534.697195
881.953631	2535.007226
882.263637	2532.201824
882.573602	2524.811492
882.883526	2523.112623
883.193408	2519.132633
883.503248	2509.657784
883.813048	2508.357166
884.122806	2503.873060
884.432522	2501.092863
884.742197	2495.073726
885.051831	2493.079949
885.361424	2488.860504
885.670975	2485.714824
885.980485	2483.005203
886.289954	2485.465287
886.599382	2480.351036
886.908768	2475.720736
887.218113	2471.339973
887.527417	2477.343988
887.836680	2473.336270
888.145901	2477.172588
888.455082	2475.670325
888.764221	2474.089923
889.073319	2475.786271
889.382376	2475.025057
889.691392	2473.570684
890.000366	2474.397433
890.309300	2475.307362
890.618193	2476.451703
890.927044	2473.699233
891.235855	2474.284007
891.544625	2474.793164
891.853353	2475.125880
892.162041	2474.059676
892.470687	2477.220479
892.779293	2476.640747
893.087858	2477.003710
893.396381	2478.558906
893.704864	2480.565285
894.013306	2483.665595
894.321707	2488.280771
894.630068	2490.602222
894.938387	2490.017448
895.246665	2489.074753
895.554903	2487.958137
895.863100	2487.345637
896.171256	2484.951089
896.479371	2483.443784
896.787446	2480.920686
897.095480	2481.654174
897.403473	2479.715851
897.711425	2479.841879
898.019336	2479.683083
898.327207	2477.883391
898.635038	2478.568988
898.942827	2475.582104
899.250576	2474.901549
899.558284	2473.056486
899.865952	2476.194605
900.173579	2473.474902
900.481165	2471.962556
900.788711	2475.340129
901.096216	2470.793008
901.403681	2474.379789
901.711105	2472.055817
902.018489	2474.478092
902.325832	2471.770992
902.633135	2471.123204
902.940397	2472.070941
903.247619	2471.029943
903.554800	2479.519246
903.861941	2486.014772
904.169041	2492.535505
904.476101	2494.297388
904.783121	2495.794611
905.090100	2493.110196
905.397039	2491.522233
905.703938	2489.586430
906.010796	2488.598364
906.317614	2482.105357
906.624391	2484.499906
906.931129	2480.812302
907.237826	2477.086889
907.544483	2476.630664
907.851099	2477.706951
908.157675	2476.151755
908.464211	2474.957001
908.770707	2472.242340
909.077163	2471.337453
909.383578	2471.450879
909.689954	2474.820890
909.996289	2472.423822
910.302584	2473.706795
910.608839	2468.622792
910.915054	2471.612196
911.221229	2469.008440
911.527363	2472.912813
911.833458	2474.440283
912.139513	2471.397947
912.445527	2470.137658
912.751502	2470.614047
913.057436	2471.939871
913.363331	2471.213945
913.669186	2472.043214
913.975000	2474.553709
914.280775	2474.253760
914.586510	2475.614872
914.892205	2480.512353
915.197859	2481.094606
915.503475	2483.831953
915.809050	2490.067860
916.114585	2494.541884
916.420081	2493.720176
916.725536	2494.592296
917.030952	2495.469456
917.336328	2486.828919
917.641665	2488.177427
917.946961	2482.969915
918.252218	2485.843373
918.557435	2480.046046
918.862612	2482.874133
919.167750	2481.187868
919.472848	2481.049236
919.777906	2478.309369
920.082925	2479.463793
920.387904	2476.504636
920.692843	2476.398771
920.997743	2475.196456
921.302603	2477.457414
921.607423	2474.344501
921.912204	2475.836683
922.216946	2473.235447
922.521647	2471.075313
922.826310	2469.976341
923.130932	2472.708647
923.435516	2471.740745
923.740059	2471.516414
924.044564	2472.176805
924.349028	2471.912144
924.653454	2469.013481
924.957840	2470.616568
925.262186	2468.431228
925.566493	2469.893162
925.870761	2469.048769
926.174989	2468.814355
926.479178	2467.440641
926.783328	2467.922071
927.087438	2468.408542
927.391509	2470.714870
927.695541	2467.899386
927.999533	2469.061372
928.303486	2468.388378
928.607400	2467.150775
928.911275	2468.186732
929.215110	2466.805456
929.518906	2467.349900
929.822663	2469.184880
930.126381	2468.340487
930.430060	2467.218830
930.733699	2467.042390
931.037299	2468.597586
931.340861	2465.172122
931.644383	2467.460806
931.947866	2467.899386
932.251309	2467.486011
932.554714	2468.622792
932.858080	2465.562811
933.161407	2462.843109
933.464694	2467.919551
933.767943	2461.481997
934.071153	2468.811835
934.374323	2467.284365
934.677455	2469.668831
934.980548	2468.176649
935.283602	2466.886114
935.586617	2470.551033
935.889593	2468.355610
936.192530	2466.750003
936.495428	2467.962400
936.798287	2466.518110
937.101108	2467.639767
937.403890	2469.217648
937.706632	2468.632874
938.009336	2469.908286
938.312002	2469.691516
938.614628	2470.082206
938.917216	2470.619088
939.219765	2469.361321
939.522275	2467.445682
939.824747	2466.334108
940.127179	2471.690334
940.429573	2469.174798
940.731929	2470.654377
941.034246	2465.900568
941.336524	2468.184211
941.638763	2468.945425
941.940964	2470.251084
942.243126	2467.468367
942.545250	2469.729325
942.847335	2467.206227
943.149381	2468.181691
943.451389	2471.680251
943.753359	2468.569859
944.055290	2467.599437
944.357182	2468.988275
944.659036	2465.104066
944.960851	2468.839561
945.262628	2467.884263
945.564367	2468.007771
945.866067	2467.123048
946.167729	2468.244705
946.469352	2470.674541
946.770937	2465.512400
947.072484	2468.244705
947.373992	2468.244705
947.675462	2469.240333
947.976893	2466.155147
948.278286	2465.824951
948.579641	2466.525672
948.880958	2463.793366
949.182236	2467.238995
949.483476	2468.027935
949.784678	2470.208234
950.085841	2466.923923
950.386967	2466.533233
950.688054	2464.859570
950.989103	2465.850157
951.290114	2468.821917
951.591087	2467.584314
951.892021	2466.813017
952.192917	2467.639767
952.493776	2469.845271
952.794596	2468.852164
953.095378	2466.107256
953.396122	2467.334777
953.696828	2467.962400
953.997496	2470.523307
954.298126	2467.702781
954.598718	2470.253605
954.899272	2469.459623
955.199788	2470.263687
955.500266	2466.109776
955.800706	2467.324694
956.101108	2469.288224
956.401472	2466.986937
956.701798	2468.721094
957.002087	2468.317802
957.302337	2467.256639
957.602550	2465.608182
957.902724	2466.636577
958.202861	2464.184056
958.502960	2467.775878
958.803022	2464.047944
959.103045	2466.170270
959.403031	2464.904941
959.702979	2466.071968
960.002889	2464.514251
960.302762	2464.693212
960.602596	2462.134827
960.902393	2466.414766
961.202153	2463.069961
961.501875	2464.347893
961.801559	2465.461988
962.101205	2465.981227
962.400814	2469.512555
962.700385	2465.842595
962.999918	2466.717235
963.299414	2460.773715
963.598873	2465.272945
963.898293	2459.359671
964.197677	2467.334777
964.497022	2465.469550
964.796331	2466.881073
965.095601	2464.862091
965.394835	2464.562142
965.694030	2464.196658
965.993189	2466.573562
966.292309	2464.829323
966.591393	2468.166567
966.890439	2465.149437
967.189447	2465.174642
967.488419	2465.240177
967.787353	2464.867132
968.086249	2463.006946
968.385108	2465.598099
968.683930	2464.788994
968.982714	2467.556588
969.281462	2464.940229
969.580172	2467.811166
969.878844	2464.012656
970.177480	2464.161370
970.476078	2467.304530
970.774639	2467.778398
971.073162	2464.100877
971.371649	2464.731021
971.670098	2465.943418
971.968510	2464.065588
972.266885	2465.353603
972.565223	2466.301340
972.863524	2462.583489
973.161788	2466.306381
973.460014	2461.174487
973.758204	2467.354941
974.056356	2463.866463
974.354471	2465.472070
974.652550	2466.787812
974.950591	2466.495425
975.248595	2467.027266
975.546563	2469.179839
975.844493	2467.919551
976.142386	2468.897534
976.440243	2464.226905
976.738062	2465.847636
977.035845	2466.250929
977.333590	2465.703963
977.631299	2464.327728
977.928971	2463.569035
978.226606	2461.388736
978.524204	2462.452419
978.821765	2460.937553
979.119290	2464.801597
979.416777	2464.927626
979.714228	2465.194807
980.011642	2465.819910
980.309020	2464.728500
980.606360	2467.065075
980.903664	2466.170270
981.200931	2465.691361
981.498162	2464.123562
981.795356	2463.982409
982.092513	2464.960393
982.389633	2465.363686
982.686717	2468.310240
982.983764	2468.978193
983.280775	2468.814355
983.577749	2468.279993
983.874686	2467.594396
984.171587	2469.447020
984.468451	2467.947277
984.765279	2465.603140
985.062070	2467.352421
985.358824	2466.354272
985.655543	2468.612709
985.952224	2465.613223
986.248869	2465.681278
986.545478	2465.477112
986.842050	2465.298151
987.138586	2466.450054
987.435086	2466.533233
987.731549	2464.186576
988.027975	2465.550208
988.324366	2463.450568
988.620719	2464.927626
988.917037	2465.754375
989.213318	2465.882924
989.509563	2464.035342
989.805772	2463.931998
990.101944	2465.396453
990.398080	2464.269755
990.694180	2462.913685
990.990244	2462.891000
991.286271	2463.117852
991.582262	2465.353603
991.878217	2465.028449
992.174136	2467.115487
992.470019	2464.327728
992.765865	2460.897223
993.061676	2460.556945
993.357450	2463.175825
993.653188	2462.374281
993.948890	2465.893007
994.244556	2468.806794
994.540186	2464.350414
994.835780	2463.659776
995.131337	2462.346555
995.426859	2464.829323
995.722345	2465.414097
996.017795	2466.757565
996.313208	2466.119859
996.608586	2466.573563
996.903928	2466.185394
997.199234	2467.559108
997.494504	2467.841413
997.789738	2464.844447
998.084936	2468.375775
998.380099	2467.811166
998.675225	2467.705302
998.970316	2464.552060
999.265371	2464.083233
999.560390	2465.426700
999.855373	2463.306895
1000.150320	2465.330918
1000.445232	2464.889817
1000.740108	2466.021556
1001.034948	2465.376288
1001.329752	2462.896041
1001.624521	2464.985599
1001.919254	2462.573407
1002.213951	2465.845116
1002.508613	2464.952832
1002.803239	2464.116000
1003.097829	2465.779581
1003.392384	2464.597430
1003.686903	2462.212964
1003.981386	2463.558953
1004.275834	2465.341000
1004.570246	2464.141206
1004.864623	2462.855712
1005.158964	2463.805969
1005.453270	2463.145578
1005.747540	2463.871504
1006.041775	2462.396967
1006.335974	2463.793366
1006.630138	2461.260186
1006.924266	2464.113479
1007.218359	2461.774384
1007.512416	2460.516616
1007.806438	2457.202058
1008.100425	2460.745989
1008.394376	2458.197685
1008.688292	2466.414766
1008.982172	2461.996195
1009.276017	2463.218675
1009.569827	2463.455609
1009.863602	2464.199179
1010.157341	2464.360496
1010.451045	2463.120372
1010.744714	2461.088787
1011.038347	2465.162039
1011.331945	2462.303705
1011.625508	2465.162039
1011.919036	2463.483335
1012.212528	2463.286730
1012.505986	2460.136009
1012.799408	2463.906792
1013.092795	2462.462502
1013.386147	2464.451237
1013.679464	2463.916874
1013.972745	2464.194138
1014.265992	2464.181535
1014.559204	2465.703963
1014.852380	2462.442337
1015.145521	2461.925619
1015.438628	2463.163222
1015.731699	2466.157667
1016.024736	2463.506020
1016.317737	2464.282358
1016.610703	2464.355455
1016.903635	2464.950311
1017.196531	2461.187090
1017.489393	2462.291102
1017.782219	2460.219188
1018.075011	2462.704477
1018.367768	2461.459312
1018.660490	2461.182048
1018.953177	2461.182048
1019.245829	2461.182048
