Dividing Wavelength (nm)	Counts (n)	Blue Motor Position (mm): 0.000000	Red Motor Position (mm): 15.500000	
326.493990	2053.025027
326.888308	2053.025027
327.282561	2053.025027
327.676750	2026.785822
328.070874	2030.007119
328.464933	2033.959383
328.858929	2042.957843
329.252859	2053.130892
329.646726	2064.836451
330.040528	2083.317321
330.434265	2098.047572
330.827938	2123.898609
331.221547	2140.577267
331.615091	2159.632828
332.008571	2180.336847
332.401986	2202.540609
332.795338	2221.578527
333.188625	2241.246588
333.581847	2259.911461
333.975006	2278.840993
334.368100	2295.401184
334.761129	2311.641261
335.154095	2328.297233
335.546996	2342.104953
335.939833	2356.389063
336.332606	2368.666793
336.725315	2382.981149
337.117960	2391.508261
337.510540	2403.995199
337.903056	2411.471230
338.295508	2419.310225
338.687896	2424.880700
339.080220	2431.923192
339.472480	2434.584921
339.864676	2438.307813
340.256807	2442.844851
340.648875	2444.810901
341.040879	2443.676642
341.432818	2447.681838
341.824694	2450.724175
342.216506	2446.449276
342.608253	2445.897270
342.999937	2447.008844
343.391557	2445.304934
343.783113	2443.046498
344.174605	2443.394337
344.566033	2442.638164
344.957397	2441.808894
345.348697	2437.712957
345.739934	2436.518203
346.131106	2434.015270
346.522215	2431.416556
346.913260	2429.150557
347.304241	2429.745413
347.695159	2430.294899
348.086012	2428.802717
348.476802	2425.341965
348.867528	2420.809968
349.258191	2418.722930
349.648789	2421.765267
350.039324	2415.375604
350.429796	2419.930287
350.820203	2419.506830
351.210548	2419.723599
351.600828	2416.870306
351.991045	2416.406520
352.381198	2413.591036
352.771288	2416.532549
353.161314	2418.977508
353.551276	2417.578588
353.941175	2418.246541
354.331010	2417.858372
354.720782	2416.890471
355.110490	2416.598084
355.500135	2414.770666
355.889717	2416.910635
356.279235	2417.487848
356.668689	2415.720923
357.058080	2419.741243
357.447408	2419.776531
357.836672	2417.976839
358.225873	2421.606470
358.615010	2420.595719
359.004084	2420.053795
359.393095	2420.116809
359.782043	2423.305339
360.170927	2421.528332
360.559748	2423.191913
360.948505	2424.535381
361.337199	2425.304157
361.725830	2424.472366
362.114398	2422.667633
362.502903	2424.104362
362.891344	2425.536050
363.279722	2425.609146
363.668037	2428.933787
364.056289	2425.644434
364.444478	2429.669796
364.832603	2430.574683
365.220665	2431.371185
365.608665	2428.437234
365.996601	2431.550146
366.384474	2430.231884
366.772284	2429.942018
367.160031	2431.219951
367.547715	2431.101483
367.935336	2432.666762
368.322893	2430.594847
368.710388	2427.776842
369.097820	2429.382450
369.485189	2428.943870
369.872495	2435.845209
370.259738	2433.748089
370.646918	2436.180446
371.034035	2435.497370
371.421090	2437.120621
371.808081	2434.622729
372.195010	2442.565067
372.581875	2438.822011
372.968678	2441.806374
373.355418	2442.502053
373.742096	2444.057249
374.128710	2447.628906
374.515262	2448.843824
374.901751	2455.808178
375.288177	2455.810699
375.674540	2457.887654
376.060841	2464.063068
376.447079	2467.294448
376.833254	2471.173615
377.219367	2477.376755
377.605417	2481.898670
377.991404	2484.515029
378.377329	2496.719662
378.763191	2499.424242
379.148991	2511.560819
379.534727	2518.484844
379.920402	2524.282171
380.306013	2535.135775
380.691563	2547.753783
381.077049	2559.955896
381.462474	2572.551219
381.847835	2583.498085
382.233134	2599.523913
382.618371	2610.763165
383.003545	2627.509878
383.388657	2641.070582
383.773706	2661.794766
384.158693	2674.427897
384.543618	2693.652337
384.928480	2703.964018
385.313280	2726.329097
385.698017	2746.254257
386.082692	2770.955911
386.467305	2785.285391
386.851856	2809.979483
387.236344	2839.024091
387.620770	2851.861389
388.005133	2873.530789
388.389435	2908.060172
388.773674	2919.667429
389.157851	2953.788479
389.541965	2983.387614
389.926018	2995.312463
390.310008	3026.050899
390.693936	3053.386555
391.077802	3079.343457
391.461606	3115.087758
391.845348	3131.153915
392.229027	3161.499141
392.612645	3199.827033
392.996200	3228.649831
393.379694	3270.559463
393.763125	3309.656132
394.146494	3335.497086
394.529801	3373.867829
394.913047	3417.816608
395.296230	3420.054880
395.679351	3449.366669
396.062410	3494.056498
396.445408	3475.777274
396.828343	3520.724202
397.211217	3552.226373
397.594028	3525.538504
397.976778	3574.064651
398.359466	3605.481122
398.742092	3616.828759
399.124656	3629.189668
399.507158	3690.280891
399.889598	3692.307435
400.271977	3757.960902
400.654294	3742.179570
401.036549	3801.798776
401.418742	3799.497489
401.800874	3867.003580
402.182944	3890.649112
402.564952	3972.177173
402.946898	3965.744661
403.328783	3954.192857
403.710606	4000.072398
404.092367	4063.318714
404.474067	4119.971201
404.855705	4097.432202
405.237282	4061.118250
405.618797	4149.530007
406.000250	4209.998647
406.381642	4278.618833
406.762972	4267.835805
407.144240	4230.495978
407.525447	4273.189510
407.906593	4278.142444
408.287677	4338.364068
408.668700	4344.446220
409.049661	4366.748285
409.430560	4380.301427
409.811399	4342.714584
410.192176	4367.746433
410.572891	4415.934823
410.953545	4487.302438
411.334138	4376.260942
411.714669	4445.460861
412.095139	4345.235161
412.475547	4414.692178
412.855894	4390.860123
413.236180	4440.253349
413.616405	4357.051625
413.996568	4409.479625
414.376670	4379.958628
414.756711	4345.197352
415.136691	4364.978840
415.516609	4392.180906
415.896466	4386.686048
416.276262	4403.107607
416.655997	4446.401036
417.035670	4466.618583
417.415283	4522.759393
417.794834	4525.655536
418.174324	4456.090134
418.553753	4417.684103
418.933121	4469.933142
419.312428	4433.727575
419.691674	4346.069472
420.070859	4427.151390
420.449983	4311.877846
420.829045	4367.915312
421.208047	4280.373155
421.586988	4314.862209
421.965867	4300.089107
422.344686	4290.276501
422.723444	4312.366838
423.102141	4085.736725
423.480777	4209.134089
423.859352	4080.372937
424.237866	4180.689378
424.616319	4118.852065
424.994712	4136.642297
425.373044	4052.029050
425.751314	4104.744396
426.129524	3953.653453
426.507673	3987.565295
426.885762	3949.943164
427.263789	3909.679468
427.641756	3882.479923
428.019662	3852.601004
428.397508	3809.884787
428.775292	3749.519490
429.153016	3740.271493
429.530679	3674.255063
429.908282	3633.704022
430.285824	3572.935433
430.663305	3585.245930
431.040726	3517.601207
431.418086	3465.321921
431.795385	3445.099333
432.172624	3428.584513
432.549802	3366.172508
432.926920	3344.286338
433.303977	3293.153915
433.680974	3257.865838
434.057910	3245.779671
434.434786	3212.364383
434.811601	3166.799914
435.188355	3167.636746
435.565050	3120.474231
435.941683	3087.537852
436.318257	3081.972418
436.694770	3043.394988
437.071222	3029.783873
437.447614	2978.104484
437.823946	2947.262705
438.200218	2928.910385
438.576429	2892.246073
438.952580	2875.748897
439.328670	2851.241327
439.704700	2831.051506
440.080670	2802.944553
440.456580	2792.693367
440.832429	2771.076899
441.208218	2739.791498
441.583947	2728.988305
441.959616	2714.426932
442.335224	2701.128369
442.710773	2686.325020
443.086261	2675.947805
443.461689	2655.533653
443.837057	2646.444452
444.212365	2641.998155
444.587612	2625.659775
444.962800	2611.932713
445.337927	2605.049018
445.712995	2584.231573
446.088002	2595.329673
446.462949	2585.708631
446.837837	2579.560944
447.212664	2573.146075
447.587431	2578.605645
447.962139	2584.609659
448.336786	2594.444950
448.711374	2584.594536
449.085901	2565.448233
449.460369	2560.510423
449.834776	2554.544218
450.209124	2557.243756
450.583412	2552.520194
450.957640	2553.752757
451.331808	2545.999462
451.705917	2539.009902
452.079965	2536.264994
452.453954	2534.775333
452.827883	2532.756351
453.201752	2532.060672
453.575562	2527.959693
453.949311	2530.381967
454.323001	2529.749303
454.696632	2526.124713
455.070202	2530.671834
455.443713	2527.591689
455.817164	2528.673016
456.190556	2530.686957
456.563888	2530.654190
456.937160	2529.792152
457.310373	2524.201513
457.683526	2524.234280
458.056619	2522.079187
458.429653	2522.953827
458.802628	2522.416944
459.175542	2521.781759
459.548398	2524.335103
459.921194	2526.147398
460.293930	2526.459950
460.666607	2528.816689
461.039224	2532.668131
461.411782	2534.697195
461.784280	2534.132586
462.156719	2529.469518
462.529099	2529.678726
462.901419	2523.974661
463.273680	2522.389218
463.645882	2517.728671
464.018024	2521.018024
464.390106	2517.905112
464.762130	2526.517923
465.134094	2532.806762
465.505999	2543.531817
465.877845	2550.932231
466.249631	2556.348951
466.621358	2552.177396
466.993026	2549.803012
467.364634	2548.751932
467.736184	2540.882691
468.107674	2537.590817
468.479105	2538.770447
468.850477	2536.320447
469.221790	2532.295085
469.593043	2527.760567
469.964238	2527.626977
470.335373	2528.186545
470.706449	2531.362472
471.077467	2531.743079
471.448425	2541.681714
471.819324	2550.050029
472.190164	2547.569781
472.560945	2539.796322
472.931667	2533.101670
473.302330	2530.102183
473.672934	2526.659075
474.043479	2531.364992
474.413965	2530.034128
474.784393	2527.483304
475.154761	2532.937832
475.525070	2532.181659
475.895321	2530.414735
476.265513	2533.328522
476.635645	2531.707791
477.005719	2533.381454
477.375734	2534.301464
477.745691	2534.026722
478.115588	2537.169881
478.485427	2544.245140
478.855207	2547.116078
479.224928	2553.215874
479.594591	2555.456667
479.964194	2557.609239
480.333739	2556.507747
480.703226	2555.290308
481.072653	2560.956565
481.442022	2559.192162
481.811333	2557.382387
482.180584	2552.439536
482.549777	2554.178734
482.918912	2550.927190
483.287988	2555.285267
483.657005	2557.876420
484.025964	2552.747046
484.394864	2553.750236
484.763706	2556.666543
485.132489	2550.901984
485.501213	2551.317879
485.869879	2552.593291
486.238487	2551.688404
486.607036	2552.767211
486.975527	2549.823177
487.343959	2552.689073
487.712333	2552.926007
488.080648	2551.854762
488.448905	2554.881975
488.817104	2555.612942
489.185244	2555.557490
489.553326	2558.241904
489.921350	2564.036710
490.289315	2573.007444
490.657222	2576.984914
491.025070	2575.875860
491.392861	2575.578432
491.760593	2573.587176
492.128267	2569.944943
492.495883	2566.892524
492.863440	2566.083419
493.230939	2563.018397
493.598380	2560.102090
493.965763	2562.599982
494.333088	2557.200906
494.700354	2556.094372
495.067563	2557.163097
495.434713	2558.816596
495.801805	2557.546225
496.168839	2556.187634
496.535815	2556.227963
496.902733	2559.091338
497.269593	2557.581513
497.636395	2556.588406
498.003139	2557.059753
498.369825	2558.504044
498.736453	2558.582182
499.103023	2558.211657
499.469535	2557.946997
499.835989	2557.684857
500.202385	2555.953220
500.568723	2553.616645
500.935003	2554.995401
501.301226	2555.537325
501.667390	2560.855742
502.033497	2560.623849
502.399546	2560.588561
502.765537	2559.872717
503.131470	2559.950855
503.497345	2562.652914
503.863163	2557.649568
504.228923	2561.649724
504.594625	2560.747358
504.960269	2561.932029
505.325856	2559.083777
505.691385	2560.399518
506.056856	2560.326421
506.422270	2561.334652
506.787625	2559.189641
507.152924	2560.071843
507.518164	2561.352296
507.883347	2560.805331
508.248472	2558.244425
508.613540	2559.847512
508.978550	2564.084601
509.343503	2562.703325
509.708398	2564.868501
510.073236	2562.642831
510.438016	2563.361196
510.802738	2565.599468
511.167403	2561.982440
511.532010	2562.985630
511.896561	2564.354303
512.261053	2568.488049
512.625488	2562.932698
512.989866	2563.288099
513.354186	2564.586196
513.718449	2565.614592
514.082655	2565.914540
514.446803	2565.682647
514.810894	2566.209448
515.174927	2565.082750
515.538904	2564.916392
515.902822	2565.677606
516.266684	2566.096022
516.630488	2564.992009
516.994235	2562.436144
517.357925	2563.867832
517.721558	2565.503686
518.085133	2567.953687
518.448651	2562.405897
518.812112	2562.085784
519.175516	2562.504200
519.538863	2560.137378
519.902152	2563.341031
520.265385	2563.787173
520.628560	2565.012174
520.991678	2564.664334
521.354739	2562.640311
521.717743	2565.619633
522.080690	2561.894220
522.443580	2563.252811
522.806413	2562.151319
523.169189	2566.133830
523.531908	2562.605023
523.894569	2560.833057
524.257174	2564.450085
524.619722	2564.656772
524.982213	2562.116031
525.344647	2561.858932
525.707025	2561.110321
526.069345	2562.542008
526.431608	2561.828685
526.793815	2559.913047
527.155964	2562.105948
527.518057	2560.296174
527.880093	2558.592264
528.242072	2560.838098
528.603995	2559.751730
528.965860	2558.937583
529.327669	2562.320198
529.689421	2557.687377
530.051117	2560.772563
530.412755	2560.369271
530.774337	2557.750392
531.135862	2555.910370
531.497331	2559.255176
531.858743	2557.294167
532.220098	2556.832902
532.581396	2556.268292
532.942638	2556.875751
533.303824	2556.117058
533.664953	2556.986657
534.026025	2553.694783
534.387040	2557.619322
534.747999	2557.606719
535.108902	2560.202913
535.469748	2554.786193
535.830537	2557.064795
536.191270	2553.699824
536.551947	2552.104299
536.912567	2546.869061
537.273131	2554.145967
537.633638	2550.231511
537.994089	2553.389793
538.354483	2553.798127
538.714821	2555.746533
539.075103	2556.971533
539.435328	2554.866852
539.795497	2554.007335
540.155609	2553.964485
540.515665	2554.254351
540.875665	2554.035061
541.235609	2552.144628
541.595496	2556.280895
541.955328	2553.944320
542.315102	2555.018086
542.674821	2553.591440
543.034483	2554.352654
543.394090	2554.766028
543.753640	2553.437684
544.113134	2552.326110
544.472571	2553.374670
544.831953	2554.657644
545.191278	2555.565051
545.550548	2550.528939
545.909761	2555.549928
546.268918	2556.575803
546.628019	2554.191337
546.987064	2555.781821
547.346053	2552.300904
547.704986	2552.295863
548.063863	2553.220915
548.422684	2550.322251
548.781449	2551.764021
549.140158	2551.872406
549.498811	2551.171686
549.857408	2548.136911
550.215949	2554.544218
550.574434	2550.725544
550.932864	2551.151521
551.291237	2553.596481
551.649555	2553.992211
552.007817	2550.833928
552.366022	2551.373332
552.724173	2551.539690
553.082267	2550.695297
553.440305	2555.761656
553.798288	2550.198743
554.156215	2553.871224
554.514086	2550.176058
554.871902	2548.489792
555.229661	2549.482899
555.587365	2546.851417
555.945014	2549.780327
556.302606	2552.948692
556.660143	2553.120092
557.017625	2551.345606
557.375050	2552.152190
557.732421	2552.656306
558.089735	2551.827036
558.446994	2551.905174
558.804197	2552.114382
559.161345	2553.425082
559.518437	2549.482899
559.875474	2548.439380
560.232455	2548.736808
560.589381	2552.696635
560.946251	2553.568754
561.303065	2549.651778
561.659825	2551.867365
562.016528	2548.086500
562.373177	2547.778989
562.729770	2549.765204
563.086307	2551.068342
563.442789	2552.852911
563.799216	2548.414175
564.155587	2548.401572
564.511904	2551.809392
564.868164	2549.581202
565.224370	2552.104299
565.580520	2549.755122
565.936615	2551.915256
566.292654	2549.644216
566.648638	2550.065152
567.004567	2550.526418
567.360441	2547.428629
567.716260	2548.202446
568.072023	2550.914587
568.427732	2551.088507
568.783385	2550.705379
569.138982	2551.532128
569.494525	2553.140256
569.850013	2549.858465
570.205445	2549.979453
570.560823	2548.368804
570.916145	2548.215049
571.271412	2546.884184
571.626625	2551.015410
571.981782	2545.928886
572.336884	2546.145655
572.691931	2543.592311
573.046923	2547.826880
573.401860	2541.197763
573.756743	2548.983825
574.111570	2544.109029
574.466342	2545.376879
574.821059	2547.534493
575.175722	2547.312682
575.530330	2548.144473
575.884882	2545.182795
576.239380	2546.417878
576.593823	2546.475851
576.948211	2546.324616
577.302544	2544.260264
577.656823	2544.451828
578.011047	2548.106664
578.365216	2545.205480
578.719330	2547.073228
579.073389	2545.001313
579.427394	2544.275387
579.781344	2540.497043
580.135239	2544.706406
580.489080	2545.195398
580.842866	2544.172044
581.196597	2546.027188
581.550273	2546.405275
581.903895	2544.968546
582.257463	2547.113557
582.610975	2542.105171
582.964434	2543.728422
583.317837	2542.727753
583.671186	2539.922351
584.024481	2543.884698
584.377721	2542.909235
584.730906	2541.757331
585.084037	2542.415202
585.437113	2541.197763
585.790135	2546.541386
586.143103	2539.801363
586.496016	2543.569626
586.848874	2545.515511
587.201679	2543.420912
587.554428	2538.651980
587.907124	2542.694986
588.259765	2544.005686
588.612352	2538.735159
588.964884	2540.549975
589.317362	2541.038967
589.669786	2541.220448
590.022155	2538.525951
590.374470	2539.052752
590.726731	2540.000489
591.078937	2532.907585
591.431090	2539.682896
591.783188	2538.513348
592.135232	2539.380427
592.487222	2537.812628
592.839157	2540.930582
593.191038	2538.354552
593.542866	2539.627443
593.894639	2537.694161
594.246358	2539.408153
594.598022	2539.876981
594.949633	2535.493697
595.301190	2536.196938
595.652692	2536.317926
596.004141	2538.815818
596.355535	2534.281300
596.706876	2537.986548
597.058162	2537.245498
597.409395	2535.987730
597.760573	2533.777184
598.111698	2534.591331
598.462768	2536.108718
598.813785	2532.456402
599.164748	2533.250384
599.515657	2532.690816
599.866511	2532.610157
600.217312	2535.655014
600.568060	2534.074613
600.918753	2537.311033
601.269392	2533.033614
601.619978	2535.579397
601.970510	2533.941022
602.320988	2535.344983
602.671412	2532.083357
603.021783	2535.261804
603.372100	2532.695857
603.722363	2532.458923
604.072572	2533.915816
604.422728	2534.964376
604.772830	2534.780374
605.122878	2534.719880
605.472872	2535.569315
605.822813	2532.607637
606.172701	2532.690816
606.522534	2535.231557
606.872314	2535.312216
607.222041	2533.578059
607.571714	2533.540250
607.921333	2529.010773
608.270899	2530.288706
608.620411	2529.754344
608.969870	2536.506969
609.319276	2534.961856
609.668627	2532.985723
610.017926	2534.871115
610.367171	2534.795497
610.716362	2536.234747
611.065500	2536.121321
611.414585	2535.400436
611.763616	2534.722401
612.112594	2533.426824
612.461518	2534.588810
612.810389	2535.022349
613.159207	2536.512010
613.507971	2533.709129
613.856682	2535.218954
614.205340	2537.011085
614.553945	2534.034283
614.902496	2533.230219
615.250994	2536.428831
615.599439	2536.854809
615.947830	2535.818852
616.296169	2534.470343
616.644454	2538.034439
616.992686	2535.962525
617.340864	2538.125180
617.688990	2533.121834
618.037063	2535.297092
618.385082	2537.754655
618.733048	2538.997299
619.080961	2534.314067
619.428821	2536.824562
619.776628	2537.164840
620.124382	2537.177443
620.472083	2538.339429
620.819731	2536.436393
621.167326	2534.130065
621.514868	2535.821372
621.862357	2534.828265
622.209793	2535.365148
622.557176	2534.634181
622.904506	2534.437576
623.251783	2534.004036
623.599007	2529.003212
623.946179	2532.012781
624.293297	2533.946063
624.640363	2530.203006
624.987376	2529.338448
625.334336	2526.538088
625.681243	2528.244518
626.028097	2527.546318
626.374899	2531.579241
626.721647	2531.244005
627.068343	2529.209899
627.414987	2529.018335
627.761577	2529.756864
628.108115	2527.561442
628.454600	2527.889117
628.801032	2526.018849
629.147412	2530.848274
629.493739	2526.404497
629.840014	2527.286699
630.186236	2526.538088
630.532405	2525.716379
630.878521	2525.940711
631.224585	2525.481966
631.570597	2526.419620
631.916556	2525.408869
632.262462	2525.451719
632.608316	2526.885927
632.954117	2525.640762
633.299866	2525.928108
633.645562	2525.786956
633.991206	2522.598426
634.336797	2525.083715
634.682336	2522.779907
635.027823	2524.942562
635.373257	2526.676719
635.718639	2520.798734
636.063968	2522.658920
636.409245	2521.532222
636.754470	2523.717562
637.099642	2521.859897
637.444762	2521.239835
637.789829	2522.558097
638.134845	2522.142201
638.479808	2520.526512
638.824719	2521.955679
639.169577	2520.453415
639.514383	2520.771007
639.859137	2519.367046
640.203839	2521.859897
640.548489	2520.309742
640.893086	2519.591377
641.237632	2518.499968
641.582125	2520.221522
641.926566	2519.853518
642.270955	2516.370080
642.615292	2514.673732
642.959576	2517.501819
643.303809	2514.467045
643.647990	2519.362005
643.992118	2517.332941
644.336195	2519.704803
644.680219	2517.116171
645.024192	2519.997190
645.368112	2518.051305
645.711981	2518.837725
646.055797	2519.475431
646.399562	2521.996008
646.743274	2519.936697
647.086935	2522.036337
647.430544	2524.017511
647.774101	2522.159845
648.117606	2522.858045
648.461059	2523.589013
648.804460	2525.111441
649.147810	2523.140350
649.491108	2520.239166
649.834354	2522.409383
650.177548	2520.851666
650.520690	2518.517612
650.863781	2519.112468
651.206820	2518.479803
651.549807	2517.670698
651.892742	2516.458300
652.235626	2517.736233
652.578458	2515.906294
652.921238	2516.740605
653.263967	2516.153311
653.606644	2513.899915
653.949269	2516.914525
654.291843	2515.631551
654.634365	2516.443177
654.976836	2513.791530
655.319255	2515.409740
655.661622	2513.806653
656.003938	2513.625172
656.346203	2514.867816
656.688416	2515.918897
657.030577	2515.129956
657.372687	2515.056860
657.714746	2514.008300
658.056753	2511.979235
658.398708	2514.845131
658.740612	2515.442508
659.082465	2514.129287
659.424266	2510.991169
659.766016	2509.236848
660.107715	2513.524349
660.449362	2512.627023
660.790958	2514.482168
661.132503	2513.378155
661.473996	2514.086438
661.815438	2516.077693
662.156829	2513.864627
662.498168	2515.785306
662.839456	2514.053670
663.180693	2514.003258
663.521879	2515.465193
663.863013	2516.506191
664.204097	2515.439987
664.545129	2515.240862
664.886110	2513.975532
665.227040	2513.478978
665.567918	2515.777745
665.908746	2512.727847
666.249522	2516.712879
666.590248	2515.603825
666.930922	2516.758249
667.271545	2516.533918
667.612118	2515.313958
667.952639	2515.114833
668.293109	2515.941582
668.633528	2513.378155
668.973896	2513.194153
669.314213	2518.285719
669.654480	2515.881088
669.994695	2515.782786
670.334859	2515.654236
670.674973	2514.464524
671.015035	2511.243227
671.355047	2513.849503
671.695008	2514.759432
672.034918	2514.232631
672.374777	2515.586181
672.714585	2513.882271
673.054342	2513.410923
673.394049	2514.126767
673.733705	2516.228928
674.073310	2512.589215
674.412864	2513.315141
674.752368	2513.562157
675.091820	2513.294976
675.431223	2510.429080
675.770574	2515.008969
676.109875	2513.413443
676.449125	2510.277846
676.788324	2508.392454
677.127473	2507.003616
677.466571	2505.007319
677.805619	2509.798936
678.144616	2510.015706
678.483562	2509.927486
678.822458	2512.858917
679.161303	2512.654750
679.500098	2509.435973
679.838842	2512.175840
680.177535	2510.232475
680.516179	2508.034532
680.854771	2508.379851
681.193314	2511.525531
681.531805	2512.223731
681.870247	2514.381345
682.208638	2514.809843
682.546978	2515.681963
682.885268	2516.571726
683.223508	2517.335461
683.561697	2515.911335
683.899836	2514.567868
684.237925	2513.083248
684.575963	2514.177178
684.913951	2513.587363
685.251889	2513.942765
685.589776	2514.595594
685.927614	2513.005110
686.265401	2512.838752
686.603137	2514.459483
686.940824	2517.186747
687.278460	2515.951664
687.616046	2513.864627
687.953582	2515.949144
688.291068	2516.024761
688.628504	2517.358146
688.965889	2511.931344
689.303224	2515.780265
689.640510	2513.607528
689.977745	2517.239679
690.314930	2515.366891
690.652065	2515.722292
690.989150	2513.058042
691.326185	2511.056704
691.663170	2510.698782
692.000105	2507.767351
692.336990	2508.561333
692.673825	2510.063597
693.010610	2506.496980
693.347345	2504.931702
693.684030	2499.867863
694.020665	2504.147803
694.357251	2502.401043
694.693786	2505.057731
695.030272	2504.591424
695.366707	2503.056393
695.703093	2504.316681
696.039429	2500.649242
696.375716	2501.571773
696.711952	2504.593945
697.048139	2504.777947
697.384276	2505.750890
697.720363	2505.488750
698.056400	2504.321723
698.392388	2502.698471
698.728326	2501.213851
699.064214	2502.259891
699.400053	2505.461023
699.735842	2498.582369
700.071581	2502.464057
700.407270	2502.277535
700.742910	2501.909530
701.078501	2501.418018
701.414042	2502.942967
701.749533	2499.822493
702.084974	2498.529437
702.420366	2500.770230
702.755709	2497.352327
703.091002	2502.070847
703.426246	2498.945332
703.761440	2496.714621
704.096584	2501.975065
704.431679	2496.560866
704.766725	2496.863335
705.101721	2497.450630
705.436668	2496.029024
705.771565	2497.228819
706.106413	2497.448109
706.441212	2500.387102
706.775961	2497.866525
707.110661	2496.359220
707.445311	2499.779643
707.779913	2498.605054
708.114465	2498.209323
708.448967	2498.594972
708.783421	2501.859119
709.117825	2498.516834
709.452180	2501.919613
709.786485	2500.069509
710.120742	2498.910044
710.454949	2495.731596
710.789107	2500.462719
711.123216	2498.302585
711.457275	2503.779798
711.791286	2504.314161
712.125247	2506.060921
712.459159	2503.222751
712.793023	2506.549913
713.126837	2504.961949
713.460602	2503.510097
713.794318	2505.193842
714.127985	2508.400016
714.461602	2505.750890
714.795171	2504.553616
715.128691	2503.273163
715.462162	2500.135044
715.795584	2502.030518
716.128957	2502.486743
716.462281	2501.859119
716.795556	2501.639829
717.128782	2497.135558
717.461960	2498.834427
717.795088	2497.127996
718.128167	2498.794097
718.461198	2497.012049
718.794180	2496.654128
719.127113	2496.873418
719.459997	2498.476505
719.792833	2495.792090
720.125619	2497.531288
720.458357	2494.438540
720.791046	2494.977944
721.123686	2495.356030
721.456278	2495.542553
721.788821	2496.155053
722.121315	2492.422079
722.453761	2491.549959
722.786158	2494.388129
723.118506	2492.449805
723.450805	2496.076915
723.783056	2495.456853
724.115259	2497.314519
724.447412	2495.383757
724.779518	2492.452326
725.111574	2494.937615
725.443582	2495.240084
725.775542	2491.854949
726.107453	2495.527430
726.439315	2496.359220
726.771129	2498.358038
727.102895	2492.563231
727.434612	2493.251349
727.766281	2490.450988
728.097901	2496.966679
728.429473	2498.332832
728.760996	2498.728562
729.092471	2495.590444
729.423897	2499.177225
729.755276	2497.715290
730.086606	2498.020280
730.417887	2498.726042
730.749120	2498.264776
731.080305	2500.568583
731.411442	2500.200579
731.742530	2501.397853
732.073570	2502.428769
732.404562	2499.557832
732.735506	2503.328615
733.066401	2499.215034
733.397249	2502.080930
733.728048	2498.521875
734.058798	2499.862822
734.389501	2498.491628
734.720156	2496.457523
735.050762	2494.748571
735.381320	2495.161946
735.711831	2492.669095
736.042293	2493.652120
736.372707	2494.544405
736.703073	2492.253200
737.033391	2494.090701
737.363661	2494.725886
737.693883	2494.884682
738.024056	2492.563231
738.354182	2494.733448
738.684260	2494.677995
739.014290	2495.852584
739.344272	2494.584734
739.674207	2495.111534
740.004093	2496.933912
740.333931	2497.874087
740.663722	2498.237050
740.993464	2498.085815
741.323159	2497.662358
741.652806	2497.135558
741.982405	2495.217399
742.311956	2494.410814
742.641460	2494.360403
742.970915	2495.887872
743.300323	2494.340238
743.629683	2488.709269
743.958996	2491.648262
744.288260	2488.837818
744.617477	2493.415186
744.946647	2493.505927
745.275768	2491.771770
745.604842	2494.395691
745.933869	2490.148518
746.262847	2493.195896
746.591778	2494.410814
746.920662	2489.331852
747.249498	2492.490134
747.578286	2492.590957
747.907027	2493.778149
748.235720	2490.851759
748.564365	2491.897799
748.892963	2491.063488
749.221514	2493.727738
749.550017	2493.334528
749.878473	2492.333859
750.206881	2491.076091
750.535242	2492.906030
750.863555	2490.783704
751.191821	2491.126502
751.520039	2493.493324
751.848210	2492.384270
752.176334	2492.233036
752.504411	2493.077429
752.832440	2492.293529
753.160421	2489.513333
753.488356	2490.861842
753.816243	2490.188848
754.144082	2489.538539
754.471875	2487.567448
754.799620	2489.694815
755.127318	2490.582058
755.454969	2489.105000
755.782572	2492.449805
756.110129	2489.848570
756.437638	2487.827067
756.765100	2492.462408
757.092515	2492.613643
757.419882	2487.501913
757.747203	2489.049547
758.074477	2488.487458
758.401703	2491.489465
758.728882	2490.997953
759.056014	2492.671616
759.383099	2492.656493
759.710138	2489.324290
760.037129	2490.370329
760.364073	2491.945690
760.690970	2486.571820
761.017820	2492.031389
761.344623	2490.178765
761.671379	2492.374188
761.998088	2495.522388
762.324751	2500.079592
762.651366	2501.712925
762.977935	2509.635099
763.304456	2515.341685
763.630931	2516.869154
763.957359	2515.608866
764.283740	2518.749505
764.610074	2509.670387
764.936362	2508.291631
765.262602	2503.142092
765.588796	2499.570435
765.914943	2497.203613
766.241044	2494.977944
766.567097	2491.083653
766.893104	2491.610453
767.219064	2488.069043
767.544978	2490.234218
767.870845	2489.336893
768.196665	2487.393528
768.522438	2486.748260
768.848165	2484.235245
769.173846	2485.286326
769.499479	2488.303456
769.825066	2485.850935
770.150607	2485.785400
770.476101	2484.414206
770.801548	2484.131901
771.126949	2483.746253
771.452303	2484.472179
771.777611	2483.307673
772.102872	2481.606283
772.428087	2483.438743
772.753256	2482.165851
773.078378	2482.962354
773.403453	2479.312558
773.728482	2484.237766
774.053465	2481.228197
774.378401	2484.081490
774.703291	2479.332723
775.028135	2481.326499
775.352932	2479.612507
775.677683	2479.952785
776.002388	2480.101499
776.327046	2477.969091
776.651658	2481.460090
776.976224	2479.065542
777.300743	2481.523104
777.625216	2478.954636
777.949643	2483.700883
778.274024	2481.036633
778.598359	2484.278095
778.922647	2479.458752
779.246889	2482.654843
779.571086	2481.850779
779.895236	2481.873464
780.219339	2481.271047
780.543397	2479.342805
780.867409	2480.056128
781.191374	2481.719709
781.515294	2481.200470
781.839167	2482.344812
782.162995	2481.334061
782.486776	2481.838176
782.810511	2483.857158
783.134201	2479.113433
783.457844	2481.780203
783.781441	2480.782055
784.104993	2480.149390
784.428498	2479.980511
784.751958	2480.272898
785.075372	2479.196612
785.398739	2481.460090
785.722061	2481.447487
786.045337	2479.650316
786.368568	2479.920017
786.691752	2481.056798
787.014891	2482.415388
787.337983	2480.214925
787.661030	2482.846407
787.984031	2484.071408
788.306987	2487.370843
788.629897	2484.273054
788.952760	2487.365802
789.275579	2485.603918
789.598351	2485.346819
789.921078	2484.436891
790.243759	2483.174082
790.566395	2481.676859
790.888984	2482.969915
791.211529	2479.191571
791.534027	2480.973618
791.856480	2484.436891
792.178888	2475.614872
792.501249	2479.282311
792.823566	2476.154275
793.145836	2475.766107
793.468062	2481.384472
793.790241	2480.739205
794.112375	2480.028402
794.434464	2478.848772
794.756507	2478.140490
795.078505	2481.636530
795.400457	2483.355564
795.722364	2483.393372
796.044226	2483.758856
796.366042	2482.352374
796.687812	2483.559730
797.009538	2482.763228
797.331218	2482.667446
797.652852	2482.309524
797.974442	2485.626603
798.295986	2484.154587
798.617484	2483.007724
798.938938	2482.652323
799.260346	2482.942189
799.581709	2482.443115
799.903026	2481.306335
800.224299	2480.449338
800.545526	2479.042857
800.866708	2481.702065
801.187845	2480.472024
801.508936	2482.233907
801.829983	2480.149390
802.150984	2480.368680
802.471940	2479.768783
802.792851	2479.178968
803.113717	2478.064873
803.434538	2481.260964
803.755314	2479.380614
804.076045	2481.495378
804.396731	2480.058649
804.717372	2480.025882
805.037967	2478.891622
805.358518	2478.044708
805.679024	2480.184678
805.999485	2478.498412
806.319901	2478.667291
806.640272	2481.059318
806.960598	2478.659729
807.280879	2480.421612
807.601115	2479.670480
807.921306	2480.446818
808.241453	2479.700727
808.561554	2478.009420
808.881611	2479.118474
809.201623	2475.254429
809.521590	2478.750470
809.841513	2480.708958
810.161390	2478.568988
810.481223	2479.703248
810.801011	2480.721561
811.120755	2480.310707
811.440453	2480.033443
811.760107	2479.052939
812.079716	2481.021509
812.399281	2478.062352
812.718801	2479.433546
813.038276	2478.301807
813.357707	2476.091261
813.677093	2479.882209
813.996434	2479.642754
814.315731	2477.661580
814.634983	2480.386324
814.954191	2479.998155
815.273354	2478.311889
815.592473	2478.974801
815.911547	2481.641571
816.230577	2482.627117
816.549562	2481.024030
816.868502	2483.673156
817.187399	2482.599391
817.506250	2481.311376
817.825058	2481.480254
818.143821	2484.469659
818.462539	2483.900008
818.781213	2484.552838
819.099843	2484.764566
819.418429	2486.806233
819.736970	2490.740854
820.055466	2492.601040
820.373919	2497.508603
820.692327	2502.610251
821.010691	2513.226921
821.329011	2530.525640
821.647286	2565.775908
821.965517	2611.405912
822.283704	2641.998155
822.601847	2657.177069
822.919945	2647.422436
823.237999	2628.981895
823.556010	2610.180912
823.873976	2589.222315
824.191897	2567.623491
824.509775	2551.549772
824.827609	2541.366642
825.145398	2527.972296
825.463144	2528.191586
825.780845	2527.505989
826.098502	2530.969262
826.416116	2536.585107
826.733685	2545.865871
827.051210	2551.990873
827.368692	2547.274874
827.686129	2544.298072
828.003522	2530.253418
828.320872	2521.577592
828.638177	2514.073835
828.955439	2505.057731
829.272656	2502.148985
829.589830	2497.730414
829.906960	2496.039107
830.224046	2490.324959
830.541088	2490.156080
830.858086	2486.917139
831.175041	2484.303301
831.491952	2484.938486
831.808819	2485.082159
832.125642	2483.032930
832.442421	2489.369660
832.759157	2492.308653
833.075849	2497.773264
833.392497	2506.139058
833.709101	2513.650378
834.025662	2515.177847
834.342179	2512.886643
834.658653	2508.896570
834.975083	2501.506238
835.291469	2497.501041
835.607811	2495.202275
835.924110	2489.841008
836.240366	2489.372181
836.556578	2487.007880
836.872746	2487.164155
837.188871	2480.245172
837.504952	2482.211222
837.820990	2478.127887
838.136984	2480.033443
838.452935	2476.860037
838.768842	2478.432877
839.084706	2480.474544
839.400526	2482.647282
839.716303	2485.729947
840.032037	2488.273209
840.347727	2486.939824
840.663373	2485.790441
840.978977	2483.043012
841.294537	2480.749287
841.610054	2480.368680
841.925527	2481.659215
842.240957	2476.844913
842.556344	2478.238792
842.871687	2476.189563
843.186987	2475.622434
843.502244	2474.699902
843.817458	2473.502628
844.132629	2473.605972
844.447756	2474.200828
844.762840	2474.190746
845.077881	2476.083699
845.392879	2471.186218
845.707833	2474.377269
846.022745	2472.023050
846.337613	2473.391723
846.652438	2473.379120
846.967221	2472.247381
847.281960	2472.522124
847.596656	2473.038842
847.911309	2471.791157
848.225919	2470.916517
848.540485	2471.186218
848.855009	2471.589511
849.169490	2473.505149
849.483928	2468.655559
849.798323	2471.057669
850.112675	2472.844758
850.426984	2472.766620
850.741251	2473.638740
851.055474	2470.861064
851.369654	2471.455920
851.683792	2470.324181
851.997887	2471.831486
852.311938	2468.869808
852.625947	2471.158492
852.939914	2474.462968
853.253837	2473.913483
853.567718	2469.152113
853.881555	2472.532206
854.195350	2470.672021
854.509103	2468.998357
854.822812	2471.503811
855.136479	2471.891980
855.450103	2472.058338
855.763685	2469.268059
856.077224	2467.738069
856.390720	2467.760754
856.704173	2466.775209
857.017584	2471.158492
857.330953	2471.221506
857.644278	2470.810652
857.957561	2472.496918
858.270802	2471.496249
858.584000	2470.268728
858.897155	2472.290231
859.210268	2472.650673
859.523339	2471.559264
859.836367	2470.603965
860.149352	2470.293934
860.462295	2471.203862
860.775195	2471.148410
861.088054	2472.116311
861.400869	2474.296610
861.713642	2473.245530
862.026373	2470.845940
862.339062	2471.571867
862.651708	2471.665128
862.964312	2471.440797
863.276873	2469.441979
863.589392	2470.087247
863.901869	2472.380972
864.214303	2470.571198
864.526696	2472.335601
864.839045	2473.323668
865.151353	2468.620271
865.463619	2474.397433
865.775842	2472.262505
866.088023	2474.026908
866.400162	2470.714870
866.712258	2475.435911
867.024313	2473.313585
867.336325	2471.947433
867.648296	2472.388533
867.960224	2473.026239
868.272110	2472.779223
868.583954	2471.990282
868.895755	2471.924747
869.207515	2472.612865
869.519233	2472.965746
869.830909	2471.823924
870.142542	2472.335601
870.454134	2473.381641
870.765684	2473.328709
871.077191	2473.522793
871.388657	2470.382154
871.700081	2470.669500
872.011463	2471.143368
872.322803	2471.057669
872.634101	2473.399285
872.945357	2475.526652
873.256571	2474.790643
873.567744	2476.151755
873.878874	2473.222844
874.189963	2475.198977
874.501010	2475.834162
874.812015	2478.236272
875.122979	2477.742239
875.433900	2474.435242
875.744780	2474.422639
876.055618	2473.905921
876.366415	2477.185191
876.677169	2477.147383
876.987882	2477.066724
877.298554	2478.395068
877.609183	2478.082517
877.919771	2474.210911
878.230317	2476.688638
878.540822	2480.320789
878.851285	2479.431025
879.161707	2482.576705
879.472087	2484.872951
879.782425	2491.996101
880.092722	2495.600526
880.402977	2511.936385
880.713191	2525.582789
881.023363	2544.224976
881.333494	2556.737120
881.643583	2565.107956
881.953631	2566.726166
882.263637	2562.148798
882.573602	2555.373487
882.883526	2545.873433
883.193408	2543.098278
883.503248	2535.728111
883.813048	2526.878365
884.122806	2520.707993
884.432522	2516.359998
884.742197	2509.927486
885.051831	2504.241064
885.361424	2496.923829
885.670975	2495.585403
885.980485	2492.769918
886.289954	2490.193889
886.599382	2487.025524
886.908768	2482.090234
887.218113	2480.598053
887.527417	2480.713999
887.836680	2473.706795
888.145901	2478.221148
888.455082	2480.552682
888.764221	2480.164513
889.073319	2477.780048
889.382376	2477.298617
889.691392	2477.079327
890.000366	2477.711992
890.309300	2477.434728
890.618193	2477.575881
890.927044	2478.057311
891.235855	2477.878350
891.544625	2477.104533
891.853353	2476.398771
892.162041	2477.583442
892.470687	2477.253247
892.779293	2479.922538
893.087858	2476.093782
893.396381	2483.126191
893.704864	2485.125009
894.013306	2491.139105
894.321707	2495.103973
894.630068	2499.393995
894.938387	2501.362565
895.246665	2501.828872
895.554903	2500.689571
895.863100	2496.603716
896.171256	2493.009373
896.479371	2491.791935
896.787446	2488.835298
897.095480	2486.418065
897.403473	2486.052581
897.711425	2484.449494
898.019336	2482.077631
898.327207	2482.140646
898.635038	2479.733495
898.942827	2478.173257
899.250576	2478.334574
899.558284	2477.394399
899.865952	2477.643936
900.173579	2475.720736
900.481165	2475.821559
900.788711	2473.253091
901.096216	2475.735860
901.403681	2475.244347
901.711105	2474.485653
902.018489	2473.885756
902.325832	2473.033801
902.633135	2470.215796
902.940397	2475.652681
903.247619	2475.998000
903.554800	2484.290698
903.861941	2493.437871
904.169041	2500.883656
904.476101	2506.900273
904.783121	2508.216014
905.090100	2503.341218
905.397039	2501.196207
905.703938	2497.198572
906.010796	2493.616832
906.317614	2492.396873
906.624391	2488.121975
906.931129	2487.413692
907.237826	2485.455204
907.544483	2482.228866
907.851099	2481.865903
908.157675	2479.478916
908.464211	2476.560088
908.770707	2473.482464
909.077163	2472.945581
909.383578	2475.352732
909.689954	2476.287866
909.996289	2473.946250
910.302584	2472.045735
910.608839	2470.326702
910.915054	2472.834676
911.221229	2473.190077
911.527363	2469.573049
911.833458	2467.627164
912.139513	2472.809470
912.445527	2470.188070
912.751502	2470.150261
913.057436	2469.719243
913.363331	2472.401136
913.669186	2473.681589
913.975000	2474.515900
914.280775	2475.796353
914.586510	2479.604945
914.892205	2483.557210
915.197859	2485.921511
915.503475	2493.299240
915.809050	2499.434324
916.114585	2504.230982
916.420081	2504.735097
916.725536	2507.114522
917.030952	2504.409943
917.336328	2501.947339
917.641665	2500.510610
917.946961	2498.053048
918.252218	2497.420383
918.557435	2487.532160
918.862612	2490.887048
919.167750	2490.793786
919.472848	2488.966368
919.777906	2484.527632
920.082925	2482.949751
920.387904	2480.290542
920.692843	2480.063690
920.997743	2479.100830
921.302603	2478.115284
921.607423	2476.615541
921.912204	2474.311734
922.216946	2475.884574
922.521647	2473.490026
922.826310	2471.808801
923.130932	2469.971300
923.435516	2471.947432
923.740059	2472.718729
924.044564	2471.274438
924.349028	2471.798718
924.653454	2470.518265
924.957840	2471.914665
925.262186	2468.075826
925.566493	2469.870477
925.870761	2469.683954
926.174989	2469.648666
926.479178	2468.499283
926.783328	2467.922071
927.087438	2467.241515
927.391509	2469.154633
927.695541	2468.695888
927.999533	2469.058851
928.303486	2466.964252
928.607400	2468.824438
928.911275	2464.668006
929.215110	2467.337297
929.518906	2466.381999
929.822663	2468.214458
930.126381	2467.846454
930.430060	2470.838379
930.733699	2468.816876
931.037299	2467.062554
931.340861	2470.339304
931.644383	2469.217648
931.947866	2467.435600
932.251309	2467.168419
932.554714	2469.320991
932.858080	2465.270424
933.161407	2463.047275
933.464694	2466.361834
933.767943	2463.185907
934.071153	2466.626495
934.374323	2467.370065
934.677455	2468.892493
934.980548	2466.860908
935.283602	2465.958542
935.586617	2467.629684
935.889593	2467.760754
936.192530	2466.966772
936.495428	2469.396609
936.798287	2464.751185
937.101108	2466.903758
937.403890	2465.691361
937.706632	2466.795373
938.009336	2469.227730
938.312002	2469.613378
938.614628	2469.116825
938.917216	2469.666310
939.219765	2468.595065
939.522275	2471.110601
939.824747	2470.127576
940.127179	2470.024232
940.429573	2468.549695
940.731929	2471.511373
941.034246	2469.731845
941.336524	2470.719912
941.638763	2468.337966
941.940964	2468.315281
942.243126	2469.346197
942.545250	2470.571197
942.847335	2470.649335
943.149381	2469.915847
943.451389	2466.767647
943.753359	2470.425004
944.055290	2467.911989
944.357182	2469.603296
944.659036	2466.329067
944.960851	2469.328553
945.262628	2469.568008
945.564367	2466.631536
945.866067	2467.554067
946.167729	2469.104222
946.469352	2468.025415
946.770937	2468.927781
947.072484	2464.872173
947.373992	2468.569859
947.675462	2469.333594
947.976893	2463.195989
948.278286	2462.802779
948.579641	2467.433079
948.880958	2464.426031
949.182236	2465.653552
949.483476	2466.182873
949.784678	2468.743779
950.085841	2466.442493
950.386967	2465.514920
950.688054	2465.146916
950.989103	2466.210599
951.290114	2466.220682
951.591087	2466.717235
951.892021	2467.039869
952.192917	2467.685137
952.493776	2468.698409
952.794596	2467.347380
953.095378	2466.931484
953.396122	2470.102370
953.696828	2468.423666
953.997496	2466.727318
954.298126	2470.011629
954.598718	2467.455764
954.899272	2466.495425
955.199788	2468.063223
955.500266	2468.446351
955.800706	2467.148254
956.101108	2467.221351
956.401472	2468.821917
956.701798	2465.857719
957.002087	2464.985599
957.302337	2464.446196
957.602550	2468.325363
957.902724	2465.456947
958.202861	2464.541978
958.502960	2466.225723
958.803022	2466.971814
959.103045	2467.150775
959.403031	2463.687502
959.702979	2465.227574
960.002889	2464.733541
960.302762	2466.810497
960.602596	2464.965434
960.902393	2465.099025
961.202153	2463.621967
961.501875	2462.926288
961.801559	2464.950311
962.101205	2462.344034
962.400814	2463.715228
962.700385	2464.221864
962.999918	2460.957717
963.299414	2462.316308
963.598873	2461.028293
963.898293	2459.246245
964.197677	2462.732203
964.497022	2464.350414
964.796331	2462.412090
965.095601	2462.848150
965.394835	2464.970476
965.694030	2463.589199
965.993189	2462.742286
966.292309	2466.036680
966.591393	2466.326546
966.890439	2462.207923
967.189447	2465.240177
967.488419	2462.979220
967.787353	2464.042903
968.086249	2462.515434
968.385108	2461.890331
968.683930	2463.619446
968.982714	2465.086422
969.281462	2463.427882
969.580172	2462.664148
969.878844	2464.511731
970.177480	2466.664303
970.476078	2466.225723
970.774639	2463.846298
971.073162	2466.051803
971.371649	2464.352934
971.670098	2465.577935
971.968510	2463.138016
972.266885	2464.415949
972.565223	2463.500979
972.863524	2463.770681
973.161788	2461.393777
973.460014	2463.309415
973.758204	2464.857050
974.056356	2465.260342
974.354471	2466.480301
974.652550	2465.298151
974.950591	2464.746144
975.248595	2467.554067
975.546563	2465.426700
975.844493	2466.339149
976.142386	2463.982409
976.440243	2465.845116
976.738062	2463.984930
977.035845	2463.160701
977.333590	2467.090281
977.631299	2463.811010
977.928971	2462.712039
978.226606	2457.368416
978.524204	2458.479990
978.821765	2458.669033
979.119290	2462.966617
979.416777	2462.822944
979.714228	2463.316977
980.011642	2463.576597
980.309020	2465.590538
980.606360	2463.904272
980.903664	2465.018367
981.200931	2463.503500
981.498162	2465.502317
981.795356	2465.134313
982.092513	2465.978706
982.389633	2467.730507
982.686717	2467.097843
982.983764	2467.160857
983.280775	2468.370734
983.577749	2471.138327
983.874686	2469.293265
984.171587	2466.034159
984.468451	2469.570528
984.765279	2466.452575
985.062070	2465.630867
985.358824	2468.945425
985.655543	2466.271093
985.952224	2464.859570
986.248869	2464.983078
986.545478	2466.162708
986.842050	2464.675568
987.138586	2463.972327
987.435086	2465.214972
987.731549	2462.770012
988.027975	2467.417956
988.324366	2461.560135
988.620719	2460.446040
988.917037	2461.378653
989.213318	2463.599282
989.509563	2463.760599
989.805772	2463.289251
990.101944	2461.804631
990.398080	2463.642132
990.694180	2464.002574
990.990244	2461.792028
991.286271	2463.921916
991.582262	2461.877728
991.878217	2463.279168
992.174136	2462.643983
992.470019	2461.887810
992.765865	2461.953345
993.061676	2459.420165
993.357450	2463.816051
993.653188	2458.482511
993.948890	2463.163222
994.244556	2464.373099
994.540186	2462.938891
994.835780	2463.566514
995.131337	2463.516103
995.426859	2464.927626
995.722345	2464.783953
996.017795	2465.938377
996.313208	2465.829992
996.608586	2467.876701
996.903928	2464.652883
997.199234	2466.951649
997.494504	2469.154633
997.789738	2463.629529
998.084936	2468.080868
998.380099	2463.581638
998.675225	2466.477781
998.970316	2462.522995
999.265371	2466.530713
999.560390	2466.266052
999.855373	2464.027780
1000.150320	2464.148767
1000.445232	2464.007615
1000.740108	2464.340331
1001.034948	2462.759930
1001.329752	2461.862604
1001.624521	2463.495938
1001.919254	2463.871504
1002.213951	2463.448047
1002.508613	2465.358644
1002.803239	2461.096349
1003.097829	2461.789508
1003.392384	2463.400156
1003.686903	2460.609877
1003.981386	2461.708849
1004.275834	2460.985443
1004.570246	2462.013839
1004.864623	2461.451750
1005.158964	2464.675568
1005.453270	2461.058540
1005.747540	2462.719600
1006.041775	2462.800259
1006.335974	2461.910495
1006.630138	2463.246401
1006.924266	2463.440485
1007.218359	2462.170115
1007.512416	2459.389918
1007.806438	2457.842284
1008.100425	2458.648869
1008.394376	2455.639300
1008.688292	2464.899899
1008.982172	2462.742286
1009.276017	2462.606174
1009.569827	2461.056020
1009.863602	2460.952676
1010.157341	2462.308746
1010.451045	2464.211782
1010.744714	2459.059723
1011.038347	2462.883438
1011.331945	2459.100052
1011.625508	2460.617439
1011.919036	2459.485700
1012.212528	2461.774384
1012.505986	2461.615588
1012.799408	2459.946966
1013.092795	2462.328911
1013.386147	2461.837398
1013.679464	2461.159363
1013.972745	2459.084928
1014.265992	2459.218519
1014.559204	2461.960907
1014.852380	2461.050978
1015.145521	2462.588530
1015.438628	2459.886472
1015.731699	2459.740278
1016.024736	2461.381174
1016.317737	2464.267235
1016.610703	2461.771863
1016.903635	2464.110959
1017.196531	2462.011318
1017.489393	2460.123406
1017.782219	2462.447378
1018.075011	2460.158694
1018.367768	2458.434620
1018.660490	2461.734055
1018.953177	2461.734055
1019.245829	2461.734055
