Dividing Wavelength (nm)	Counts (n)	Blue Motor Position (mm): 0.000000	Red Motor Position (mm): 13.500000	
326.493990	2052.445295
326.888308	2052.445295
327.282561	2052.445295
327.676750	2028.416635
328.070874	2027.022756
328.464933	2034.420649
328.858929	2045.107895
329.252859	2054.126519
329.646726	2066.414332
330.040528	2084.060891
330.434265	2098.997830
330.827938	2122.595471
331.221547	2142.114819
331.615091	2159.842036
332.008571	2182.219718
332.401986	2200.660259
332.795338	2223.330328
333.188625	2241.002093
333.581847	2258.923394
333.975006	2276.305293
334.368100	2295.741462
334.761129	2313.206539
335.154095	2331.074909
335.546996	2345.631241
335.939833	2356.452077
336.332606	2372.888759
336.725315	2385.194216
337.117960	2392.307284
337.510540	2402.840775
337.903056	2411.146076
338.295508	2417.049267
338.687896	2428.737182
339.080220	2429.881524
339.472480	2434.269849
339.864676	2439.268153
340.256807	2441.806374
340.648875	2444.543720
341.040879	2448.153186
341.432818	2447.747373
341.824694	2451.561006
342.216506	2447.790223
342.608253	2449.347940
342.999937	2445.612445
343.391557	2448.014555
343.783113	2445.299893
344.174605	2444.231169
344.566033	2442.507094
344.957397	2440.530962
345.348697	2441.667742
345.739934	2439.250509
346.131106	2436.094746
346.522215	2432.472677
346.913260	2433.869077
347.304241	2429.165680
347.695159	2427.983530
348.086012	2428.525454
348.476802	2424.800041
348.867528	2420.507499
349.258191	2420.560431
349.648789	2422.070256
350.039324	2416.283012
350.429796	2417.792837
350.820203	2418.937179
351.210548	2415.385686
351.600828	2417.515574
351.991045	2418.319638
352.381198	2416.154462
352.771288	2416.950965
353.161314	2416.197312
353.551276	2418.851480
353.941175	2418.228897
354.331010	2416.542631
354.720782	2418.498599
355.110490	2418.175965
355.500135	2417.049267
355.889717	2418.566654
356.279235	2418.990111
356.668689	2420.404155
357.058080	2417.933990
357.447408	2420.147056
357.836672	2419.491706
358.225873	2422.050092
358.615010	2418.715368
359.004084	2423.953127
359.393095	2422.917170
359.782043	2423.469177
360.170927	2422.869279
360.559748	2423.254927
360.948505	2424.409352
361.337199	2424.169897
361.725830	2422.833991
362.114398	2424.452202
362.502903	2421.288878
362.891344	2426.521595
363.279722	2426.261976
363.668037	2429.541246
364.056289	2427.393715
364.444478	2427.020669
364.832603	2430.564601
365.220665	2429.344641
365.608665	2430.196596
365.996601	2432.167687
366.384474	2432.422266
366.772284	2431.623243
367.160031	2429.654672
367.547715	2432.719694
367.935336	2434.065682
368.322893	2429.125351
368.710388	2426.902202
369.097820	2431.252718
369.485189	2429.032090
369.872495	2433.808583
370.259738	2432.097111
370.646918	2435.883018
371.034035	2432.439910
371.421090	2436.503080
371.808081	2439.278235
372.195010	2436.848399
372.581875	2440.508277
372.968678	2440.672114
373.355418	2443.442228
373.742096	2444.077413
374.128710	2445.872064
374.515262	2450.913218
374.901751	2450.709051
375.288177	2456.670216
375.674540	2460.246914
376.060841	2461.086267
376.447079	2466.155147
376.833254	2471.516414
377.219367	2474.914152
377.605417	2480.797178
377.991404	2486.289515
378.377329	2497.871566
378.763191	2500.520692
379.148991	2509.572084
379.534727	2518.023579
379.920402	2522.921060
380.306013	2533.262987
380.691563	2548.860317
381.077049	2556.638817
381.462474	2569.680282
381.847835	2586.414392
382.233134	2597.555342
382.618371	2605.785026
383.003545	2624.954013
383.388657	2637.377937
383.773706	2659.395177
384.158693	2671.501507
384.543618	2688.253262
384.928480	2705.625078
385.313280	2724.700804
385.698017	2742.735532
386.082692	2771.482712
386.467305	2782.961419
386.851856	2806.778350
387.236344	2836.140551
387.620770	2850.321317
388.005133	2869.497866
388.389435	2907.119997
388.773674	2920.050557
389.157851	2950.395782
389.541965	2979.621872
389.926018	2991.365240
390.310008	3024.851104
390.693936	3048.105947
391.077802	3077.090061
391.461606	3106.510235
391.845348	3124.282822
392.229027	3154.433964
392.612645	3197.621529
392.996200	3223.717062
393.379694	3261.220726
393.763125	3302.928712
394.146494	3329.341838
394.529801	3362.515150
394.913047	3409.796132
395.296230	3411.545413
395.679351	3434.064247
396.062410	3477.811380
396.445408	3456.666260
396.828343	3494.699245
397.211217	3524.356353
397.594028	3497.988598
397.976778	3538.617778
398.359466	3569.245308
398.742092	3572.764033
399.124656	3580.363573
399.507158	3632.761326
399.889598	3627.626911
400.271977	3685.179243
400.654294	3658.130932
401.036549	3704.756564
401.418742	3696.282385
401.800874	3752.408071
402.182944	3758.369236
402.564952	3828.118640
402.946898	3808.044766
403.328783	3782.629788
403.710606	3812.798574
404.092367	3857.707693
404.474067	3894.750091
404.855705	3862.131305
405.237282	3818.220335
405.618797	3878.275600
406.000250	3916.139707
406.381642	3960.617807
406.762972	3931.074125
407.144240	3886.986714
407.525447	3906.611926
407.906593	3893.406624
408.287677	3930.955658
408.668700	3917.888987
409.049661	3919.539965
409.430560	3911.627874
409.811399	3871.477604
410.192176	3877.169067
410.572891	3898.475504
410.953545	3926.317797
411.334138	3830.155266
411.714669	3861.854042
412.095139	3776.182153
412.475547	3804.909168
412.855894	3771.972789
413.236180	3788.175058
413.616405	3715.143862
413.996568	3732.636666
414.376670	3698.142571
414.756711	3654.710510
415.136691	3650.438132
415.516609	3652.431908
415.896466	3629.030872
416.276262	3623.783031
416.655997	3629.509782
417.035670	3623.445273
417.415283	3639.924805
417.794834	3621.297742
418.174324	3565.192220
418.553753	3525.944317
418.933121	3534.468908
419.312428	3493.754029
419.691674	3435.223712
420.070859	3458.143318
420.449983	3382.543655
420.829045	3393.815675
421.208047	3332.447188
421.586988	3332.863083
421.965867	3307.327119
422.344686	3287.296094
422.723444	3282.665794
423.102141	3167.936694
423.480777	3203.897765
423.859352	3137.379740
424.237866	3161.146260
424.616319	3124.207205
424.994712	3114.828138
425.373044	3064.703946
425.751314	3071.922878
426.129524	3002.848988
426.507673	3000.552743
426.885762	2975.440235
427.263789	2953.914508
427.641756	2930.599171
428.019662	2908.856675
428.397508	2883.734084
428.775292	2856.194261
429.153016	2845.096161
429.530679	2815.736481
429.908282	2792.466515
430.285824	2771.875922
430.663305	2763.280754
431.040726	2738.175808
431.418086	2717.098744
431.795385	2708.170861
432.172624	2699.260621
432.549802	2676.293124
432.926920	2670.188287
433.303977	2648.644916
433.680974	2635.767288
434.057910	2630.678244
434.434786	2618.914711
434.811601	2606.505911
435.188355	2603.786208
435.565050	2591.586616
435.941683	2579.863413
436.318257	2580.571695
436.694770	2568.566187
437.071222	2567.608368
437.447614	2552.043805
437.823946	2549.762683
438.200218	2543.884698
438.576429	2536.922864
438.952580	2534.735004
439.328670	2532.804242
439.704700	2526.989271
440.080670	2523.520957
440.456580	2523.210926
440.832429	2520.907119
441.208218	2514.640964
441.583947	2513.415964
441.959616	2514.179699
442.335224	2511.263391
442.710773	2508.324399
443.086261	2509.831704
443.461689	2506.948164
443.837057	2508.896570
444.212365	2506.164264
444.587612	2505.332474
444.962800	2500.697133
445.337927	2502.837103
445.712995	2495.698829
446.088002	2502.186794
446.462949	2500.981958
446.837837	2501.448265
447.212664	2503.179901
447.587431	2503.900786
447.962139	2508.682321
448.336786	2516.521315
448.711374	2509.199039
449.085901	2505.546723
449.460369	2505.995386
449.834776	2500.770230
450.209124	2505.042608
450.583412	2507.348935
450.957640	2506.728873
451.331808	2502.148985
451.705917	2501.274345
452.079965	2500.349293
452.453954	2502.043121
452.827883	2497.914416
453.201752	2500.747544
453.575562	2503.356342
453.949311	2498.668068
454.323001	2499.845178
454.696632	2499.530106
455.070202	2502.022956
455.443713	2500.649242
455.817164	2502.101094
456.190556	2504.067144
456.563888	2504.089829
456.937160	2505.539161
457.310373	2503.154695
457.683526	2502.075888
458.056619	2502.438852
458.429653	2501.395333
458.802628	2502.663183
459.175542	2501.339880
459.548398	2503.966321
459.921194	2506.577639
460.293930	2505.960097
460.666607	2507.873215
461.039224	2510.587877
461.411782	2513.670542
461.784280	2510.330778
462.156719	2510.234996
462.529099	2509.138545
462.901419	2508.584018
463.273680	2505.471106
463.645882	2502.446413
464.018024	2505.070334
464.390106	2503.116887
464.762130	2509.614934
465.134094	2513.862106
465.505999	2521.822088
465.877845	2528.010104
466.249631	2532.983203
466.621358	2530.205527
466.993026	2527.657224
467.364634	2529.247708
467.736184	2525.103879
468.107674	2522.293436
468.479105	2518.613394
468.850477	2517.698424
469.221790	2521.950637
469.593043	2517.358146
469.964238	2514.968639
470.335373	2516.302025
470.706449	2516.402848
471.077467	2517.176665
471.448425	2523.873838
471.819324	2530.863398
472.190164	2530.482790
472.560945	2523.949455
472.931667	2518.610873
473.302330	2518.757067
473.672934	2516.435615
474.043479	2517.199350
474.413965	2518.535256
474.784393	2516.417971
475.154761	2519.266223
475.525070	2519.593898
475.895321	2516.901922
476.265513	2518.202540
476.635645	2521.885103
477.005719	2520.551717
477.375734	2522.406862
477.745691	2518.933507
478.115588	2525.212264
478.485427	2525.111441
478.855207	2532.516896
479.224928	2534.208203
479.594591	2540.232382
479.964194	2538.359593
480.333739	2540.633154
480.703226	2540.398740
481.072653	2539.413194
481.442022	2541.860675
481.811333	2540.824717
482.180584	2534.707277
482.549777	2538.039480
482.918912	2535.289531
483.287988	2538.629295
483.657005	2538.523431
484.025964	2536.542257
484.394864	2536.920344
484.763706	2541.419574
485.132489	2533.562935
485.501213	2536.653163
485.869879	2532.617719
486.238487	2535.087884
486.607036	2536.020498
486.975527	2534.240971
487.343959	2536.877494
487.712333	2535.476053
488.080648	2537.837834
488.448905	2538.793133
488.817104	2538.563760
489.185244	2539.577032
489.553326	2541.354039
489.921350	2547.630275
490.289315	2551.552293
490.657222	2552.749567
491.025070	2556.848025
491.392861	2553.425082
491.760593	2550.632282
492.128267	2549.687066
492.495883	2546.705223
492.863440	2544.373690
493.230939	2543.625078
493.598380	2542.546272
493.965763	2541.916127
494.333088	2542.271529
494.700354	2540.819676
495.067563	2539.072917
495.434713	2538.180632
495.801805	2541.921168
496.168839	2538.374717
496.535815	2541.427135
496.902733	2540.365973
497.269593	2538.830941
497.636395	2540.086188
498.003139	2538.818338
498.369825	2538.520910
498.736453	2540.038297
499.103023	2539.226672
499.469535	2540.607948
499.835989	2541.245654
500.202385	2538.818338
500.568723	2535.685261
500.935003	2538.561239
501.301226	2532.950435
501.667390	2543.378062
502.033497	2543.955274
502.399546	2540.653318
502.765537	2537.739531
503.131470	2540.736497
503.497345	2544.565254
503.863163	2539.589635
504.228923	2538.626774
504.594625	2539.682896
504.960269	2542.090047
505.325856	2541.328833
505.691385	2537.489994
506.056856	2540.176929
506.422270	2541.797660
506.787625	2542.155582
507.152924	2540.670962
507.518164	2541.306148
507.883347	2541.500232
508.248472	2540.000489
508.613540	2541.510314
508.978550	2538.778009
509.343503	2542.132897
509.708398	2540.055942
510.073236	2543.756148
510.438016	2544.426622
510.802738	2542.553833
511.167403	2541.439738
511.532010	2543.317568
511.896561	2546.009544
512.261053	2542.896632
512.625488	2540.723894
512.989866	2543.821683
513.354186	2544.119112
513.718449	2540.978473
514.082655	2540.678524
514.446803	2541.936292
514.810894	2541.742207
515.174927	2540.605427
515.538904	2539.604758
515.902822	2542.828576
516.266684	2544.461910
516.630488	2543.753628
516.994235	2540.408822
517.357925	2540.570139
517.721558	2543.088196
518.085133	2542.090047
518.448651	2539.118287
518.812112	2538.586445
519.175516	2538.651980
519.538863	2534.606454
519.902152	2538.631816
520.265385	2539.718184
520.628560	2541.101981
520.991678	2542.329502
521.354739	2539.997968
521.717743	2539.539223
522.080690	2539.251878
522.443580	2540.812115
522.806413	2542.311858
523.169189	2540.315561
523.531908	2542.367311
523.894569	2540.547454
524.257174	2541.109543
524.619722	2539.496373
524.982213	2542.919317
525.344647	2539.955118
525.707025	2538.730118
526.069345	2540.698689
526.431608	2539.753472
526.793815	2537.726928
527.155964	2537.868081
527.518057	2539.214069
527.880093	2539.466127
528.242072	2540.537372
528.603995	2538.596528
528.965860	2539.272042
529.327669	2538.173071
529.689421	2540.217258
530.051117	2541.283463
530.412755	2538.304141
530.774337	2537.056455
531.135862	2539.647608
531.497331	2537.668955
531.858743	2539.067875
532.220098	2537.356404
532.581396	2538.404964
532.942638	2536.706095
533.303824	2537.484953
533.664953	2538.780530
534.026025	2537.331198
534.387040	2538.573842
534.747999	2536.189377
535.108902	2537.079140
535.469748	2536.854809
535.830537	2538.044521
536.191270	2537.094264
536.551947	2533.943542
536.912567	2531.201155
537.273131	2531.586803
537.633638	2530.450023
537.994089	2535.292051
538.354483	2533.709129
538.714821	2537.162319
539.075103	2534.936650
539.435328	2538.624254
539.795497	2535.902031
540.155609	2534.593851
540.515665	2537.222813
540.875665	2534.866074
541.235609	2534.336752
541.595496	2536.312885
541.955328	2538.619213
542.315102	2535.594520
542.674821	2532.579910
543.034483	2534.722401
543.394090	2532.806762
543.753640	2535.090405
544.113134	2534.687113
544.472571	2531.548994
544.831953	2534.956814
545.191278	2534.432534
545.550548	2533.688964
545.909761	2533.015970
546.268918	2532.917668
546.628019	2533.857843
546.987064	2535.213913
547.346053	2532.211906
547.704986	2533.265507
548.063863	2532.393388
548.422684	2532.826927
548.781449	2535.506300
549.140158	2536.436393
549.498811	2532.653007
549.857408	2532.158974
550.215949	2532.295085
550.574434	2534.407329
550.932864	2534.974458
551.291237	2534.339273
551.649555	2533.774664
552.007817	2534.747607
552.366022	2534.518234
552.724173	2531.614529
553.082267	2532.451361
553.440305	2533.419262
553.798288	2535.292051
554.156215	2532.083357
554.514086	2532.950435
554.871902	2528.975485
555.229661	2533.290713
555.587365	2526.603623
555.945014	2535.239119
556.302606	2534.016639
556.660143	2534.155271
557.017625	2533.613347
557.375050	2531.997657
557.732421	2532.862215
558.089735	2535.642411
558.446994	2533.633512
558.804197	2534.009078
559.161345	2533.101670
559.518437	2532.738707
559.875474	2533.053779
560.232455	2534.402287
560.589381	2532.355579
560.946251	2535.153419
561.303065	2535.075282
561.659825	2531.886752
562.016528	2534.157792
562.373177	2531.904396
562.729770	2534.409849
563.086307	2532.466484
563.442789	2531.722914
563.799216	2534.452699
564.155587	2532.831968
564.511904	2533.744417
564.868164	2533.081505
565.224370	2532.814324
565.580520	2531.160826
565.936615	2531.417924
566.292654	2532.804242
566.648638	2530.485311
567.004567	2532.015301
567.360441	2531.922040
567.716260	2533.993954
568.072023	2533.643594
568.427732	2533.734335
568.783385	2530.802904
569.138982	2533.676361
569.494525	2530.996988
569.850013	2533.157123
570.205445	2532.393388
570.560823	2534.740045
570.916145	2532.592513
571.271412	2534.616537
571.626625	2533.701567
571.981782	2531.261649
572.336884	2528.148736
572.691931	2526.853160
573.046923	2528.645290
573.401860	2526.220495
573.756743	2532.791639
574.111570	2531.773326
574.466342	2531.208717
574.821059	2531.070085
575.175722	2532.796680
575.530330	2531.233922
575.884882	2532.090918
576.239380	2528.519261
576.593823	2532.383305
576.948211	2530.167718
577.302544	2529.101514
577.656823	2528.778880
578.011047	2529.562780
578.365216	2528.922553
578.719330	2528.476411
579.073389	2529.071267
579.427394	2529.091432
579.781344	2527.316946
580.135239	2528.279806
580.489080	2528.352903
580.842866	2530.286185
581.196597	2530.777698
581.550273	2529.484642
581.903895	2525.822244
582.257463	2531.175949
582.610975	2530.777698
582.964434	2528.047913
583.317837	2528.133613
583.671186	2527.848788
584.024481	2527.213602
584.377721	2527.700073
584.730906	2527.425331
585.084037	2529.063706
585.437113	2526.858201
585.790135	2528.748633
586.143103	2528.821730
586.496016	2526.086904
586.848874	2528.342821
587.201679	2526.291071
587.554428	2526.626308
587.907124	2526.091945
588.259765	2526.018849
588.612352	2527.463139
588.964884	2526.361647
589.317362	2528.529343
589.669786	2525.686133
590.022155	2525.134126
590.374470	2524.587161
590.726731	2524.687984
591.078937	2519.208250
591.431090	2526.454908
591.783188	2527.062367
592.135232	2523.697397
592.487222	2526.505320
592.839157	2524.640093
593.191038	2526.132275
593.542866	2526.936339
593.894639	2524.619928
594.246358	2523.959537
594.598022	2523.457943
594.949633	2524.423323
595.301190	2524.750998
595.652692	2520.836543
596.004141	2523.999867
596.355535	2526.459950
596.706876	2526.139836
597.058162	2521.232273
597.409395	2524.395597
597.760573	2522.137160
598.111698	2521.832170
598.462768	2522.754702
598.813785	2524.587161
599.164748	2519.717406
599.515657	2522.275792
599.866511	2519.934176
600.217312	2522.926101
600.568060	2521.577592
600.918753	2521.751512
601.269392	2523.846111
601.619978	2523.626821
601.970510	2522.981553
602.320988	2521.812006
602.671412	2523.117665
603.021783	2522.563138
603.372100	2525.628159
603.722363	2521.499454
604.072572	2522.739578
604.422728	2520.173631
604.772830	2521.358302
605.122878	2521.854856
605.472872	2520.420647
605.822813	2521.131450
606.172701	2520.624814
606.522534	2522.326203
606.872314	2525.444157
607.222041	2523.783097
607.571714	2519.951820
607.921333	2514.666170
608.270899	2520.276974
608.620411	2514.948475
608.969870	2523.891482
609.319276	2519.999711
609.668627	2523.233611
610.017926	2522.787469
610.367171	2520.057684
610.716362	2524.156142
611.065500	2523.026924
611.414585	2522.563138
611.763616	2524.559435
612.112594	2521.696059
612.461518	2521.257479
612.810389	2522.585823
613.159207	2523.712521
613.507971	2520.738240
613.856682	2523.788138
614.205340	2523.354599
614.553945	2525.953314
614.902496	2520.801254
615.250994	2523.092459
615.599439	2524.297295
615.947830	2521.663292
616.296169	2523.780576
616.644454	2523.883920
616.992686	2522.149763
617.340864	2522.595905
617.688990	2521.272602
618.037063	2523.326873
618.385082	2523.843591
618.733048	2524.899713
619.080961	2522.472397
619.428821	2524.463653
619.776628	2524.735875
620.124382	2522.502644
620.472083	2524.652696
620.819731	2526.525485
621.167326	2524.095648
621.514868	2525.595392
621.862357	2523.092459
622.209793	2524.723272
622.557176	2522.666481
622.904506	2520.743281
623.251783	2523.306708
623.599007	2520.990298
623.946179	2520.690349
624.293297	2522.084228
624.640363	2517.176665
624.987376	2517.693383
625.334336	2514.204905
625.681243	2516.939731
626.028097	2516.042405
626.374899	2519.324196
626.721647	2517.680780
627.068343	2519.765297
627.414987	2516.037364
627.761577	2518.303363
628.108115	2517.327899
628.454600	2518.177334
628.801032	2520.758405
629.147412	2518.298322
629.493739	2520.158507
629.840014	2517.297653
630.186236	2517.874865
630.532405	2516.654905
630.878521	2517.174144
631.224585	2516.198681
631.570597	2516.359998
631.916556	2515.014010
632.262462	2517.413599
632.608316	2518.295801
632.954117	2514.971160
633.299866	2514.628362
633.645562	2516.218846
633.991206	2516.884278
634.336797	2514.315810
634.682336	2515.129956
635.027823	2512.374966
635.373257	2514.393948
635.718639	2513.204236
636.063968	2515.623989
636.409245	2513.579802
636.754470	2512.342198
637.099642	2513.463855
637.444762	2508.742814
637.789829	2512.107785
638.134845	2511.215500
638.479808	2509.725839
638.824719	2513.915038
639.169577	2512.286746
639.514383	2510.844976
639.859137	2509.108298
640.203839	2512.934534
640.548489	2510.335819
640.893086	2509.549399
641.237632	2511.028978
641.582125	2511.928824
641.926566	2511.543175
642.270955	2508.019409
642.615292	2507.023781
642.959576	2508.364728
643.303809	2505.866836
643.647990	2511.328926
643.992118	2511.555778
644.336195	2511.432270
644.680219	2512.876561
645.024192	2511.591066
645.368112	2509.957732
645.711981	2511.659122
646.055797	2514.744308
646.399562	2509.584687
646.743274	2515.170286
647.086935	2511.548217
647.430544	2511.530573
647.774101	2511.147445
648.117606	2514.824967
648.461059	2512.725326
648.804460	2515.505522
649.147810	2515.656757
649.491108	2510.209790
649.834354	2510.318175
650.177548	2509.783813
650.520690	2510.290449
650.863781	2509.899759
651.206820	2511.810357
651.549807	2510.499657
651.892742	2508.120232
652.235626	2510.076200
652.578458	2508.054697
652.921238	2508.384892
653.263967	2507.830366
653.606644	2505.415653
653.949269	2509.844307
654.291843	2506.358349
654.634365	2505.821466
654.976836	2505.115704
655.319255	2506.159223
655.661622	2508.039573
656.003938	2509.375479
656.346203	2506.796929
656.688416	2506.502022
657.030577	2507.505211
657.372687	2506.174347
657.714746	2506.920437
658.056753	2509.955212
658.398708	2507.802639
658.740612	2507.474964
659.082465	2506.277690
659.424266	2505.231651
659.766016	2502.403563
660.107715	2505.811383
660.449362	2500.349293
660.790958	2508.349604
661.132503	2507.653925
661.473996	2506.287773
661.815438	2506.547392
662.156829	2502.905158
662.498168	2503.956239
662.839456	2507.361538
663.180693	2507.016219
663.521879	2505.312309
663.863013	2508.223576
664.204097	2506.940602
664.545129	2505.130828
664.886110	2507.588390
665.227040	2506.320540
665.567918	2508.639471
665.908746	2504.283914
666.249522	2506.723832
666.590248	2508.067300
666.930922	2507.797598
667.271545	2505.801301
667.612118	2506.202073
667.952639	2510.124091
668.293109	2508.052176
668.633528	2506.600324
668.973896	2507.464882
669.314213	2506.927999
669.654480	2503.492453
669.994695	2507.633761
670.334859	2507.205263
670.674973	2505.340036
671.015035	2506.829697
671.355047	2505.448420
671.695008	2505.977742
672.034918	2504.616630
672.374777	2506.108812
672.714585	2507.091837
673.054342	2505.564367
673.394049	2505.113184
673.733705	2507.626199
674.073310	2508.566374
674.412864	2507.066631
674.752368	2507.263236
675.091820	2508.962105
675.431223	2503.394150
675.770574	2506.257526
676.109875	2504.389778
676.449125	2505.471106
676.788324	2500.326608
677.127473	2501.972545
677.466571	2500.752586
677.805619	2504.939264
678.144616	2502.456496
678.483562	2504.477998
678.822458	2502.779129
679.161303	2506.005468
679.500098	2503.023625
679.838842	2503.865498
680.177535	2501.385250
680.516179	2502.378358
680.854771	2502.401043
681.193314	2505.861795
681.531805	2505.662669
681.870247	2508.001765
682.208638	2505.881960
682.546978	2507.714419
682.885268	2506.212155
683.223508	2507.774913
683.561697	2508.200890
683.899836	2508.533607
684.237925	2506.076044
684.575963	2506.902793
684.913951	2505.201404
685.251889	2506.799450
685.589776	2506.280211
685.927614	2506.083606
686.265401	2507.825324
686.603137	2504.798112
686.940824	2504.593945
687.278460	2507.331291
687.616046	2507.815242
687.953582	2506.255005
688.291068	2506.222237
688.628504	2506.980931
688.965889	2508.208452
689.303224	2509.708195
689.640510	2508.231137
689.977745	2508.266425
690.314930	2506.451610
690.652065	2504.467916
690.989150	2503.641167
691.326185	2502.325426
691.663170	2504.888852
692.000105	2503.005981
692.336990	2501.481032
692.673825	2503.621002
693.010610	2501.004643
693.347345	2499.000785
693.684030	2497.526247
694.020665	2497.004488
694.357251	2495.519868
694.693786	2497.528768
695.030272	2499.537668
695.366707	2498.539519
695.703093	2495.658500
696.039429	2498.206803
696.375716	2497.279231
696.711952	2499.658655
697.048139	2495.678664
697.384276	2500.147647
697.720363	2497.276710
698.056400	2496.170177
698.392388	2498.600013
698.728326	2500.485404
699.064214	2495.963489
699.400053	2498.365599
699.735842	2498.448778
700.071581	2496.906185
700.407270	2496.505413
700.742910	2495.940804
701.078501	2495.729076
701.414042	2494.224291
701.749533	2494.385608
702.084974	2494.758654
702.420366	2494.995588
702.755709	2494.877121
703.091002	2492.890906
703.426246	2494.378047
703.761440	2490.143477
704.096584	2493.906699
704.431679	2493.568941
704.766725	2491.423930
705.101721	2492.132213
705.436668	2492.464929
705.771565	2492.628766
706.106413	2494.557008
706.441212	2493.788232
706.775961	2491.295381
707.110661	2495.240084
707.445311	2493.510968
707.779913	2494.756133
708.114465	2491.930566
708.448967	2493.387460
708.783421	2494.551966
709.117825	2495.025835
709.452180	2495.086329
709.786485	2497.140599
710.120742	2496.054230
710.454949	2492.157418
710.789107	2493.770588
711.123216	2492.487614
711.457275	2499.935919
711.791286	2499.653614
712.125247	2501.067658
712.459159	2500.064468
712.793023	2498.864673
713.126837	2499.998933
713.460602	2500.941629
713.794318	2499.346104
714.127985	2499.073881
714.461602	2500.157729
714.795171	2500.220744
715.128691	2496.971720
715.462162	2497.702687
715.795584	2499.608244
716.128957	2494.854436
716.462281	2496.192862
716.795556	2495.981133
717.128782	2494.037769
717.461960	2495.053561
717.795088	2491.423930
718.128167	2496.765033
718.461198	2492.737151
718.794180	2495.003150
719.127113	2493.949548
719.459997	2492.321256
719.792833	2490.251862
720.125619	2491.255052
720.458357	2491.600371
720.791046	2491.025679
721.123686	2490.176245
721.456278	2489.339413
721.788821	2490.191368
722.121315	2489.949393
722.453761	2487.668271
722.786158	2489.558703
723.118506	2491.134064
723.450805	2487.219608
723.783056	2491.365957
724.115259	2489.354537
724.447412	2489.916625
724.779518	2487.910246
725.111574	2492.210350
725.443582	2488.263127
725.775542	2492.419558
726.107453	2490.894609
726.439315	2491.517192
726.771129	2495.287975
727.102895	2488.578199
727.434612	2489.440236
727.766281	2487.113744
728.097901	2491.456698
728.429473	2492.437202
728.760996	2496.044148
729.092471	2495.177069
729.423897	2495.618170
729.755276	2494.012563
730.086606	2493.604229
730.417887	2495.376195
730.749120	2495.729076
731.080305	2494.985506
731.411442	2494.100783
731.742530	2495.960969
732.073570	2496.402070
732.404562	2492.626246
732.735506	2496.313850
733.066401	2495.439209
733.397249	2497.352327
733.728048	2493.982316
734.058798	2496.066833
734.389501	2492.434682
734.720156	2496.455002
735.050762	2490.473673
735.381320	2493.198417
735.711831	2487.897643
736.042293	2490.559373
736.372707	2490.309835
736.703073	2491.489465
737.033391	2491.721358
737.363661	2490.264465
737.693883	2489.614156
738.024056	2489.102479
738.354182	2489.750267
738.684260	2490.203971
739.014290	2491.555000
739.344272	2494.735968
739.674207	2489.929228
740.004093	2494.141112
740.333931	2492.296050
740.663722	2494.476349
740.993464	2491.607933
741.323159	2493.236225
741.652806	2492.933756
741.982405	2490.292191
742.311956	2491.975937
742.641460	2493.347131
742.970915	2492.424599
743.300323	2492.633807
743.629683	2486.574340
743.958996	2486.576861
744.288260	2486.561737
744.617477	2489.407469
744.946647	2488.167345
745.275768	2490.045175
745.604842	2488.484938
745.933869	2489.503251
746.262847	2489.979640
746.591778	2489.654485
746.920662	2489.974599
747.249498	2489.094917
747.578286	2489.896461
747.907027	2488.767242
748.235720	2488.200113
748.564365	2491.673468
748.892963	2489.397387
749.221514	2489.437716
749.550017	2485.697180
749.878473	2491.499548
750.206881	2487.658188
750.535242	2488.850421
750.863555	2488.149701
751.191821	2490.012407
751.520039	2488.784886
751.848210	2490.168683
752.176334	2487.822026
752.504411	2487.154073
752.832440	2486.997797
753.160421	2487.653147
753.488356	2488.237921
753.816243	2489.941831
754.144082	2488.053919
754.471875	2488.205154
754.799620	2486.670122
755.127318	2485.810606
755.454969	2487.973261
755.782572	2484.817498
756.110129	2487.885040
756.437638	2486.445791
756.765100	2486.571820
757.092515	2488.600884
757.419882	2486.216418
757.747203	2487.101141
758.074477	2489.218426
758.401703	2486.357571
758.728882	2485.702221
759.056014	2490.287150
759.383099	2487.388487
759.710138	2487.262458
760.037129	2485.127529
760.364073	2486.924701
760.690970	2483.867241
761.017820	2489.407469
761.344623	2490.191368
761.671379	2490.463591
761.998088	2489.956955
762.324751	2492.633807
762.651366	2494.221771
762.977935	2500.490446
763.304456	2505.551764
763.630931	2507.595952
763.957359	2509.410767
764.283740	2504.767865
764.610074	2504.583862
764.936362	2499.545229
765.262602	2498.116062
765.588796	2496.812924
765.914943	2491.784373
766.241044	2489.830926
766.567097	2490.574496
766.893104	2489.732623
767.219064	2485.649289
767.544978	2488.061481
767.870845	2483.093424
768.196665	2485.671974
768.522438	2484.210039
768.848165	2485.800523
769.173846	2483.690800
769.499479	2485.276243
769.825066	2483.290029
770.150607	2487.040647
770.476101	2483.647951
770.801548	2483.448825
771.126949	2486.057622
771.452303	2483.879844
771.777611	2485.402272
772.102872	2480.872795
772.428087	2482.775831
772.753256	2481.450008
773.078378	2483.597539
773.403453	2481.969246
773.728482	2483.113588
774.053465	2481.331540
774.378401	2481.797847
774.703291	2481.621407
775.028135	2478.574029
775.352932	2479.710809
775.677683	2482.284318
776.002388	2480.625779
776.327046	2475.191415
776.651658	2481.298773
776.976224	2475.917341
777.300743	2482.932107
777.625216	2480.535038
777.949643	2478.879019
778.274024	2480.358598
778.598359	2478.730305
778.922647	2480.633341
779.246889	2480.492188
779.571086	2480.303145
779.895236	2479.415902
780.219339	2479.609986
780.543397	2480.953454
780.867409	2481.608804
781.191374	2478.304327
781.515294	2478.473206
781.839167	2480.464462
782.162995	2481.326499
782.486776	2479.304997
782.810511	2476.736529
783.134201	2479.783906
783.457844	2482.337251
783.781441	2480.159472
784.104993	2477.928762
784.428498	2480.411530
784.751958	2479.055459
785.075372	2479.050418
785.398739	2479.715851
785.722061	2480.272898
786.045337	2476.340798
786.368568	2479.196612
786.691752	2477.742239
787.014891	2480.204843
787.337983	2480.388845
787.661030	2481.548310
787.984031	2481.427322
788.306987	2486.589464
788.629897	2482.047384
788.952760	2484.754484
789.275579	2482.160810
789.598351	2483.342961
789.921078	2479.544451
790.243759	2482.732981
790.566395	2480.593011
790.888984	2481.094606
791.211529	2479.557054
791.534027	2479.138638
791.856480	2479.970429
792.178888	2475.682927
792.501249	2475.710654
792.823566	2475.703092
793.145836	2473.666466
793.468062	2479.057980
793.790241	2478.987404
794.112375	2477.921200
794.434464	2480.557723
794.756507	2480.595532
795.078505	2478.803402
795.400457	2480.071252
795.722364	2480.368680
796.044226	2479.592342
796.366042	2481.293732
796.687812	2480.348515
797.009538	2481.691983
797.331218	2482.473362
797.652852	2481.409678
797.974442	2480.966057
798.295986	2479.662918
798.617484	2479.428505
798.938938	2480.535038
799.260346	2481.041674
799.581709	2481.250882
799.903026	2482.594349
800.224299	2481.170223
800.545526	2480.494709
800.866708	2477.971611
801.187845	2481.079483
801.508936	2479.509163
801.829983	2477.207877
802.150984	2475.554378
802.471940	2483.259782
802.792851	2477.893473
803.113717	2478.480768
803.434538	2478.647126
803.755314	2477.051601
804.076045	2479.146200
804.396731	2478.785758
804.717372	2477.956488
805.037967	2478.463124
805.358518	2477.654019
805.679024	2479.209215
805.999485	2477.563278
806.319901	2477.467496
806.640272	2478.894143
806.960598	2478.132928
807.280879	2479.660398
807.601115	2480.182157
807.921306	2474.934316
808.241453	2477.192753
808.561554	2473.797536
808.881611	2478.475727
809.201623	2473.689151
809.521590	2477.550675
809.841513	2476.330716
810.161390	2479.247023
810.481223	2480.777013
810.801011	2479.163844
811.120755	2480.212404
811.440453	2479.428505
811.760107	2476.701241
812.079716	2478.339616
812.399281	2477.865747
812.718801	2477.996817
813.038276	2475.027578
813.357707	2481.124853
813.677093	2480.023361
813.996434	2477.268370
814.315731	2477.515387
814.634983	2477.911117
814.954191	2476.081179
815.273354	2479.105871
815.592473	2479.488999
815.911547	2480.875316
816.230577	2481.926397
816.549562	2478.642085
816.868502	2479.383134
817.187399	2480.567806
817.506250	2482.828763
817.825058	2481.311376
818.143821	2481.969246
818.462539	2483.017806
818.781213	2482.947230
819.099843	2482.740543
819.418429	2483.968064
819.736970	2486.599546
820.055466	2488.731954
820.373919	2492.374188
820.692327	2496.455002
821.010691	2504.427587
821.329011	2519.019207
821.647286	2549.049360
821.965517	2587.818354
822.283704	2611.955398
822.601847	2627.439302
822.919945	2614.705348
823.237999	2597.981320
823.556010	2583.490523
823.873976	2567.368913
824.191897	2550.155893
824.509775	2537.497556
824.827609	2527.989940
825.145398	2519.246058
825.463144	2519.001562
825.780845	2515.901253
826.098502	2520.874351
826.416116	2526.089425
826.733685	2535.032432
827.051210	2536.625436
827.368692	2535.692823
827.686129	2526.984230
828.003522	2521.184382
828.320872	2511.091992
828.638177	2503.961280
828.955439	2501.178563
829.272656	2494.713283
829.589830	2495.033397
829.906960	2486.244145
830.224046	2488.701707
830.541088	2486.473517
830.858086	2483.428660
831.175041	2486.997797
831.491952	2483.274905
831.808819	2483.244658
832.125642	2483.405975
832.442421	2487.532160
832.759157	2488.409320
833.075849	2492.346462
833.392497	2501.133193
833.709101	2506.945643
834.025662	2504.835920
834.342179	2503.749552
834.658653	2502.290137
834.975083	2498.163953
835.291469	2495.330825
835.607811	2490.148518
835.924110	2487.902684
836.240366	2486.342447
836.556578	2481.775162
836.872746	2480.053608
837.188871	2479.544451
837.504952	2480.313227
837.820990	2478.964719
838.136984	2475.120839
838.452935	2477.205356
838.768842	2478.400109
839.084706	2477.245685
839.400526	2480.749287
839.716303	2484.383959
840.032037	2485.714824
840.347727	2483.625265
840.663373	2484.240286
840.978977	2477.669142
841.294537	2480.479585
841.610054	2479.993114
841.925527	2477.643936
842.240957	2476.668473
842.556344	2477.401961
842.871687	2475.864409
843.186987	2473.306023
843.502244	2475.045222
843.817458	2473.306023
844.132629	2474.402474
844.447756	2473.023719
844.762840	2473.356435
845.077881	2475.430870
845.392879	2473.651342
845.707833	2473.805098
846.022745	2471.977679
846.337613	2472.691003
846.652438	2471.904583
846.967221	2472.055817
847.281960	2471.045066
847.596656	2471.337453
847.911309	2473.381641
848.225919	2472.978348
848.540485	2474.684779
848.855009	2473.290900
849.169490	2468.925261
849.483928	2472.408698
849.798323	2473.235447
850.112675	2470.074644
850.426984	2473.001034
850.741251	2467.919551
851.055474	2471.644963
851.369654	2471.718060
851.683792	2471.339973
851.997887	2473.618575
852.311938	2472.829634
852.625947	2472.322998
852.939914	2470.901393
853.253837	2470.253605
853.567718	2472.691003
853.881555	2472.123873
854.195350	2468.973152
854.509103	2471.513893
854.822812	2472.091105
855.136479	2472.975828
855.450103	2470.205714
855.763685	2469.560446
856.077224	2469.177318
856.390720	2470.823255
856.704173	2467.009622
857.017584	2472.121352
857.330953	2472.975828
857.644278	2471.382823
857.957561	2473.358956
858.270802	2471.866774
858.584000	2472.925416
858.897155	2473.520273
859.210268	2469.789819
859.523339	2473.810139
859.836367	2471.934830
860.149352	2470.679582
860.462295	2471.097998
860.775195	2472.265025
861.088054	2471.813842
861.400869	2471.287041
861.713642	2473.101857
862.026373	2471.612196
862.339062	2471.287041
862.651708	2473.437093
862.964312	2473.036322
863.276873	2469.648666
863.589392	2471.914665
863.901869	2470.019191
864.214303	2473.734522
864.526696	2474.195787
864.839045	2473.611013
865.151353	2473.043883
865.463619	2472.196970
865.775842	2476.633185
866.088023	2470.281331
866.400162	2470.661938
866.712258	2472.214614
867.024313	2471.962556
867.336325	2470.251084
867.648296	2473.903400
867.960224	2473.653863
868.272110	2474.573874
868.583954	2473.064048
868.895755	2472.363328
869.207515	2473.442135
869.519233	2472.169243
869.830909	2475.153606
870.142542	2473.003554
870.454134	2473.653863
870.765684	2477.744759
871.077191	2470.414922
871.388657	2471.110601
871.700081	2467.934674
872.011463	2473.144707
872.322803	2471.377782
872.634101	2473.278297
872.945357	2473.326188
873.256571	2474.866261
873.567744	2476.958339
873.878874	2475.516569
874.189963	2475.945067
874.501010	2474.001703
874.812015	2473.212762
875.122979	2473.333750
875.433900	2475.642598
875.744780	2476.970942
876.055618	2473.137145
876.366415	2475.461117
876.677169	2474.836014
876.987882	2475.927423
877.298554	2475.753504
877.609183	2473.427011
877.919771	2478.233751
878.230317	2477.084368
878.540822	2477.233082
878.851285	2478.707620
879.161707	2478.508494
879.472087	2480.227528
879.782425	2485.571151
880.092722	2492.976606
880.402977	2501.465909
880.713191	2512.206087
881.023363	2531.430527
881.333494	2544.076262
881.643583	2550.551624
881.953631	2550.334854
882.263637	2544.232537
882.573602	2537.996630
882.883526	2534.656866
883.193408	2528.703263
883.503248	2522.923580
883.813048	2518.164731
884.122806	2514.542662
884.432522	2509.998062
884.742197	2500.994561
885.051831	2500.119921
885.361424	2496.308808
885.670975	2490.516523
885.980485	2489.157932
886.289954	2485.021665
886.599382	2482.498568
886.908768	2480.887919
887.218113	2478.216107
887.527417	2476.701241
887.836680	2476.260140
888.145901	2477.643936
888.455082	2476.676035
888.764221	2479.068062
889.073319	2477.969091
889.382376	2474.155458
889.691392	2478.311889
890.000366	2476.998669
890.309300	2477.832980
890.618193	2473.076651
890.927044	2474.198308
891.235855	2473.618575
891.544625	2475.670325
891.853353	2474.369707
892.162041	2475.481281
892.470687	2473.449696
892.779293	2477.709471
893.087858	2476.108905
893.396381	2480.678711
893.704864	2483.360605
894.013306	2487.834629
894.321707	2490.022490
894.630068	2493.127840
894.938387	2495.666061
895.246665	2496.334014
895.554903	2492.084322
895.863100	2489.672129
896.171256	2491.156749
896.479371	2490.496358
896.787446	2489.107520
897.095480	2483.607621
897.403473	2484.605770
897.711425	2479.811633
898.019336	2482.551500
898.327207	2477.895994
898.635038	2479.274750
898.942827	2479.196612
899.250576	2475.894656
899.558284	2476.020685
899.865952	2477.895994
900.173579	2474.203349
900.481165	2475.730818
900.788711	2476.088740
901.096216	2474.987248
901.403681	2475.264512
901.711105	2472.895169
902.018489	2472.186887
902.325832	2472.186887
902.633135	2472.222175
902.940397	2475.786271
903.247619	2471.793677
903.554800	2483.458907
903.861941	2489.762870
904.169041	2498.166474
904.476101	2501.854078
904.783121	2499.018429
905.090100	2497.589262
905.397039	2495.842502
905.703938	2490.786224
906.010796	2494.236894
906.317614	2487.141470
906.624391	2486.221460
906.931129	2483.002683
907.237826	2484.177272
907.544483	2480.290542
907.851099	2478.450521
908.157675	2476.287866
908.464211	2476.877681
908.770707	2471.927268
909.077163	2473.797536
909.383578	2471.034984
909.689954	2472.222175
909.996289	2473.386682
910.302584	2470.916517
910.608839	2472.406178
910.915054	2469.966259
911.221229	2471.410550
911.527363	2469.268059
911.833458	2470.999696
912.139513	2470.944243
912.445527	2472.484315
912.751502	2471.995323
913.057436	2471.823924
913.363331	2473.132104
913.669186	2474.362145
913.975000	2473.497587
914.280775	2477.835500
914.586510	2478.407671
914.892205	2481.482775
915.197859	2486.866727
915.503475	2491.605412
915.809050	2495.169508
916.114585	2497.130517
916.420081	2497.223778
916.725536	2501.513800
917.030952	2501.871722
917.336328	2494.995588
917.641665	2493.049703
917.946961	2493.072388
918.252218	2489.485607
918.557435	2485.056953
918.862612	2490.866883
919.167750	2485.798003
919.472848	2482.745584
919.777906	2482.589308
920.082925	2482.584267
920.387904	2477.664101
920.692843	2478.720223
920.997743	2477.162506
921.302603	2475.713174
921.607423	2476.199646
921.912204	2473.984059
922.216946	2475.372897
922.521647	2472.837196
922.826310	2472.761579
923.130932	2471.009778
923.435516	2469.749489
923.740059	2470.672021
924.044564	2469.999027
924.349028	2470.074644
924.653454	2470.702267
924.957840	2467.826289
925.262186	2471.413070
925.566493	2471.402988
925.870761	2471.060189
926.174989	2468.947946
926.479178	2467.407873
926.783328	2469.966259
927.087438	2467.947277
927.391509	2470.127576
927.695541	2469.336115
927.999533	2468.058182
928.303486	2465.693881
928.607400	2467.178501
928.911275	2466.850826
929.215110	2468.320322
929.518906	2467.349900
929.822663	2467.828810
930.126381	2469.346197
930.430060	2468.705971
930.733699	2467.128089
931.037299	2468.484160
931.340861	2467.821248
931.644383	2467.644808
931.947866	2466.760085
932.251309	2466.747482
932.554714	2466.059365
932.858080	2466.077009
933.161407	2463.866463
933.464694	2467.564149
933.767943	2462.475104
934.071153	2467.914509
934.374323	2468.118676
934.677455	2466.974334
934.980548	2465.872842
935.283602	2468.572380
935.586617	2467.980044
935.889593	2465.522482
936.192530	2468.199335
936.495428	2467.453244
936.798287	2466.750003
937.101108	2467.362503
937.403890	2467.528861
937.706632	2466.949128
938.009336	2471.473564
938.312002	2470.112452
938.614628	2471.213945
938.917216	2468.481639
939.219765	2469.845271
939.522275	2471.065231
939.824747	2467.677575
940.127179	2468.539613
940.429573	2469.825107
940.731929	2470.477936
941.034246	2472.338122
941.336524	2469.129427
941.638763	2471.440797
941.940964	2469.278142
942.243126	2466.437451
942.545250	2470.813173
942.847335	2467.927112
943.149381	2469.552884
943.451389	2468.489201
943.753359	2470.160343
944.055290	2466.434931
944.357182	2469.295786
944.659036	2468.726135
944.960851	2468.786629
945.262628	2471.173615
945.564367	2470.304016
945.866067	2467.917030
946.167729	2467.420476
946.469352	2467.879221
946.770937	2470.432566
947.072484	2469.792339
947.373992	2469.462144
947.675462	2468.544654
947.976893	2466.172791
948.278286	2462.281020
948.579641	2466.797894
948.880958	2461.434106
949.182236	2468.383337
949.483476	2464.075671
949.784678	2466.656742
950.085841	2469.071454
950.386967	2466.757565
950.688054	2469.341156
950.989103	2469.494911
951.290114	2466.457616
951.591087	2468.781588
951.892021	2468.610189
952.192917	2469.283183
952.493776	2469.497432
952.794596	2470.596403
953.095378	2469.399129
953.396122	2469.378965
953.696828	2470.747638
953.997496	2469.071454
954.298126	2467.833851
954.598718	2467.458285
954.899272	2468.005250
955.199788	2467.037349
955.500266	2467.054993
955.800706	2465.585496
956.101108	2469.898203
956.401472	2465.945939
956.701798	2467.198666
957.002087	2466.349231
957.302337	2464.723459
957.602550	2465.310753
957.902724	2466.750003
958.202861	2465.164560
958.502960	2466.502986
958.803022	2468.554736
959.103045	2466.823100
959.403031	2467.085240
959.702979	2466.364355
960.002889	2463.619446
960.302762	2467.049952
960.602596	2465.497276
960.902393	2467.062554
961.202153	2464.743624
961.501875	2463.548870
961.801559	2465.078860
962.101205	2464.972996
962.400814	2466.989458
962.700385	2464.768829
962.999918	2460.960238
963.299414	2459.079887
963.598873	2464.650362
963.898293	2458.800103
964.197677	2465.444344
964.497022	2463.397636
964.796331	2464.431072
965.095601	2464.466360
965.394835	2464.342852
965.694030	2465.577935
965.993189	2465.358644
966.292309	2465.277986
966.591393	2465.025928
966.890439	2465.860239
967.189447	2464.025259
967.488419	2464.957873
967.787353	2463.558952
968.086249	2463.301854
968.385108	2462.091977
968.683930	2466.815538
968.982714	2463.831175
969.281462	2466.770167
969.580172	2465.714046
969.878844	2466.893676
970.177480	2466.608851
970.476078	2465.938377
970.774639	2465.358644
971.073162	2466.034159
971.371649	2463.248922
971.670098	2461.106431
971.968510	2464.456278
972.266885	2464.834364
972.565223	2465.608182
972.863524	2465.424179
973.161788	2464.592389
973.460014	2464.915023
973.758204	2465.308233
974.056356	2464.652883
974.354471	2467.395271
974.652550	2463.740434
974.950591	2464.925105
975.248595	2465.935857
975.546563	2468.501804
975.844493	2463.072481
976.142386	2466.175311
976.440243	2464.441154
976.738062	2464.000053
977.035845	2465.363686
977.333590	2465.212451
977.631299	2464.121041
977.928971	2464.083232
978.226606	2459.193313
978.524204	2464.660445
978.821765	2458.739609
979.119290	2463.984930
979.416777	2466.611371
979.714228	2465.421659
980.011642	2463.584158
980.309020	2465.058696
980.606360	2463.183387
980.903664	2466.782770
981.200931	2463.485856
981.498162	2464.715897
981.795356	2464.168932
982.092513	2464.194138
982.389633	2464.743624
982.686717	2465.439303
982.983764	2468.141361
983.280775	2467.135651
983.577749	2468.325363
983.874686	2469.338635
984.171587	2468.572380
984.468451	2466.550877
984.765279	2469.293265
985.062070	2470.488018
985.358824	2466.661783
985.655543	2467.894345
985.952224	2466.445013
986.248869	2464.753706
986.545478	2462.923767
986.842050	2466.087091
987.138586	2464.060547
987.435086	2463.664817
987.731549	2464.675568
988.027975	2465.240177
988.324366	2464.179014
988.620719	2466.336628
988.917037	2463.064919
989.213318	2465.154478
989.509563	2462.664148
989.805772	2463.458129
990.101944	2464.058027
990.398080	2465.328397
990.694180	2463.783284
990.990244	2465.774540
991.286271	2463.279168
991.582262	2464.226905
991.878217	2463.657255
992.174136	2464.168932
992.470019	2464.085753
992.765865	2463.135496
993.061676	2460.380505
993.357450	2462.543160
993.653188	2459.672223
993.948890	2463.511062
994.244556	2463.304374
994.540186	2466.339149
994.835780	2462.981740
995.131337	2463.195989
995.426859	2462.621298
995.722345	2465.696402
996.017795	2465.308233
996.313208	2465.124231
996.608586	2464.844447
996.903928	2467.606999
997.199234	2466.886114
997.494504	2467.002061
997.789738	2467.652369
998.084936	2464.867132
998.380099	2465.976186
998.675225	2466.397122
998.970316	2466.712194
999.265371	2465.000722
999.560390	2464.405866
999.855373	2466.293778
1000.150320	2464.448716
1000.445232	2462.754888
1000.740108	2463.551391
1001.034948	2463.836216
1001.329752	2462.986782
1001.624521	2462.822944
1001.919254	2462.530557
1002.213951	2465.540126
1002.508613	2460.385546
1002.803239	2462.706997
1003.097829	2462.457460
1003.392384	2462.507872
1003.686903	2462.666668
1003.981386	2466.419807
1004.275834	2463.243880
1004.570246	2464.738583
1004.864623	2464.133644
1005.158964	2464.423510
1005.453270	2462.921247
1005.747540	2462.959055
1006.041775	2464.191617
1006.335974	2463.213633
1006.630138	2461.688684
1006.924266	2463.619446
1007.218359	2463.909313
1007.512416	2462.359158
1007.806438	2460.693057
1008.100425	2458.976544
1008.394376	2459.478138
1008.688292	2463.926957
1008.982172	2462.465022
1009.276017	2461.691205
1009.569827	2462.409569
1009.863602	2463.047275
1010.157341	2460.975361
1010.451045	2465.013325
1010.744714	2463.445527
1011.038347	2461.429065
1011.331945	2462.157512
1011.625508	2461.786987
1011.919036	2460.751030
1012.212528	2463.586679
1012.505986	2463.435444
1012.799408	2462.714559
1013.092795	2464.085753
1013.386147	2464.612554
1013.679464	2465.023408
1013.972745	2462.870835
1014.265992	2462.086936
1014.559204	2460.080556
1014.852380	2461.567697
1015.145521	2465.232616
1015.438628	2463.138016
1015.731699	2462.684312
1016.024736	2460.844291
1016.317737	2464.995681
1016.610703	2461.323201
1016.903635	2463.503500
1017.196531	2461.585341
1017.489393	2463.511062
1017.782219	2462.142388
1018.075011	2464.100877
1018.367768	2461.789507
1018.660490	2462.550722
1018.953177	2462.550722
1019.245829	2462.550722
