Dividing Wavelength (nm)	Counts (n)	Blue Motor Position (mm): 0.000000	Red Motor Position (mm): 22.000000	
326.493990	2051.749615
326.888308	2051.749615
327.282561	2051.749615
327.676750	2026.924453
328.070874	2028.925791
328.464933	2034.234126
328.858929	2040.613707
329.252859	2053.277085
329.646726	2063.974413
330.040528	2079.211301
330.434265	2096.754516
330.827938	2118.123968
331.221547	2138.903604
331.615091	2160.754485
332.008571	2182.310459
332.401986	2200.609847
332.795338	2217.275902
333.188625	2240.250961
333.581847	2259.387181
333.975006	2276.338060
334.368100	2292.870524
334.761129	2310.824594
335.154095	2326.235401
335.546996	2342.954388
335.939833	2359.330576
336.332606	2372.273739
336.725315	2382.540048
337.117960	2394.570762
337.510540	2403.609551
337.903056	2412.189595
338.295508	2419.388362
338.687896	2428.719538
339.080220	2431.804724
339.472480	2435.595672
339.864676	2439.762186
340.256807	2442.819646
340.648875	2446.545058
341.040879	2447.689400
341.432818	2449.496654
341.824694	2450.865327
342.216506	2447.739812
342.608253	2448.821139
342.999937	2448.397682
343.391557	2447.875923
343.783113	2447.308793
344.174605	2446.683690
344.566033	2441.380396
344.957397	2442.718823
345.348697	2440.087340
345.739934	2438.106167
346.131106	2436.450148
346.522215	2436.361927
346.913260	2433.400250
347.304241	2431.711463
347.695159	2430.325146
348.086012	2428.580907
348.476802	2426.178797
348.867528	2426.050247
349.258191	2419.789134
349.648789	2418.672519
350.039324	2413.858217
350.429796	2419.128743
350.820203	2422.944897
351.210548	2421.825760
351.600828	2421.848446
351.991045	2418.685122
352.381198	2418.246541
352.771288	2417.465162
353.161314	2417.034144
353.551276	2419.292581
353.941175	2416.827456
354.331010	2418.138156
354.720782	2419.050605
355.110490	2417.087076
355.500135	2419.413568
355.889717	2420.021027
356.279235	2419.821902
356.668689	2422.506316
357.058080	2420.058836
357.447408	2420.242838
357.836672	2422.652510
358.225873	2419.315266
358.615010	2422.781059
359.004084	2421.881213
359.393095	2423.779208
359.782043	2424.858014
360.170927	2422.266861
360.559748	2426.327511
360.948505	2425.193251
361.337199	2426.582089
361.725830	2424.207706
362.114398	2429.732810
362.502903	2428.159970
362.891344	2428.550660
363.279722	2427.925557
363.668037	2429.823551
364.056289	2432.795311
364.444478	2431.628284
364.832603	2432.419745
365.220665	2432.288675
365.608665	2432.555856
365.996601	2430.211720
366.384474	2432.991916
366.772284	2430.841864
367.160031	2434.290013
367.547715	2432.754982
367.935336	2434.753799
368.322893	2432.507965
368.710388	2428.664086
369.097820	2432.954107
369.485189	2428.901020
369.872495	2438.053235
370.259738	2437.697833
370.646918	2438.040632
371.034035	2436.177925
371.421090	2439.920982
371.808081	2441.075406
372.195010	2442.575150
372.581875	2441.829059
372.968678	2444.452979
373.355418	2443.018771
373.742096	2447.800306
374.128710	2451.538321
374.515262	2454.885647
374.901751	2454.968826
375.288177	2455.122582
375.674540	2464.095835
376.060841	2463.995012
376.447079	2467.483491
376.833254	2475.763586
377.219367	2480.048567
377.605417	2483.700883
377.991404	2489.379743
378.377329	2497.375013
378.763191	2505.876918
379.148991	2513.408402
379.534727	2520.506347
379.920402	2529.409025
380.306013	2539.082999
380.691563	2555.814588
381.077049	2559.542522
381.462474	2572.808318
381.847835	2584.387848
382.233134	2600.451485
382.618371	2612.666201
383.003545	2629.022225
383.388657	2642.335912
383.773706	2660.821823
384.158693	2678.455779
384.543618	2695.794828
384.928480	2707.165150
385.313280	2733.295971
385.698017	2750.864392
386.082692	2771.601179
386.467305	2788.564662
386.851856	2813.548620
387.236344	2841.038032
387.620770	2856.224508
388.005133	2877.266284
388.389435	2912.360277
388.773674	2923.884354
389.157851	2960.795683
389.541965	2982.691934
389.926018	2998.417814
390.310008	3029.516692
390.693936	3054.152811
391.077802	3082.768921
391.461606	3110.502828
391.845348	3133.004019
392.229027	3160.034686
392.612645	3205.029504
392.996200	3231.109914
393.379694	3267.086108
393.763125	3311.894404
394.146494	3336.951459
394.529801	3375.138200
394.913047	3419.023964
395.296230	3424.342382
395.679351	3449.424643
396.062410	3501.441789
396.445408	3482.764314
396.828343	3522.743184
397.211217	3554.988925
397.594028	3529.974719
397.976778	3580.376176
398.359466	3607.676544
398.742092	3623.147845
399.124656	3630.964154
399.507158	3694.316335
399.889598	3701.104248
400.271977	3764.005246
400.654294	3753.572578
401.036549	3816.587001
401.418742	3815.946774
401.800874	3879.704767
402.182944	3910.254160
402.564952	3997.476204
402.946898	3989.276767
403.328783	3986.060511
403.710606	4034.780742
404.092367	4101.134930
404.474067	4166.720341
404.855705	4152.090913
405.237282	4127.480000
405.618797	4224.416347
406.000250	4298.203716
406.381642	4381.833938
406.762972	4380.417373
407.144240	4349.797405
407.525447	4416.721243
407.906593	4434.463584
408.287677	4518.446686
408.668700	4540.970562
409.049661	4584.649639
409.430560	4623.443838
409.811399	4600.473821
410.192176	4652.785874
410.572891	4737.416765
410.953545	4837.881920
411.334138	4740.723762
411.714669	4847.480277
412.095139	4758.516515
412.475547	4872.174369
412.855894	4876.852560
413.236180	4976.937108
413.616405	4901.826436
413.996568	5012.510010
414.376670	5011.713508
414.756711	5007.945245
415.136691	5075.642900
415.516609	5164.089944
415.896466	5198.843659
416.276262	5273.233446
416.655997	5388.622937
417.035670	5481.150795
417.415283	5618.844871
417.794834	5699.019382
418.174324	5657.301313
418.553753	5659.824411
418.933121	5827.672149
419.312428	5837.832594
419.691674	5759.477940
420.070859	5994.788919
420.449983	5867.184713
420.829045	6064.596297
421.208047	5987.360779
421.586988	6148.380274
421.965867	6220.637653
422.344686	6302.203522
422.723444	6470.792309
423.102141	6079.266055
423.480777	6471.649306
423.859352	6285.812210
424.237866	6650.043137
424.616319	6644.833105
424.994712	6798.661394
425.373044	6714.264917
425.751314	7025.694798
426.129524	6743.911943
426.507673	6997.088771
426.885762	7040.762807
427.263789	7073.522746
427.641756	7158.012484
428.019662	7230.577373
428.397508	7259.662310
428.775292	7228.709626
429.153016	7390.823051
429.530679	7308.193498
429.908282	7350.450970
430.285824	7284.429499
430.663305	7548.515384
431.040726	7421.264058
431.418086	7407.690752
431.795385	7526.036879
432.172624	7696.178342
432.549802	7557.902013
432.926920	7675.242430
433.303977	7590.830830
433.680974	7606.589477
434.057910	7782.404758
434.434786	7810.650343
434.811601	7746.504181
435.188355	8040.564767
435.565050	7904.524190
435.941683	7884.440233
436.318257	8168.080754
436.694770	8097.005526
437.071222	8271.570601
437.447614	8035.037142
437.823946	7969.671021
438.200218	8077.110612
438.576429	7930.622243
438.952580	8038.855816
439.328670	8013.221549
439.704700	8035.629478
440.080670	7907.311948
440.456580	8105.731763
440.832429	8040.539562
441.208218	7763.954135
441.583947	7826.580389
441.959616	7880.568627
442.335224	7861.490380
442.710773	7882.302783
443.086261	7977.008420
443.461689	7696.523661
443.837057	7780.463914
444.212365	7898.605875
444.587612	7836.100608
444.962800	7696.677417
445.337927	7738.392965
445.712995	7330.077147
446.088002	7782.261085
446.462949	7766.262984
446.837837	7692.324380
447.212664	7636.183570
447.587431	8152.526274
447.962139	8782.446173
448.336786	9357.016724
448.711374	9135.594123
449.085901	8241.595900
449.460369	8100.168850
449.834776	7854.578958
450.209124	8347.813012
450.583412	8150.834967
450.957640	8264.853264
451.331808	7918.954492
451.705917	7477.397307
452.079965	7310.567882
452.453954	7339.362952
452.827883	7216.096659
453.201752	7112.097655
453.575562	7027.197062
453.949311	7120.758357
454.323001	7059.783081
454.696632	6917.872079
455.070202	7115.467666
455.443713	7049.428551
455.817164	7026.032556
456.190556	7069.807415
456.563888	6913.801348
456.937160	6916.526091
457.310373	6591.152378
457.683526	6486.727397
458.056619	6389.216358
458.429653	6313.178114
458.802628	6262.164157
459.175542	6176.361198
459.548398	6261.166009
459.921194	6354.480287
460.293930	6353.093970
460.666607	6521.377768
461.039224	6671.954513
461.411782	6661.294993
461.784280	6439.411127
462.156719	6290.306399
462.529099	6139.028934
462.901419	5835.208674
463.273680	5598.511377
463.645882	5537.268920
464.018024	5394.198453
464.390106	5372.894537
464.762130	5504.763560
465.134094	5741.786011
465.505999	6122.619978
465.877845	6467.697041
466.249631	6574.577064
466.621358	6330.131514
466.993026	6016.259193
467.364634	5727.136418
467.736184	5451.037463
468.107674	5221.352411
468.479105	5080.973920
468.850477	4922.795116
469.221790	4753.044342
469.593043	4562.965116
469.964238	4409.202362
470.335373	4329.824353
470.706449	4315.693999
471.077467	4315.706602
471.448425	4476.602589
471.819324	4578.413732
472.190164	4485.285976
472.560945	4242.413266
472.931667	4017.416488
473.302330	3903.476328
473.672934	3786.768576
474.043479	3747.021598
474.413965	3667.673837
474.784393	3595.005604
475.154761	3575.642532
475.525070	3528.457332
475.895321	3464.036427
476.265513	3439.491049
476.635645	3415.661515
477.005719	3370.797766
477.375734	3338.307530
477.745691	3323.965447
478.115588	3302.832930
478.485427	3300.987868
478.855207	3327.547187
479.224928	3350.121474
479.594591	3355.331506
479.964194	3298.467291
480.333739	3268.926129
480.703226	3232.571848
481.072653	3213.632233
481.442022	3189.785055
481.811333	3163.848318
482.180584	3122.694859
482.549777	3087.386617
482.918912	3056.086093
483.287988	3033.211858
483.657005	3006.080368
484.025964	2975.364617
484.394864	2960.851135
484.763706	2938.518824
485.132489	2913.567633
485.501213	2899.401991
485.869879	2882.756101
486.238487	2870.634646
486.607036	2858.228367
486.975527	2846.747139
487.343959	2838.686334
487.712333	2830.189469
488.080648	2820.180258
488.448905	2817.231183
488.817104	2804.522434
489.185244	2803.710808
489.553326	2804.605613
489.921350	2818.551965
490.289315	2834.902948
490.657222	2836.458144
491.025070	2832.702484
491.392861	2825.533963
491.760593	2807.511838
492.128267	2793.946093
492.495883	2779.929165
492.863440	2764.891403
493.230939	2753.097624
493.598380	2740.822414
493.965763	2739.113463
494.333088	2724.584857
494.700354	2721.424054
495.067563	2714.424412
495.434713	2710.888042
495.801805	2708.949719
496.168839	2703.596013
496.535815	2700.268852
496.902733	2697.387832
497.269593	2691.552697
497.636395	2691.035979
498.003139	2687.943231
498.369825	2684.603466
498.736453	2684.074145
499.103023	2680.562982
499.469535	2678.160872
499.835989	2674.740449
500.202385	2669.467402
500.568723	2666.984634
500.935003	2666.268790
501.301226	2664.426248
501.667390	2668.456651
502.033497	2672.655932
502.399546	2665.167298
502.765537	2660.978099
503.131470	2660.733603
503.497345	2660.887358
503.863163	2655.672284
504.228923	2656.501554
504.594625	2664.252328
504.960269	2655.148004
505.325856	2659.243942
505.691385	2655.389980
506.056856	2655.258910
506.422270	2655.621873
506.787625	2652.282108
507.152924	2652.730771
507.518164	2652.095586
507.883347	2647.314051
508.248472	2649.327992
508.613540	2652.468631
508.978550	2653.131543
509.343503	2647.971922
509.708398	2649.973260
510.073236	2650.774803
510.438016	2650.648775
510.802738	2646.633496
511.167403	2648.037457
511.532010	2649.484268
511.896561	2654.200267
512.261053	2654.038951
512.625488	2654.961482
512.989866	2651.989722
513.354186	2651.929228
513.718449	2652.342602
514.082655	2655.019455
514.446803	2648.614669
514.810894	2655.379897
515.174927	2652.864362
515.538904	2652.299752
515.902822	2653.691111
516.266684	2652.387973
516.630488	2653.310504
516.994235	2652.771100
517.357925	2652.846718
517.721558	2654.394352
518.085133	2653.580206
518.448651	2654.197747
518.812112	2652.355205
519.175516	2651.662047
519.538863	2650.447128
519.902152	2656.269661
520.265385	2657.376194
520.628560	2658.177738
520.991678	2654.225473
521.354739	2656.735968
521.717743	2655.712614
522.080690	2654.812768
522.443580	2657.386277
522.806413	2656.423416
523.169189	2654.870741
523.531908	2656.889723
523.894569	2657.862666
524.257174	2658.238232
524.619722	2659.639672
524.982213	2658.107162
525.344647	2658.896102
525.707025	2654.701862
526.069345	2658.313849
526.431608	2656.209167
526.793815	2659.916936
527.155964	2654.653971
527.518057	2656.425937
527.880093	2654.422078
528.242072	2653.060967
528.603995	2657.845022
528.965860	2653.081131
529.327669	2652.453508
529.689421	2649.000317
530.051117	2653.111378
530.412755	2651.445277
530.774337	2652.836635
531.135862	2650.263126
531.497331	2650.580719
531.858743	2646.734319
532.220098	2651.783034
532.581396	2649.053249
532.942638	2645.045532
533.303824	2648.024854
533.664953	2644.047384
534.026025	2643.923875
534.387040	2642.683752
534.747999	2645.690800
535.108902	2646.328506
535.469748	2641.584780
535.830537	2642.593011
536.191270	2641.690644
536.551947	2637.922382
536.912567	2636.387350
537.273131	2636.964562
537.633638	2633.687812
537.994089	2636.377268
538.354483	2637.425828
538.714821	2637.335087
539.075103	2638.786940
539.435328	2636.561270
539.795497	2636.122690
540.155609	2636.636887
540.515665	2637.007412
540.875665	2637.894655
541.235609	2633.440796
541.595496	2635.842906
541.955328	2635.623616
542.315102	2634.438944
542.674821	2632.591362
543.034483	2633.196300
543.394090	2631.376443
543.753640	2630.169087
544.113134	2632.606485
544.472571	2631.318470
544.831953	2633.362658
545.191278	2631.701598
545.550548	2629.899385
545.909761	2631.290744
546.268918	2630.239663
546.628019	2633.395426
546.987064	2630.872328
547.346053	2624.941411
547.704986	2631.767133
548.063863	2627.789663
548.422684	2626.685650
548.781449	2627.724127
549.140158	2626.864611
549.498811	2628.195475
549.857408	2624.331431
550.215949	2629.727986
550.574434	2628.750002
550.932864	2625.304374
551.291237	2625.995012
551.649555	2627.890486
552.007817	2627.222533
552.366022	2627.260341
552.724173	2625.279168
553.082267	2627.063736
553.440305	2630.229581
553.798288	2625.962244
554.156215	2628.422327
554.514086	2625.536267
554.871902	2622.519136
555.229661	2624.419651
555.587365	2622.120885
555.945014	2627.638428
556.302606	2623.739095
556.660143	2627.530043
557.017625	2629.937194
557.375050	2624.502830
557.732421	2628.099693
558.089735	2628.760085
558.446994	2627.822430
558.804197	2629.586834
559.161345	2628.873511
559.518437	2627.945938
559.875474	2626.216822
560.232455	2630.126237
560.589381	2625.387553
560.946251	2629.745630
561.303065	2628.694550
561.659825	2628.485342
562.016528	2624.840587
562.373177	2627.837553
562.729770	2629.123048
563.086307	2629.889303
563.442789	2626.176493
563.799216	2626.332769
564.155587	2628.876031
564.511904	2629.289406
564.868164	2629.173459
565.224370	2629.670013
565.580520	2626.340331
565.936615	2629.367544
566.292654	2626.075670
566.648638	2626.723458
567.004567	2627.598099
567.360441	2628.722276
567.716260	2627.986267
568.072023	2629.105404
568.427732	2628.742441
568.783385	2629.954838
569.138982	2629.259159
569.494525	2629.105404
569.850013	2627.479632
570.205445	2628.729838
570.560823	2623.872686
570.916145	2626.700773
571.271412	2625.627007
571.626625	2626.574744
571.981782	2628.301340
572.336884	2624.921246
572.691931	2623.177007
573.046923	2622.294805
573.401860	2620.507716
573.756743	2625.526184
574.111570	2627.262862
574.466342	2625.069960
574.821059	2625.281688
575.175722	2624.308746
575.530330	2624.296143
575.884882	2624.021400
576.239380	2620.769856
576.593823	2624.270937
576.948211	2622.733385
577.302544	2620.401852
577.656823	2621.208436
578.011047	2622.362860
578.365216	2620.679115
578.719330	2621.382356
579.073389	2618.266923
579.427394	2618.219032
579.781344	2617.606532
580.135239	2617.089813
580.489080	2617.432612
580.842866	2615.756428
581.196597	2618.019906
581.550273	2618.652571
581.903895	2616.048815
582.257463	2618.385390
582.610975	2618.312293
582.964434	2620.956378
583.317837	2616.724330
583.671186	2615.300204
584.024481	2615.592591
584.377721	2614.423043
584.730906	2615.993362
585.084037	2616.091665
585.437113	2614.259206
585.790135	2615.821963
586.143103	2611.257198
586.496016	2613.876078
586.848874	2615.453959
587.201679	2616.575616
587.554428	2613.122425
587.907124	2611.663011
588.259765	2612.729215
588.612352	2610.712754
588.964884	2610.856427
589.317362	2612.850203
589.669786	2611.594956
590.022155	2609.943978
590.374470	2610.518669
590.726731	2609.752414
591.078937	2604.091198
591.431090	2610.327106
591.783188	2610.037239
592.135232	2608.870212
592.487222	2609.192846
592.839157	2607.567074
593.191038	2607.947681
593.542866	2610.803495
593.894639	2603.040118
594.246358	2606.826024
594.598022	2604.224789
594.949633	2606.483226
595.301190	2604.459202
595.652692	2605.101950
596.004141	2604.123966
596.355535	2602.949377
596.706876	2601.668924
597.058162	2599.874273
597.409395	2604.048348
597.760573	2605.359048
598.111698	2601.600868
598.462768	2602.725046
598.813785	2600.469129
599.164748	2600.433841
599.515657	2600.824531
599.866511	2598.729931
600.217312	2600.070878
600.568060	2596.804210
600.918753	2600.267483
601.269392	2601.177411
601.619978	2598.558532
601.970510	2601.626074
602.320988	2601.522730
602.671412	2599.667586
603.021783	2599.402925
603.372100	2599.349993
603.722363	2597.484766
604.072572	2597.588110
604.422728	2597.550301
604.772830	2595.155753
605.122878	2599.400405
605.472872	2598.024170
605.822813	2599.775971
606.172701	2598.969386
606.522534	2598.926536
606.872314	2600.345621
607.222041	2598.840837
607.571714	2598.084663
607.921333	2589.655854
608.270899	2594.245825
608.620411	2594.258428
608.969870	2596.776484
609.319276	2596.290013
609.668627	2596.020311
610.017926	2598.445106
610.367171	2601.154726
610.716362	2598.079622
611.065500	2598.573655
611.414585	2599.339911
611.763616	2598.130034
612.112594	2596.355548
612.461518	2600.151537
612.810389	2599.700353
613.159207	2598.629108
613.507971	2597.875456
613.856682	2598.646752
614.205340	2600.212030
614.553945	2603.957608
614.902496	2598.888727
615.250994	2598.866042
615.599439	2599.997781
615.947830	2599.448296
616.296169	2600.136413
616.644454	2600.481732
616.992686	2600.622884
617.340864	2602.316712
617.688990	2603.418204
618.037063	2598.896289
618.385082	2601.127000
618.733048	2604.192021
619.080961	2601.038780
619.428821	2602.979624
619.776628	2601.144644
620.124382	2598.714808
620.472083	2601.444592
620.819731	2603.715632
621.167326	2599.791094
621.514868	2597.993923
621.862357	2598.150198
622.209793	2599.594489
622.557176	2595.816144
622.904506	2599.400405
623.251783	2594.180290
623.599007	2596.773963
623.946179	2595.674992
624.293297	2594.364292
624.640363	2593.270362
624.987376	2590.505289
625.334336	2589.159301
625.681243	2588.176276
626.028097	2582.482292
626.374899	2587.974629
626.721647	2586.459763
627.068343	2589.018148
627.414987	2587.561255
627.761577	2585.925400
628.108115	2585.469176
628.454600	2585.234762
628.801032	2587.072263
629.147412	2584.360122
629.493739	2585.249886
629.840014	2583.818198
630.186236	2580.440625
630.532405	2581.660584
630.878521	2582.169741
631.224585	2583.011613
631.570597	2580.778382
631.916556	2582.943558
632.262462	2581.262333
632.608316	2580.352405
632.954117	2582.938517
633.299866	2581.385841
633.645562	2580.433063
633.991206	2581.186716
634.336797	2579.414750
634.682336	2580.876685
635.027823	2574.058524
635.373257	2575.233113
635.718639	2574.683627
636.063968	2574.630695
636.409245	2572.483164
636.754470	2571.003585
637.099642	2571.215313
637.444762	2571.485015
637.789829	2571.202711
638.134845	2572.410067
638.479808	2570.706157
638.824719	2570.368400
639.169577	2568.866136
639.514383	2568.808163
639.859137	2565.070147
640.203839	2567.361351
640.548489	2567.731876
640.893086	2565.526371
641.237632	2565.952349
641.582125	2568.011660
641.926566	2566.421176
642.270955	2562.599982
642.615292	2561.576627
642.959576	2564.901268
643.303809	2559.441699
643.647990	2563.756926
643.992118	2564.326577
644.336195	2567.610888
644.680219	2564.170301
645.024192	2565.977555
645.368112	2565.995199
645.711981	2565.352452
646.055797	2569.559294
646.399562	2566.857236
646.743274	2567.999057
647.086935	2568.944274
647.430544	2569.667679
647.774101	2571.212793
648.117606	2571.358986
648.461059	2569.987793
648.804460	2573.032649
649.147810	2567.598286
649.491108	2569.337484
649.834354	2567.540312
650.177548	2565.183573
650.520690	2564.064437
650.863781	2560.858263
651.206820	2565.405384
651.549807	2563.245249
651.892742	2560.782646
652.235626	2562.806669
652.578458	2562.138716
652.921238	2559.431616
653.263967	2561.211144
653.606644	2556.895916
653.949269	2558.572100
654.291843	2555.128992
654.634365	2558.269630
654.976836	2554.148487
655.319255	2558.282233
655.661622	2554.120761
656.003938	2559.900444
656.346203	2556.323745
656.688416	2559.061092
657.030577	2558.430947
657.372687	2556.245607
657.714746	2555.794424
658.056753	2555.965823
658.398708	2554.007335
658.740612	2556.031358
659.082465	2552.958775
659.424266	2551.075904
659.766016	2553.009186
660.107715	2553.982129
660.449362	2548.580533
660.790958	2553.750236
661.132503	2554.095555
661.473996	2554.965154
661.815438	2555.706204
662.156829	2557.309291
662.498168	2552.454659
662.839456	2553.775442
663.180693	2554.695452
663.521879	2557.175700
663.863013	2552.822664
664.204097	2555.648230
664.545129	2553.795606
664.886110	2557.314332
665.227040	2556.343910
665.567918	2556.298539
665.908746	2553.374670
666.249522	2558.350289
666.590248	2556.240566
666.930922	2556.966492
667.271545	2557.057233
667.612118	2555.633107
667.952639	2555.562531
668.293109	2554.962633
668.633528	2555.040771
668.973896	2558.367933
669.314213	2556.253169
669.654480	2554.022458
669.994695	2556.661502
670.334859	2554.876934
670.674973	2555.509599
671.015035	2555.207129
671.355047	2556.454815
671.695008	2555.123950
672.034918	2552.419371
672.374777	2553.354505
672.714585	2554.619835
673.054342	2553.961964
673.394049	2555.423899
673.733705	2554.579506
674.073310	2553.175544
674.412864	2552.968857
674.752368	2551.683363
675.091820	2554.435833
675.431223	2553.311656
675.770574	2552.308466
676.109875	2550.503733
676.449125	2549.404761
676.788324	2547.698331
677.127473	2545.878474
677.466571	2545.805378
677.805619	2549.553475
678.144616	2550.934752
678.483562	2547.161448
678.822458	2547.834442
679.161303	2547.564740
679.500098	2546.362425
679.838842	2545.228165
680.177535	2548.590615
680.516179	2548.847714
680.854771	2548.240255
681.193314	2546.911911
681.531805	2552.058929
681.870247	2550.017262
682.208638	2554.299722
682.546978	2558.168807
682.885268	2556.651420
683.223508	2556.207798
683.561697	2553.944320
683.899836	2554.705535
684.237925	2552.888199
684.575963	2553.573796
684.913951	2556.958930
685.251889	2551.191850
685.589776	2552.225287
685.927614	2552.184958
686.265401	2551.595143
686.603137	2553.578837
686.940824	2554.758467
687.278460	2557.906667
687.616046	2555.378529
687.953582	2552.749567
688.291068	2554.007335
688.628504	2556.636297
688.965889	2556.227963
689.303224	2557.309291
689.640510	2556.432130
689.977745	2555.315514
690.314930	2552.583209
690.652065	2552.005997
690.989150	2551.983312
691.326185	2549.190512
691.663170	2545.568443
692.000105	2544.630789
692.336990	2545.616334
692.673825	2544.630789
693.010610	2540.492001
693.347345	2537.288348
693.684030	2534.097298
694.020665	2536.015457
694.357251	2528.514220
694.693786	2533.648635
695.030272	2533.366330
695.366707	2531.680064
695.703093	2531.070085
696.039429	2532.380785
696.375716	2530.533202
696.711952	2532.090918
697.048139	2530.268541
697.384276	2529.812317
697.720363	2530.157636
698.056400	2530.286185
698.392388	2530.921371
698.728326	2529.686288
699.064214	2528.688140
699.400053	2530.802904
699.735842	2528.224353
700.071581	2528.909950
700.407270	2526.081863
700.742910	2528.814168
701.078501	2524.204033
701.414042	2529.076308
701.749533	2523.780576
702.084974	2524.362830
702.420366	2523.528519
702.755709	2525.350896
703.091002	2520.413086
703.426246	2521.275123
703.761440	2521.320493
704.096584	2521.643127
704.431679	2522.578261
704.766725	2521.398631
705.101721	2519.742612
705.436668	2519.787983
705.771565	2520.208919
706.106413	2523.185720
706.441212	2523.289064
706.775961	2521.628004
707.110661	2520.541635
707.445311	2522.583302
707.779913	2523.442819
708.114465	2522.749660
708.448967	2526.215454
708.783421	2526.984230
709.117825	2526.270906
709.452180	2528.241997
709.786485	2529.482121
710.120742	2527.984899
710.454949	2522.656399
710.789107	2528.718387
711.123216	2527.576565
711.457275	2535.055117
711.791286	2534.074613
712.125247	2536.993441
712.459159	2534.016639
712.793023	2537.472350
713.126837	2536.244829
713.460602	2537.273225
713.794318	2538.384799
714.127985	2532.920188
714.461602	2531.927081
714.795171	2531.672503
715.128691	2528.889786
715.462162	2530.507996
715.795584	2528.100845
716.128957	2525.706297
716.462281	2524.808972
716.795556	2526.943900
717.128782	2525.005577
717.461960	2521.388549
717.795088	2521.307890
718.128167	2522.721934
718.461198	2517.784124
718.794180	2519.470390
719.127113	2515.976870
719.459997	2518.116840
719.792833	2516.982580
720.125619	2516.337313
720.458357	2516.833866
720.791046	2514.956037
721.123686	2516.664988
721.456278	2515.003927
721.788821	2516.521315
722.121315	2512.004441
722.453761	2513.536952
722.786158	2515.034174
723.118506	2513.970491
723.450805	2516.964936
723.783056	2514.963598
724.115259	2515.255985
724.447412	2513.433608
724.779518	2513.486540
725.111574	2516.831346
725.443582	2515.087107
725.775542	2516.957375
726.107453	2514.605676
726.439315	2515.142559
726.771129	2517.022910
727.102895	2512.957219
727.434612	2515.921418
727.766281	2513.476458
728.097901	2520.753363
728.429473	2521.035668
728.760996	2523.420134
729.092471	2519.102386
729.423897	2520.337468
729.755276	2520.002232
730.086606	2520.687828
730.417887	2523.883920
730.749120	2525.436595
731.080305	2522.986595
731.411442	2524.826616
731.742530	2526.780063
732.073570	2526.974147
732.404562	2529.729138
732.735506	2528.809127
733.066401	2526.528005
733.397249	2528.282327
733.728048	2525.280320
734.058798	2522.381656
734.389501	2519.341840
734.720156	2520.619773
735.050762	2515.457631
735.381320	2516.042405
735.711831	2514.474606
736.042293	2514.444359
736.372707	2514.963598
736.703073	2512.952178
737.033391	2515.359329
737.363661	2514.257837
737.693883	2516.062570
738.024056	2515.354288
738.354182	2515.515605
738.684260	2516.085255
739.014290	2518.356295
739.344272	2516.725482
739.674207	2519.319155
740.004093	2517.867303
740.333931	2520.034999
740.663722	2518.701614
740.993464	2518.615914
741.323159	2520.271933
741.652806	2516.415451
741.982405	2516.995183
742.311956	2515.941582
742.641460	2516.949813
742.970915	2515.954185
743.300323	2510.353463
743.629683	2509.420850
743.958996	2510.464368
744.288260	2507.568226
744.617477	2513.720954
744.946647	2512.879081
745.275768	2513.005110
745.604842	2507.583349
745.933869	2511.641478
746.262847	2509.251971
746.591778	2510.449245
746.920662	2508.253823
747.249498	2508.563853
747.578286	2508.571415
747.907027	2508.783144
748.235720	2512.075017
748.564365	2512.682476
748.892963	2509.393123
749.221514	2513.128618
749.550017	2508.417660
749.878473	2509.965294
750.206881	2507.996724
750.535242	2509.453617
750.863555	2507.084275
751.191821	2508.750376
751.520039	2509.463699
751.848210	2508.573936
752.176334	2509.970335
752.504411	2510.517301
752.832440	2507.890859
753.160421	2507.996724
753.488356	2507.880777
753.816243	2508.420181
754.144082	2508.891528
754.471875	2506.796929
754.799620	2507.986641
755.127318	2507.948833
755.454969	2506.988493
755.782572	2505.884480
756.110129	2503.784840
756.437638	2508.190808
756.765100	2507.485047
757.092515	2504.861126
757.419882	2504.268790
757.747203	2504.251146
758.074477	2508.999913
758.401703	2510.229955
758.728882	2509.017557
759.056014	2505.541682
759.383099	2507.288442
759.710138	2505.876918
760.037129	2502.774088
760.364073	2505.844151
760.690970	2507.701816
761.017820	2508.790705
761.344623	2511.591066
761.671379	2511.704492
761.998088	2511.321365
762.324751	2519.109947
762.651366	2527.563962
762.977935	2539.768596
763.304456	2550.591953
763.630931	2559.996226
763.957359	2554.153528
764.283740	2548.492312
764.610074	2542.248843
764.936362	2535.178625
765.262602	2528.496576
765.588796	2522.863086
765.914943	2519.793024
766.241044	2511.880933
766.567097	2509.463699
766.893104	2509.330109
767.219064	2508.886487
767.544978	2504.437669
767.870845	2503.452123
768.196665	2501.876763
768.522438	2501.223933
768.848165	2499.454488
769.173846	2499.020949
769.499479	2498.826865
769.825066	2498.385764
770.150607	2498.995743
770.476101	2495.668582
770.801548	2498.196721
771.126949	2497.017091
771.452303	2495.051041
771.777611	2495.832419
772.102872	2495.053561
772.428087	2496.754951
772.753256	2499.139416
773.078378	2492.422079
773.403453	2493.687408
773.728482	2491.741523
774.053465	2493.679847
774.378401	2491.086173
774.703291	2493.500886
775.028135	2491.398725
775.352932	2493.831081
775.677683	2489.813282
776.002388	2491.686070
776.327046	2489.309166
776.651658	2487.065853
776.976224	2485.984525
777.300743	2491.580206
777.625216	2488.966368
777.949643	2489.475524
778.274024	2490.493837
778.598359	2489.546101
778.922647	2489.357057
779.246889	2490.438385
779.571086	2492.023828
779.895236	2490.642552
780.219339	2489.669609
780.543397	2489.848570
780.867409	2490.307315
781.191374	2489.904023
781.515294	2489.760350
781.839167	2492.038951
782.162995	2489.490648
782.486776	2493.629435
782.810511	2489.218426
783.134201	2491.020638
783.457844	2491.756647
783.781441	2490.299753
784.104993	2489.528457
784.428498	2487.408651
784.751958	2486.775987
785.075372	2489.707418
785.398739	2486.874289
785.722061	2488.041316
786.045337	2490.755978
786.368568	2490.355206
786.691752	2489.324290
787.014891	2490.783704
787.337983	2493.241266
787.661030	2492.964003
787.984031	2493.760505
788.306987	2497.682523
788.629897	2497.359889
788.952760	2499.134375
789.275579	2495.184631
789.598351	2497.455671
789.921078	2496.029024
790.243759	2496.180259
790.566395	2490.135916
790.888984	2494.199086
791.211529	2490.188848
791.534027	2491.618015
791.856480	2487.900164
792.178888	2487.811944
792.501249	2485.762715
792.823566	2488.227839
793.145836	2486.236583
793.468062	2490.075422
793.790241	2486.904536
794.112375	2492.369147
794.434464	2488.114413
794.756507	2488.817654
795.078505	2490.080463
795.400457	2493.606750
795.722364	2491.262613
796.044226	2492.684219
796.366042	2495.817296
796.687812	2494.428458
797.009538	2492.437202
797.331218	2493.594147
797.652852	2494.776298
797.974442	2493.198417
798.295986	2496.250835
798.617484	2490.904692
798.938938	2493.069867
799.260346	2491.698673
799.581709	2491.663385
799.903026	2488.616008
800.224299	2490.650113
800.545526	2490.977788
800.866708	2490.564414
801.187845	2489.929228
801.508936	2488.973930
801.829983	2491.139105
802.150984	2488.343785
802.471940	2489.772952
802.792851	2484.668784
803.113717	2489.409989
803.434538	2484.948568
803.755314	2489.538539
804.076045	2488.797489
804.396731	2489.367140
804.717372	2483.771459
805.037967	2489.120123
805.358518	2486.070225
805.679024	2488.414362
805.999485	2487.963178
806.319901	2484.341109
806.640272	2488.724393
806.960598	2488.658858
807.280879	2487.572489
807.601115	2488.575678
807.921306	2484.509988
808.241453	2488.772283
808.561554	2485.024186
808.881611	2486.115595
809.201623	2482.579226
809.521590	2486.793631
809.841513	2487.932931
810.161390	2490.428303
810.481223	2487.239773
810.801011	2487.350678
811.120755	2487.685915
811.440453	2487.978302
811.760107	2488.368991
812.079716	2491.267655
812.399281	2485.072077
812.718801	2488.928559
813.038276	2486.087869
813.357707	2486.266830
813.677093	2486.743219
813.996434	2487.506954
814.315731	2487.567448
814.634983	2484.943527
814.954191	2486.796151
815.273354	2489.709938
815.592473	2488.285812
815.911547	2491.401245
816.230577	2490.327479
816.549562	2490.869403
816.868502	2487.796820
817.187399	2492.275885
817.506250	2490.403097
817.825058	2491.476863
818.143821	2492.079280
818.462539	2496.225629
818.781213	2497.085146
819.099843	2498.156391
819.418429	2500.858450
819.736970	2507.353977
820.055466	2510.451766
820.373919	2517.017868
820.692327	2529.769467
821.010691	2545.709596
821.329011	2579.407188
821.647286	2642.093937
821.965517	2712.856613
822.283704	2767.437186
822.601847	2798.284006
822.919945	2776.735594
823.237999	2748.575709
823.556010	2712.939792
823.873976	2677.376972
824.191897	2647.707261
824.509775	2617.152828
824.827609	2599.531475
825.145398	2579.155131
825.463144	2577.173957
825.780845	2569.105591
826.098502	2576.949626
826.416116	2588.330031
826.733685	2609.855758
827.051210	2617.185595
827.368692	2612.696448
827.686129	2599.523913
828.003522	2580.294432
828.320872	2563.492266
828.638177	2550.206305
828.955439	2535.849099
829.272656	2526.338962
829.589830	2518.696573
829.906960	2512.805984
830.224046	2507.245592
830.541088	2504.866167
830.858086	2499.885507
831.175041	2499.404077
831.491952	2498.612616
831.808819	2499.323418
832.125642	2497.939622
832.442421	2500.061948
832.759157	2507.795077
833.075849	2522.358971
833.392497	2536.073430
833.709101	2551.804351
834.025662	2551.275029
834.342179	2547.373176
834.658653	2533.898172
834.975083	2528.420958
835.291469	2521.380987
835.607811	2513.670542
835.924110	2505.536641
836.240366	2502.186794
836.556578	2497.652276
836.872746	2493.647079
837.188871	2493.538694
837.504952	2492.616163
837.820990	2489.689773
838.136984	2488.679022
838.452935	2483.370687
838.768842	2487.827067
839.084706	2486.168528
839.400526	2492.278406
839.716303	2502.128821
840.032037	2504.707371
840.347727	2503.711743
840.663373	2501.581855
840.978977	2491.292860
841.294537	2495.081288
841.610054	2489.105000
841.925527	2489.732623
842.240957	2483.484113
842.556344	2486.062663
842.871687	2482.362456
843.186987	2485.593836
843.502244	2479.741056
843.817458	2478.879019
844.132629	2479.846921
844.447756	2479.189050
844.762840	2474.974645
845.077881	2478.432877
845.392879	2476.088740
845.707833	2476.343319
846.022745	2475.398102
846.337613	2477.596045
846.652438	2474.687300
846.967221	2476.434059
847.281960	2476.436580
847.596656	2474.190746
847.911309	2474.783082
848.225919	2474.586477
848.540485	2476.734008
848.855009	2475.330047
849.169490	2472.128914
849.483928	2473.701754
849.798323	2473.225365
850.112675	2475.113277
850.426984	2476.108905
850.741251	2474.389872
851.055474	2474.747793
851.369654	2476.040849
851.683792	2473.474902
851.997887	2473.822742
852.311938	2473.714357
852.625947	2473.696713
852.939914	2474.470530
853.253837	2475.776189
853.567718	2473.490026
853.881555	2477.805253
854.195350	2475.398102
854.509103	2476.025726
854.822812	2471.947432
855.136479	2476.809625
855.450103	2477.543113
855.763685	2474.362145
856.077224	2469.688996
856.390720	2471.836527
856.704173	2468.554736
857.017584	2476.073617
857.330953	2475.355252
857.644278	2474.379789
857.957561	2478.238793
858.270802	2475.375417
858.584000	2474.518421
858.897155	2475.980356
859.210268	2476.731488
859.523339	2476.481950
859.836367	2474.074799
860.149352	2473.870633
860.462295	2472.827114
860.775195	2475.945068
861.088054	2475.640078
861.400869	2474.576394
861.713642	2476.239975
862.026373	2477.464975
862.339062	2474.410036
862.651708	2476.048411
862.964312	2476.524800
863.276873	2475.181333
863.589392	2476.098823
863.901869	2476.096302
864.214303	2475.629995
864.526696	2477.517907
864.839045	2474.195787
865.151353	2478.604276
865.463619	2475.395582
865.775842	2478.206025
866.088023	2477.737198
866.400162	2475.758545
866.712258	2472.943060
867.024313	2478.672332
867.336325	2475.498925
867.648296	2477.051601
867.960224	2476.401292
868.272110	2477.520428
868.583954	2476.958339
868.895755	2478.357260
869.207515	2477.349029
869.519233	2479.405820
869.830909	2477.386838
870.142542	2477.071765
870.454134	2476.920531
870.765684	2477.989255
871.077191	2479.143680
871.388657	2476.580253
871.700081	2473.754686
872.011463	2476.517238
872.322803	2474.611682
872.634101	2478.737867
872.945357	2477.459934
873.256571	2481.699545
873.567744	2478.256437
873.878874	2479.826756
874.189963	2479.806591
874.501010	2481.457569
874.812015	2482.846407
875.122979	2482.223825
875.433900	2481.485296
875.744780	2479.652836
876.055618	2480.666108
876.366415	2482.695173
876.677169	2482.322127
876.987882	2482.864051
877.298554	2484.058805
877.609183	2483.123671
877.919771	2485.314052
878.230317	2484.918321
878.540822	2487.491830
878.851285	2487.522077
879.161707	2493.664723
879.472087	2495.661020
879.782425	2502.872391
880.092722	2518.101717
880.402977	2539.468647
880.713191	2573.340160
881.023363	2603.163626
881.333494	2623.844960
881.643583	2637.335087
881.953631	2637.650159
882.263637	2629.851494
882.573602	2621.604167
882.883526	2610.511108
883.193408	2596.290013
883.503248	2585.398600
883.813048	2573.085582
884.122806	2563.031000
884.432522	2551.655637
884.742197	2544.366128
885.051831	2530.838192
885.361424	2524.204033
885.670975	2516.191119
885.980485	2510.666015
886.289954	2504.185611
886.599382	2502.408605
886.908768	2495.555156
887.218113	2491.650782
887.527417	2487.121306
887.836680	2485.432519
888.145901	2488.956286
888.455082	2488.835298
888.764221	2487.375884
889.073319	2484.767087
889.382376	2483.269864
889.691392	2487.257417
890.000366	2482.740543
890.309300	2482.617035
890.618193	2483.902529
890.927044	2484.096613
891.235855	2483.043012
891.544625	2485.319093
891.853353	2486.150883
892.162041	2485.245996
892.470687	2484.920842
892.779293	2487.872438
893.087858	2489.508292
893.396381	2495.245125
893.704864	2501.211331
894.013306	2509.972856
894.321707	2516.148269
894.630068	2524.246883
894.938387	2525.645803
895.246665	2524.761081
895.554903	2522.555576
895.863100	2517.799247
896.171256	2512.516118
896.479371	2510.587877
896.787446	2507.303565
897.095480	2503.827689
897.403473	2500.828203
897.711425	2496.883500
898.019336	2496.613798
898.327207	2496.666730
898.635038	2493.236225
898.942827	2486.700369
899.250576	2486.826398
899.558284	2487.519557
899.865952	2484.807416
900.173579	2483.232055
900.481165	2483.095944
900.788711	2483.421099
901.096216	2479.877167
901.403681	2482.443115
901.711105	2483.736171
902.018489	2481.334061
902.325832	2480.305666
902.633135	2476.882722
902.940397	2481.200470
903.247619	2483.085862
903.554800	2502.151506
903.861941	2515.129956
904.169041	2531.138140
904.476101	2536.713657
904.783121	2538.467978
905.090100	2531.276772
905.397039	2525.892820
905.703938	2518.744464
906.010796	2514.043588
906.317614	2511.291118
906.624391	2504.876249
906.931129	2502.917761
907.237826	2498.721001
907.544483	2493.566421
907.851099	2492.217912
908.157675	2487.771614
908.464211	2481.762559
908.770707	2481.346664
909.077163	2480.126705
909.383578	2478.001858
909.689954	2477.689307
909.996289	2476.676035
910.302584	2474.276446
910.608839	2474.725108
910.915054	2475.962712
911.221229	2474.273925
911.527363	2478.979842
911.833458	2475.657722
912.139513	2474.765438
912.445527	2476.918010
912.751502	2475.456076
913.057436	2478.495891
913.363331	2477.263329
913.669186	2479.385655
913.975000	2481.132415
914.280775	2487.968219
914.586510	2488.401759
914.892205	2496.308808
915.197859	2504.972031
915.503475	2516.107940
915.809050	2528.000022
916.114585	2531.541433
916.420081	2537.875643
916.725536	2535.531506
917.030952	2533.174767
917.336328	2532.015301
917.641665	2525.061029
917.946961	2521.577592
918.252218	2519.553569
918.557435	2508.727691
918.862612	2511.147445
919.167750	2507.792557
919.472848	2505.256857
919.777906	2501.793584
920.082925	2496.331494
920.387904	2491.693632
920.692843	2489.619197
920.997743	2489.299084
921.302603	2488.084166
921.607423	2484.026037
921.912204	2482.475882
922.216946	2480.313227
922.521647	2481.717189
922.826310	2480.018320
923.130932	2479.118474
923.435516	2477.238123
923.740059	2475.559419
924.044564	2476.857516
924.349028	2473.830303
924.653454	2476.323154
924.957840	2476.124028
925.262186	2473.996662
925.566493	2473.457258
925.870761	2471.667648
926.174989	2470.404839
926.479178	2473.389202
926.783328	2468.141361
927.087438	2468.988275
927.391509	2471.990282
927.695541	2468.073306
927.999533	2471.813842
928.303486	2467.813686
928.607400	2468.801753
928.911275	2470.545992
929.215110	2469.247895
929.518906	2468.786629
929.822663	2470.921558
930.126381	2470.117494
930.430060	2469.537761
930.733699	2466.472739
931.037299	2470.840899
931.340861	2466.124900
931.644383	2473.414408
931.947866	2470.442648
932.251309	2468.620271
932.554714	2469.504993
932.858080	2468.605147
933.161407	2464.138685
933.464694	2466.215641
933.767943	2464.826803
934.071153	2468.206896
934.374323	2469.583131
934.677455	2468.348049
934.980548	2468.055662
935.283602	2466.361834
935.586617	2470.576239
935.889593	2466.145064
936.192530	2469.883080
936.495428	2467.702781
936.798287	2469.174798
937.101108	2468.204376
937.403890	2470.132617
937.706632	2470.263687
938.009336	2469.807463
938.312002	2471.249233
938.614628	2471.077833
938.917216	2472.282669
939.219765	2473.056486
939.522275	2474.074799
939.824747	2473.497587
940.127179	2472.088585
940.429573	2474.548668
940.731929	2473.830303
941.034246	2474.430201
941.336524	2472.713688
941.638763	2473.033801
941.940964	2477.575881
942.243126	2472.393575
942.545250	2474.576394
942.847335	2472.083544
943.149381	2473.164871
943.451389	2470.079685
943.753359	2469.237812
944.055290	2470.261167
944.357182	2469.242853
944.659036	2472.857361
944.960851	2469.094139
945.262628	2468.055662
945.564367	2471.561784
945.866067	2472.627988
946.167729	2469.961218
946.469352	2470.765282
946.770937	2469.343677
947.072484	2468.496763
947.373992	2473.956332
947.675462	2469.154633
947.976893	2466.132462
948.278286	2464.751185
948.579641	2465.018367
948.880958	2464.259673
949.182236	2468.723615
949.483476	2468.650518
949.784678	2466.918882
950.085841	2469.741928
950.386967	2470.329222
950.688054	2470.246043
950.989103	2467.478450
951.290114	2469.530199
951.591087	2466.356793
951.892021	2468.191773
952.192917	2470.351907
952.493776	2471.279480
952.794596	2470.382154
953.095378	2472.000365
953.396122	2469.764613
953.696828	2472.194449
953.997496	2470.321660
954.298126	2469.986424
954.598718	2468.859726
954.899272	2469.842751
955.199788	2471.206383
955.500266	2468.791670
955.800706	2467.110445
956.101108	2470.359469
956.401472	2470.384675
956.701798	2469.268059
957.002087	2467.685137
957.302337	2466.984417
957.602550	2468.068265
957.902724	2467.632205
958.202861	2467.405353
958.502960	2464.955352
958.803022	2465.149437
959.103045	2468.327884
959.403031	2465.167081
959.702979	2464.040383
960.002889	2464.728500
960.302762	2466.008953
960.602596	2465.184725
960.902393	2465.270424
961.202153	2467.002061
961.501875	2463.783284
961.801559	2467.115487
962.101205	2466.452575
962.400814	2464.690692
962.700385	2464.035342
962.999918	2462.028962
963.299414	2458.535443
963.598873	2462.459981
963.898293	2457.282716
964.197677	2463.294292
964.497022	2464.496607
964.796331	2464.058027
965.095601	2465.227574
965.394835	2465.943418
965.694030	2464.685650
965.993189	2465.441823
966.292309	2466.082050
966.591393	2462.649024
966.890439	2462.205403
967.189447	2465.703963
967.488419	2462.722121
967.787353	2464.620115
968.086249	2464.156329
968.385108	2462.477625
968.683930	2464.463840
968.982714	2464.035342
969.281462	2464.695733
969.580172	2465.071299
969.878844	2462.865794
970.177480	2466.906279
970.476078	2465.605661
970.774639	2465.774540
971.073162	2464.675568
971.371649	2465.376288
971.670098	2463.705146
971.968510	2465.073819
972.266885	2465.630867
972.565223	2463.236319
972.863524	2463.296813
973.161788	2462.911164
973.460014	2464.393263
973.758204	2465.789663
974.056356	2466.533233
974.354471	2463.591720
974.652550	2461.388736
974.950591	2463.654734
975.248595	2464.625157
975.546563	2464.821762
975.844493	2464.393263
976.142386	2465.434262
976.440243	2464.373099
976.738062	2464.173973
977.035845	2463.289251
977.333590	2461.797069
977.631299	2462.681792
977.928971	2463.896710
978.226606	2458.865638
978.524204	2462.417131
978.821765	2461.875207
979.119290	2463.138016
979.416777	2462.414611
979.714228	2464.305043
980.011642	2464.063068
980.309020	2462.248253
980.606360	2461.693726
980.903664	2463.551391
981.200931	2467.206227
981.498162	2464.463840
981.795356	2464.998202
982.092513	2468.103553
982.389633	2467.722946
982.686717	2470.515745
982.983764	2472.106229
983.280775	2474.422639
983.577749	2472.270066
983.874686	2474.687300
984.171587	2469.162195
984.468451	2469.008440
984.765279	2469.391567
985.062070	2470.535909
985.358824	2472.045735
985.655543	2468.877370
985.952224	2468.211937
986.248869	2468.295117
986.545478	2469.048769
986.842050	2465.300671
987.138586	2465.295630
987.435086	2463.397636
987.731549	2465.671196
988.027975	2464.219344
988.324366	2462.417131
988.620719	2461.565176
988.917037	2461.965948
989.213318	2464.214303
989.509563	2460.814044
989.805772	2460.688015
990.101944	2462.991823
990.398080	2462.170115
990.694180	2461.794549
990.990244	2461.721452
991.286271	2462.056689
991.582262	2460.922429
991.878217	2460.730865
992.174136	2463.823613
992.470019	2462.996864
992.765865	2461.010649
993.061676	2455.959413
993.357450	2460.393108
993.653188	2459.246245
993.948890	2463.324539
994.244556	2465.353603
994.540186	2464.002574
994.835780	2461.355968
995.131337	2464.758747
995.426859	2464.302523
995.722345	2468.816876
996.017795	2464.418469
996.313208	2467.238995
996.608586	2466.276134
996.903928	2467.175980
997.199234	2469.134469
997.494504	2467.422997
997.789738	2468.675724
998.084936	2468.960549
998.380099	2465.958542
998.675225	2466.291258
998.970316	2463.634570
999.265371	2466.618933
999.560390	2463.682461
999.855373	2463.347224
1000.150320	2462.054168
1000.445232	2461.751699
1000.740108	2462.407049
1001.034948	2462.414611
1001.329752	2460.468725
1001.624521	2461.045937
1001.919254	2462.575928
1002.213951	2463.052317
1002.508613	2461.925619
1002.803239	2462.545681
1003.097829	2462.790177
1003.392384	2463.521144
1003.686903	2458.636266
1003.981386	2460.549384
1004.275834	2463.029631
1004.570246	2464.476442
1004.864623	2461.391256
1005.158964	2463.112810
1005.453270	2460.438478
1005.747540	2462.714559
1006.041775	2460.488890
1006.335974	2460.592233
1006.630138	2460.856894
1006.924266	2461.106431
1007.218359	2460.342696
1007.512416	2458.492593
1007.806438	2456.466049
1008.100425	2460.254476
1008.394376	2457.345730
1008.688292	2462.717080
1008.982172	2459.430247
1009.276017	2461.156843
1009.569827	2460.713221
1009.863602	2462.091977
1010.157341	2462.681792
1010.451045	2463.024590
1010.744714	2461.144240
1011.038347	2461.764302
1011.331945	2461.817234
1011.625508	2461.779425
1011.919036	2459.210957
1012.212528	2460.589713
1012.505986	2460.549384
1012.799408	2461.018211
1013.092795	2460.201544
1013.386147	2462.938891
1013.679464	2463.785804
1013.972745	2460.844291
1014.265992	2461.870166
1014.559204	2463.125413
1014.852380	2461.623149
1015.145521	2459.553756
1015.438628	2459.248766
1015.731699	2462.800259
1016.024736	2458.341358
1016.317737	2461.978551
1016.610703	2461.265227
1016.903635	2460.015021
1017.196531	2459.367233
1017.489393	2458.298508
1017.782219	2461.955866
1018.075011	2461.827316
1018.367768	2462.278499
1018.660490	2460.146091
1018.953177	2460.146091
1019.245829	2460.146091
