Dividing Wavelength (nm)	Counts (n)	Blue Motor Position (mm): 0.000000	Red Motor Position (mm): 36.500000	
326.493990	2053.743392
326.888308	2053.743392
327.282561	2053.743392
327.676750	2028.164577
328.070874	2030.894362
328.464933	2034.115659
328.858929	2044.150076
329.252859	2057.040306
329.646726	2066.512634
330.040528	2082.921590
330.434265	2100.159816
330.827938	2121.327621
331.221547	2141.222534
331.615091	2161.407314
332.008571	2181.183761
332.401986	2203.294262
332.795338	2224.308312
333.188625	2243.121898
333.581847	2261.002870
333.975006	2279.400561
334.368100	2297.843623
334.761129	2314.154276
335.154095	2330.762357
335.546996	2356.252952
335.939833	2392.861811
336.332606	2405.573080
336.725315	2418.725451
337.117960	2429.337080
337.510540	2436.808070
337.903056	2447.830552
338.295508	2456.087963
338.687896	2461.277830
339.080220	2468.211937
339.472480	2468.852164
339.864676	2474.727629
340.256807	2477.028916
340.648875	2479.756180
341.040879	2479.546972
341.432818	2480.335913
341.824694	2482.594349
342.216506	2485.054432
342.608253	2484.212560
342.999937	2479.995635
343.391557	2485.528301
343.783113	2481.515542
344.174605	2479.267188
344.566033	2478.664770
344.957397	2477.016313
345.348697	2474.004223
345.739934	2471.836527
346.131106	2470.165385
346.522215	2469.845271
346.913260	2469.225209
347.304241	2464.534416
347.695159	2463.067440
348.086012	2463.379992
348.476802	2462.386884
348.867528	2458.278344
349.258191	2455.016717
349.648789	2455.137705
350.039324	2454.210133
350.429796	2457.738940
350.820203	2454.232818
351.210548	2454.447067
351.600828	2455.724999
351.991045	2452.102930
352.381198	2453.605194
352.771288	2454.313476
353.161314	2454.726851
353.551276	2456.587037
353.941175	2454.195009
354.331010	2454.832715
354.720782	2455.803137
355.110490	2454.341203
355.500135	2454.406738
355.889717	2455.752726
356.279235	2453.970678
356.668689	2455.679629
357.058080	2456.271965
357.447408	2458.600978
357.836672	2458.479990
358.225873	2456.760957
358.615010	2456.720627
359.004084	2458.268262
359.393095	2458.568210
359.782043	2461.161884
360.170927	2459.783128
360.559748	2463.211113
360.948505	2461.892851
361.337199	2464.922585
361.725830	2463.271607
362.114398	2464.814200
362.502903	2463.725311
362.891344	2466.540795
363.279722	2464.673047
363.668037	2468.915178
364.056289	2462.792697
364.444478	2466.661783
364.832603	2464.153809
365.220665	2469.371403
365.608665	2468.411063
365.996601	2470.319140
366.384474	2468.887452
366.772284	2470.659418
367.160031	2469.918368
367.547715	2470.765282
367.935336	2470.188070
368.322893	2470.795529
368.710388	2468.721094
369.097820	2469.126907
369.485189	2469.288224
369.872495	2471.624799
370.259738	2473.679069
370.646918	2475.914821
371.034035	2475.990438
371.421090	2474.316775
371.808081	2479.214256
372.195010	2479.736015
372.581875	2480.643423
372.968678	2483.350523
373.355418	2483.048053
373.742096	2484.628455
374.128710	2485.283805
374.515262	2490.471152
374.901751	2489.291522
375.288177	2494.383088
375.674540	2498.791577
376.060841	2503.005981
376.447079	2507.356497
376.833254	2513.075686
377.219367	2515.629031
377.605417	2525.323169
377.991404	2531.223840
378.377329	2533.436907
378.763191	2542.475695
379.148991	2551.078424
379.534727	2562.715928
379.920402	2569.312278
380.306013	2579.485326
380.691563	2590.321287
381.077049	2598.729931
381.462474	2611.582353
381.847835	2624.394445
382.233134	2638.698719
382.618371	2648.332364
383.003545	2665.880621
383.388657	2678.828825
383.773706	2696.971937
384.158693	2711.462734
384.543618	2728.416134
384.928480	2744.386510
385.313280	2763.815117
385.698017	2782.454783
386.082692	2808.709112
386.467305	2825.909529
386.851856	2847.649505
387.236344	2876.545399
387.620770	2891.225239
388.005133	2911.326840
388.389435	2945.352108
388.773674	2957.382822
389.157851	2990.397338
389.541965	3017.783406
389.926018	3031.276055
390.310008	3063.751168
390.693936	3089.942482
391.077802	3118.644292
391.461606	3147.880464
391.845348	3163.462670
392.229027	3195.771425
392.612645	3235.195769
392.996200	3265.556118
393.379694	3301.580203
393.763125	3345.712985
394.146494	3373.008312
394.529801	3406.663055
394.913047	3449.724591
395.296230	3458.057619
395.679351	3480.314313
396.062410	3531.255172
396.445408	3511.181298
396.828343	3551.780230
397.211217	3585.523194
397.594028	3556.428174
397.976778	3607.953808
398.359466	3637.288282
398.742092	3650.889315
399.124656	3667.474711
399.507158	3721.430181
399.889598	3732.689598
400.271977	3795.172179
400.654294	3780.857823
401.036549	3841.139941
401.418742	3840.960980
401.800874	3911.451434
402.182944	3936.455557
402.564952	4022.598794
402.946898	4017.769368
403.328783	4012.241743
403.710606	4059.454670
404.092367	4135.203047
404.474067	4196.866441
404.855705	4178.067978
405.237282	4156.171727
405.618797	4250.847117
406.000250	4324.994928
406.381642	4410.344183
406.762972	4408.269748
407.144240	4374.299933
407.525447	4440.454995
407.906593	4457.337819
408.287677	4547.279566
408.668700	4567.829829
409.049661	4610.858598
409.430560	4642.317918
409.811399	4626.876864
410.192176	4680.870142
410.572891	4758.327471
410.953545	4865.872927
411.334138	4761.919293
411.714669	4872.413824
412.095139	4783.676913
412.475547	4902.058329
412.855894	4901.960027
413.236180	5001.686653
413.616405	4930.049336
413.996568	5032.225963
414.376670	5032.903998
414.756711	5032.430129
415.136691	5101.347744
415.516609	5187.052400
415.896466	5223.573039
416.276262	5299.036592
416.655997	5409.705042
417.035670	5505.676008
417.415283	5644.748840
417.794834	5722.735490
418.174324	5676.596330
418.553753	5681.753430
418.933121	5846.576476
419.312428	5860.558116
419.691674	5783.925016
420.070859	6014.308267
420.449983	5889.953084
420.829045	6077.625159
421.208047	6004.215877
421.586988	6166.016751
421.965867	6239.640282
422.344686	6322.567263
422.723444	6491.788715
423.102141	6108.618173
423.480777	6499.854561
423.859352	6312.240459
424.237866	6679.047416
424.616319	6672.345202
424.994712	6836.797723
425.373044	6749.106852
425.751314	7064.552012
426.129524	6787.112110
426.507673	7047.462501
426.885762	7094.569563
427.263789	7137.608414
427.641756	7217.641772
428.019662	7299.174874
428.397508	7344.141966
428.775292	7321.862587
429.153016	7492.624112
429.530679	7426.007784
429.908282	7478.314797
430.285824	7422.375633
430.663305	7710.502781
431.040726	7591.319822
431.418086	7592.035666
431.795385	7725.391829
432.172624	7917.069101
432.549802	7800.890669
432.926920	7932.177439
433.303977	7876.117288
433.680974	7914.992146
434.057910	8121.762632
434.434786	8171.281887
434.811601	8135.918192
435.188355	8467.300961
435.565050	8352.707972
435.941683	8366.500569
436.318257	8699.524233
436.694770	8654.902460
437.071222	8878.616265
437.447614	8662.476794
437.823946	8629.323646
438.200218	8775.333105
438.576429	8656.382039
438.952580	8823.483686
439.328670	8824.965785
439.704700	8902.113083
440.080670	8795.374212
440.456580	9070.855626
440.832429	9049.057677
441.208218	8785.785937
441.583947	8897.830623
441.959616	9017.827728
442.335224	9045.899394
442.710773	9130.043813
443.086261	9309.219024
443.461689	9031.269965
443.837057	9196.093011
444.212365	9415.625178
444.587612	9393.839832
444.962800	9290.733113
445.337927	9424.326210
445.712995	8964.215057
446.088002	9636.095001
446.462949	9692.898722
446.837837	9687.807157
447.212664	9707.563439
447.587431	10530.584736
447.962139	11536.448684
448.336786	12475.071201
448.711374	12261.908531
449.085901	11051.625795
449.460369	10976.542850
449.834776	10749.774106
450.209124	11665.739157
450.583412	11477.809982
450.957640	11805.336268
451.331808	11396.644885
451.705917	10823.362349
452.079965	10700.625376
452.453954	10898.518391
452.827883	10841.218116
453.201752	10813.736266
453.575562	10819.919241
453.949311	11165.079483
454.323001	11227.514173
454.696632	11149.091463
455.070202	11742.949469
455.443713	11790.588373
455.817164	11964.177985
456.190556	12269.896239
456.563888	12143.282619
456.937160	12410.131057
457.310373	11900.656926
457.683526	11906.711352
458.056619	11924.189032
458.429653	11995.244095
458.802628	12133.008748
459.175542	12187.518744
459.548398	12723.194272
459.921194	13304.033498
460.293930	13585.876848
460.666607	14442.018526
461.039224	15238.586369
461.411782	15593.712972
461.784280	15267.197438
462.156719	15228.113372
462.529099	15131.492097
462.901419	14494.769160
463.273680	14085.460235
463.645882	14296.563594
464.018024	14180.924566
464.390106	14555.182348
464.762130	15601.559528
465.134094	17135.010473
465.505999	19412.722247
465.877845	21683.484792
466.249631	22951.687865
466.621358	22498.785562
466.993026	21703.508255
467.364634	20959.222218
467.736184	20161.452061
468.107674	19543.580519
468.479105	19403.590197
468.850477	19121.462022
469.221790	18697.695068
469.593043	18026.616668
469.964238	17633.701576
470.335373	17692.849434
470.706449	18411.284433
471.077467	19253.711652
471.448425	21727.766287
471.819324	23606.979891
472.190164	23539.433471
472.560945	21794.599384
472.931667	20207.230779
473.302330	19875.353977
473.672934	19315.352361
474.043479	19737.468337
474.413965	19521.769967
474.784393	19335.098560
475.154761	20010.593011
475.525070	20145.111160
475.895321	19976.834924
476.265513	20507.494505
476.635645	21098.531984
477.005719	21169.473622
477.375734	21532.809744
477.745691	22168.305160
478.115588	22798.053660
478.485427	23995.894828
478.855207	25798.682020
479.224928	27599.793028
479.594591	29060.116994
479.964194	28699.646768
480.333739	29180.567804
480.703226	29395.691483
481.072653	29839.915439
481.442022	30366.486643
481.811333	30774.855393
482.180584	30326.419552
482.549777	30120.004467
482.918912	29882.165349
483.287988	29826.022019
483.657005	29670.625931
484.025964	29309.603698
484.394864	29508.625932
484.763706	29436.096331
485.132489	28890.789678
485.501213	28967.821029
485.869879	29139.134560
486.238487	29079.724562
486.607036	29349.766571
486.975527	29030.386790
487.343959	29374.309428
487.712333	29730.320754
488.080648	29690.447748
488.448905	30127.598965
488.817104	30002.321251
489.185244	30833.829331
489.553326	31778.327313
489.921350	33676.727549
490.289315	36194.458741
490.657222	37125.622870
491.025070	37713.998621
491.392861	37453.870041
491.760593	36684.174069
492.128267	35688.483170
492.495883	34703.726534
492.863440	33800.820592
493.230939	32811.221927
493.598380	32239.066089
493.965763	32064.846333
494.333088	31576.061097
494.700354	31372.705992
495.067563	31342.194408
495.434713	31232.458572
495.801805	31505.409326
496.168839	31330.768633
496.535815	31188.338393
496.902733	31302.959108
497.269593	31123.239453
497.636395	31288.130554
498.003139	31544.395089
498.369825	31312.045788
498.736453	31721.689949
499.103023	31559.415207
499.469535	31637.893370
499.835989	31739.104615
500.202385	31623.253859
500.568723	31659.214930
500.935003	31975.363332
501.301226	31829.424448
501.667390	32563.272775
502.033497	32777.867133
502.399546	32565.982396
502.765537	32170.554288
503.131470	32661.295491
503.497345	33082.166303
503.863163	32016.237007
504.228923	32806.349652
504.594625	33179.231199
504.960269	32665.343538
505.325856	33331.952955
505.691385	33006.790970
506.056856	33319.178671
506.422270	33806.174297
506.787625	33328.585464
507.152924	33785.205618
507.518164	33951.230979
507.883347	33537.236301
508.248472	33673.503731
508.613540	34366.601891
508.978550	34605.660968
509.343503	34430.075059
509.708398	34785.884739
510.073236	35385.998816
510.438016	35465.112164
510.802738	35145.228267
511.167403	35693.098347
511.532010	35939.746881
511.896561	36460.803063
512.261053	37223.774136
512.625488	37000.120825
512.989866	36885.520274
513.354186	36961.203117
513.718449	36915.822650
514.082655	37811.580236
514.446803	37501.355190
514.810894	38113.177347
515.174927	38115.168603
515.538904	38128.265521
515.902822	38760.617777
516.266684	38433.071326
516.630488	38790.721027
516.994235	38789.569123
517.357925	39364.621104
517.721558	39621.588880
518.085133	39996.396148
518.448651	40183.065034
518.812112	40075.413714
519.175516	40226.277805
519.538863	40681.320077
519.902152	40731.943344
520.265385	41273.191868
520.628560	41274.394183
520.991678	41227.191339
521.354739	41455.316154
521.717743	41800.289873
522.080690	41693.165354
522.443580	42374.515105
522.806413	42387.312074
523.169189	42500.178467
523.531908	42730.481060
523.894569	42559.815317
524.257174	42758.318312
524.619722	43110.730254
524.982213	43242.009462
525.344647	43282.691573
525.707025	43396.379675
526.069345	43814.356863
526.431608	43731.790325
526.793815	44096.772384
527.155964	43628.171928
527.518057	43870.830389
527.880093	43725.430910
528.242072	44340.353376
528.603995	44065.534874
528.965860	43946.112460
529.327669	44158.760933
529.689421	44197.466912
530.051117	44151.927648
530.412755	44407.579683
530.774337	44442.817349
531.135862	44369.014857
531.497331	44517.819636
531.858743	44484.250592
532.220098	44862.097676
532.581396	44573.342904
532.942638	44320.115664
533.303824	44554.753649
533.664953	44574.419191
534.026025	44211.624992
534.387040	44767.354231
534.747999	44805.180528
535.108902	45121.094517
535.469748	44404.963325
535.830537	44657.862890
536.191270	44868.232760
536.551947	44580.647536
536.912567	44797.991843
537.273131	44907.132824
537.633638	44513.040622
537.994089	44651.788299
538.354483	44383.666970
538.714821	44973.275283
539.075103	45229.126443
539.435328	45047.871757
539.795497	44764.236277
540.155609	44852.302714
540.515665	45382.584208
540.875665	44644.382844
541.235609	44861.636410
541.595496	44952.672087
541.955328	45468.389687
542.315102	44859.846801
542.674821	44705.045569
543.034483	44554.181478
543.394090	44503.565773
543.753640	44430.249752
544.113134	45429.837463
544.472571	44471.778778
544.831953	45523.852462
545.191278	44750.113484
545.550548	44377.509201
545.909761	44935.822030
546.268918	44995.113561
546.628019	45332.724676
546.987064	44714.268360
547.346053	43971.552643
547.704986	44804.779757
548.063863	44377.355446
548.422684	44500.699877
548.781449	44004.978014
549.140158	44436.815855
549.498811	44105.778406
549.857408	43453.274137
550.215949	44171.835165
550.574434	43933.000419
550.932864	43810.167665
551.291237	44387.745264
551.649555	44053.783945
552.007817	44119.702072
552.366022	43743.924382
552.724173	43708.769896
553.082267	43990.157022
553.440305	44231.255245
553.798288	43423.939663
554.156215	43681.628324
554.514086	43764.472126
554.871902	43272.029533
555.229661	43321.765557
555.587365	42928.172429
555.945014	42915.007456
556.302606	42830.064013
556.660143	42803.038387
557.017625	42898.716967
557.375050	42485.985099
557.732421	42742.400868
558.089735	42675.250179
558.446994	42425.108125
558.804197	42716.081004
559.161345	42463.773775
559.518437	41750.238777
559.875474	41840.969464
560.232455	41911.583427
560.589381	41808.489310
560.946251	41528.881712
561.303065	41959.214769
561.659825	41542.213043
562.016528	41210.958824
562.373177	40706.014169
562.729770	41125.990176
563.086307	40546.307895
563.442789	40884.637374
563.799216	40596.580802
564.155587	40366.487417
564.511904	40175.775526
564.868164	40059.067773
565.224370	40183.329695
565.580520	39775.200400
565.936615	39781.542171
566.292654	39316.352056
566.648638	39454.031009
567.004567	39233.167977
567.360441	39138.641301
567.716260	38745.726208
568.072023	38886.908763
568.427732	38631.743199
568.783385	38062.410407
569.138982	38244.333047
569.494525	38188.310704
569.850013	37666.279059
570.205445	37603.433514
570.560823	37214.906746
570.916145	36944.050591
571.271412	36970.713254
571.626625	36494.593917
571.981782	36357.777002
572.336884	35872.341613
572.691931	35935.416530
573.046923	35478.408207
573.401860	35152.273280
573.756743	34977.693081
574.111570	34906.028038
574.466342	34636.071729
574.821059	34570.813992
575.175722	33994.199253
575.530330	33868.959348
575.884882	33424.309414
576.239380	33142.773575
576.593823	33019.393855
576.948211	32784.922228
577.302544	32244.281163
577.656823	32050.151369
578.011047	32055.973902
578.365216	31740.811046
578.719330	31322.304536
579.073389	31123.100821
579.427394	30944.853183
579.781344	30703.946523
580.135239	30328.756127
580.489080	30180.558807
580.842866	29645.770522
581.196597	29765.931465
581.550273	29567.471320
581.903895	29309.195365
582.257463	29416.728217
582.610975	28835.785648
582.964434	28839.952162
583.317837	28309.330390
583.671186	28093.800899
584.024481	28052.402943
584.377721	27580.172857
584.730906	27499.748809
585.084037	27387.482313
585.437113	27027.526284
585.790135	26899.826296
586.143103	26441.487108
586.496016	26338.279566
586.848874	26199.226899
587.201679	26028.535950
587.554428	25525.822006
587.907124	25481.565717
588.259765	25161.654093
588.612352	25063.505349
588.964884	24560.229316
589.317362	24527.398802
589.669786	24336.485264
590.022155	24078.579834
590.374470	24143.036027
590.726731	23728.411205
591.078937	23170.002594
591.431090	23174.403521
591.783188	22727.487588
592.135232	22433.648813
592.487222	22373.369216
592.839157	22263.593050
593.191038	21912.852250
593.542866	21630.280454
593.894639	21152.195067
594.246358	21107.729570
594.598022	20927.674678
594.949633	20541.769310
595.301190	20351.052377
595.652692	20148.108126
596.004141	20198.325580
596.355535	19538.239416
596.706876	19361.277272
597.058162	19057.242763
597.409395	19110.167317
597.760573	19039.099651
598.111698	18697.831179
598.462768	18490.433069
598.813785	18325.380651
599.164748	17989.735587
599.515657	17936.271629
599.866511	17560.524186
600.217312	17675.943924
600.568060	17098.452025
600.918753	17261.248527
601.269392	17061.686890
601.619978	16802.453115
601.970510	16728.196919
602.320988	16621.057276
602.671412	16567.109368
603.021783	16361.301742
603.372100	16053.763631
603.722363	15933.191834
604.072572	15803.389684
604.422728	15641.125024
604.772830	15431.574341
605.122878	15337.672768
605.472872	15147.893491
605.822813	15092.970119
606.172701	14861.825654
606.522534	14829.736189
606.872314	14761.562145
607.222041	14568.811107
607.571714	14530.921795
607.921333	14238.355911
608.270899	14171.142207
608.620411	14138.175581
608.969870	13948.522332
609.319276	13818.611798
609.668627	13698.503787
610.017926	13679.042412
610.367171	13597.073251
610.716362	13486.442609
611.065500	13332.997448
611.414585	13266.560081
611.763616	13183.123944
612.112594	13032.960573
612.461518	12943.235597
612.810389	12918.390270
613.159207	12733.969739
613.507971	12612.704783
613.856682	12617.869445
614.205340	12456.645783
614.553945	12514.480421
614.902496	12237.373235
615.250994	12225.060217
615.599439	12132.640743
615.947830	12056.138713
616.296169	11945.855911
616.644454	11850.126920
616.992686	11783.608895
617.340864	11786.089143
617.688990	11571.767008
618.037063	11622.183587
618.385082	11478.480456
618.733048	11464.975205
619.080961	11330.310862
619.428821	11239.885165
619.776628	11146.467543
620.124382	11015.894097
620.472083	10929.803792
620.819731	10846.430669
621.167326	10663.666157
621.514868	10556.844107
621.862357	10339.900572
622.209793	10262.334858
622.557176	10074.382998
622.904506	9924.438918
623.251783	9761.193754
623.599007	9608.595507
623.946179	9498.859670
624.293297	9361.500830
624.640363	9172.419752
624.987376	9056.531187
625.334336	8943.957181
625.681243	8794.149212
626.028097	8695.357720
626.374899	8596.382226
626.721647	8509.381993
627.068343	8399.875528
627.414987	8280.072507
627.761577	8169.270466
628.108115	8147.240624
628.454600	7964.778581
628.801032	7924.817354
629.147412	7848.703493
629.493739	7767.833303
629.840014	7641.859910
630.186236	7640.324878
630.532405	7504.448138
630.878521	7474.579302
631.224585	7390.422279
631.570597	7293.128010
631.916556	7256.977896
632.262462	7192.088163
632.608316	7133.058772
632.954117	7052.584313
633.299866	6992.571897
633.645562	6929.842299
633.991206	6813.429454
634.336797	6703.239913
634.682336	6630.957329
635.027823	6546.308794
635.373257	6478.069215
635.718639	6377.162959
636.063968	6313.601571
636.409245	6196.291400
636.754470	6132.785465
637.099642	6064.681997
637.444762	5954.316016
637.789829	5920.676396
638.134845	5833.522408
638.479808	5783.620026
638.824719	5735.973560
639.169577	5639.241380
639.514383	5608.369353
639.859137	5529.550913
640.203839	5507.211040
640.548489	5439.808292
640.893086	5399.864710
641.237632	5341.064691
641.582125	5308.161080
641.926566	5247.851236
642.270955	5215.915527
642.615292	5172.531357
642.959576	5122.228203
643.303809	5089.299386
643.647990	5067.188885
643.992118	5031.018606
644.336195	4986.883304
644.680219	4958.496567
645.024192	4938.692394
645.368112	4951.358293
645.711981	4921.428963
646.055797	4944.376295
646.399562	4901.513885
646.743274	4938.047127
647.086935	4950.327377
647.430544	4918.338736
647.774101	4892.890991
648.117606	4886.042583
648.461059	4869.006004
648.804460	4809.059123
649.147810	4737.694029
649.491108	4687.463972
649.834354	4646.252539
650.177548	4562.660126
650.520690	4498.274509
650.863781	4468.430878
651.206820	4428.167183
651.549807	4378.826889
651.892742	4317.889422
652.235626	4286.160399
652.578458	4248.964246
652.921238	4185.861602
653.263967	4178.370448
653.606644	4139.702277
653.949269	4110.317391
654.291843	4068.264086
654.634365	4065.345258
654.976836	4020.085779
655.319255	4003.071884
655.661622	3972.973675
656.003938	3945.756486
656.346203	3913.777926
656.688416	3905.923809
657.030577	3875.583624
657.372687	3846.155889
657.714746	3829.325997
658.056753	3823.947085
658.398708	3772.113942
658.740612	3756.526694
659.082465	3748.665014
659.424266	3726.438567
659.766016	3705.532902
660.107715	3684.496167
660.449362	3668.745082
660.790958	3660.235614
661.132503	3641.270793
661.473996	3627.793269
661.815438	3612.700054
662.156829	3601.385184
662.498168	3576.925506
662.839456	3560.138463
663.180693	3548.687483
663.521879	3535.807334
663.863013	3519.683204
664.204097	3502.071933
664.545129	3501.277951
664.886110	3484.662308
665.227040	3476.790546
665.567918	3463.857466
665.908746	3453.076959
666.249522	3440.869805
666.590248	3431.258845
666.930922	3426.822629
667.271545	3412.571288
667.612118	3400.676685
667.952639	3385.727143
668.293109	3374.187942
668.633528	3356.185982
668.973896	3339.524968
669.314213	3327.632886
669.654480	3310.273673
669.994695	3295.732465
670.334859	3283.800054
670.674973	3268.822786
671.015035	3263.282557
671.355047	3248.892584
671.695008	3237.227354
672.034918	3228.039851
672.374777	3219.033830
672.714585	3208.064279
673.054342	3200.074050
673.394049	3192.323276
673.733705	3186.863706
674.073310	3173.781912
674.412864	3167.150274
674.752368	3151.837769
675.091820	3147.411636
675.431223	3129.245838
675.770574	3117.625979
676.109875	3106.089298
676.449125	3093.246959
676.788324	3080.392017
677.127473	3065.306364
677.466571	3056.658264
677.805619	3048.778941
678.144616	3035.775284
678.483562	3032.047351
678.822458	3019.129394
679.161303	3015.313241
679.500098	3006.982734
679.838842	3001.906292
680.177535	2996.597957
680.516179	2992.794407
680.854771	2991.176196
681.193314	2997.442351
681.531805	3008.028774
681.870247	3020.253572
682.208638	3027.212885
682.546978	3028.241280
682.885268	3029.103317
683.223508	3016.039167
683.561697	3009.810822
683.899836	3001.805469
684.237925	2992.101248
684.575963	2983.138077
684.913951	2973.292703
685.251889	2973.227168
685.589776	2968.286837
685.927614	2964.309367
686.265401	2961.826599
686.603137	2958.496917
686.940824	2965.907413
687.278460	2968.450675
687.616046	2969.847074
687.953582	2974.449648
688.291068	2970.406643
688.628504	2971.737507
688.965889	2968.629636
689.303224	2964.208544
689.640510	2955.555403
689.977745	2944.364042
690.314930	2931.357865
690.652065	2923.972574
690.989150	2909.663259
691.326185	2896.460477
691.663170	2888.255999
692.000105	2874.884339
692.336990	2859.423120
692.673825	2852.582274
693.010610	2845.328054
693.347345	2831.827844
693.684030	2820.502892
694.020665	2818.967860
694.357251	2803.284831
694.693786	2808.683907
695.030272	2798.624284
695.366707	2795.055147
695.703093	2789.013324
696.039429	2784.456121
696.375716	2780.138373
696.711952	2782.537962
697.048139	2775.427415
697.384276	2770.570263
697.720363	2771.326436
698.056400	2768.677310
698.392388	2767.172525
698.728326	2764.898965
699.064214	2760.929056
699.400053	2763.928543
699.735842	2756.749940
700.071581	2753.475710
700.407270	2749.117633
700.742910	2741.419791
701.078501	2741.850809
701.414042	2737.744790
701.749533	2731.236660
702.084974	2726.712224
702.420366	2727.982595
702.755709	2724.095866
703.091002	2717.227293
703.426246	2718.137222
703.761440	2712.337374
704.096584	2712.919627
704.431679	2709.131200
704.766725	2708.990048
705.101721	2706.040973
705.436668	2707.623895
705.771565	2702.885211
706.106413	2705.279759
706.441212	2703.278421
706.775961	2703.734645
707.110661	2705.433514
707.445311	2709.279914
707.779913	2706.015767
708.114465	2708.238916
708.448967	2708.652291
708.783421	2713.834597
709.117825	2715.104968
709.452180	2718.865668
709.786485	2719.316852
710.120742	2725.320866
710.454949	2723.037223
710.789107	2730.172977
711.123216	2732.655745
711.457275	2741.003896
711.791286	2745.082189
712.125247	2749.283991
712.459159	2745.127559
712.793023	2749.107550
713.126837	2739.776375
713.460602	2744.999010
713.794318	2737.986765
714.127985	2737.933833
714.461602	2725.714076
714.795171	2726.369426
715.128691	2715.057077
715.462162	2709.521890
715.795584	2701.365303
716.128957	2699.684078
716.462281	2697.460929
716.795556	2693.453212
717.128782	2685.258816
717.461960	2680.268074
717.795088	2677.056859
718.128167	2675.509225
718.461198	2671.100736
718.794180	2670.984789
719.127113	2666.203255
719.459997	2662.795435
719.792833	2660.085815
720.125619	2660.612615
720.458357	2655.513488
720.791046	2651.977119
721.123686	2652.025010
721.456278	2648.740698
721.788821	2650.242962
722.121315	2643.855820
722.453761	2643.802888
722.786158	2642.834986
723.118506	2646.066366
723.450805	2639.646456
723.783056	2642.741725
724.115259	2641.118473
724.447412	2640.367341
724.779518	2642.802219
725.111574	2642.782054
725.443582	2645.874802
725.775542	2645.957981
726.107453	2648.544093
726.439315	2646.474699
726.771129	2652.980308
727.102895	2649.917807
727.434612	2654.515340
727.766281	2651.573826
728.097901	2661.015908
728.429473	2662.392143
728.760996	2662.634118
729.092471	2660.957934
729.423897	2660.360557
729.755276	2658.102121
730.086606	2661.918274
730.417887	2663.299550
730.749120	2666.147802
731.080305	2670.079902
731.411442	2670.331960
731.742530	2675.718433
732.073570	2674.664832
732.404562	2679.151458
732.735506	2676.396468
733.066401	2675.768844
733.397249	2672.774399
733.728048	2666.417504
734.058798	2654.051553
734.389501	2651.326810
734.720156	2646.641057
735.050762	2639.840541
735.381320	2634.454068
735.711831	2633.012298
736.042293	2632.656897
736.372707	2628.928963
736.703073	2625.185907
737.033391	2628.240846
737.363661	2627.703963
737.693883	2628.593727
738.024056	2630.252266
738.354182	2633.337452
738.684260	2633.332411
739.014290	2634.131434
739.344272	2635.825262
739.674207	2640.382465
740.004093	2639.923720
740.333931	2643.848258
740.663722	2644.100316
740.993464	2644.440594
741.323159	2641.241982
741.652806	2637.912299
741.982405	2638.660911
742.311956	2633.629839
742.641460	2635.661424
742.970915	2630.501803
743.300323	2625.614405
743.629683	2619.998559
743.958996	2620.243055
744.288260	2613.117384
744.617477	2616.520163
744.946647	2614.357508
745.275768	2612.048660
745.604842	2613.649226
745.933869	2607.743514
746.262847	2608.698813
746.591778	2606.894080
746.920662	2606.556322
747.249498	2607.657815
747.578286	2608.905500
747.907027	2607.362907
748.235720	2610.672425
748.564365	2614.352467
748.892963	2611.763834
749.221514	2614.380193
749.550017	2610.006992
749.878473	2612.444390
750.206881	2606.611775
750.535242	2607.970366
750.863555	2608.529934
751.191821	2605.474995
751.520039	2601.653800
751.848210	2601.689088
752.176334	2604.585231
752.504411	2600.706063
752.832440	2599.851588
753.160421	2603.130858
753.488356	2600.038111
753.816243	2602.097422
754.144082	2599.599530
754.471875	2599.609612
754.799620	2596.436206
755.127318	2599.188676
755.454969	2596.259766
755.782572	2600.421238
756.110129	2596.884869
756.437638	2597.235229
756.765100	2595.186000
757.092515	2600.302771
757.419882	2597.116762
757.747203	2597.812441
758.074477	2597.003336
758.401703	2598.051896
758.728882	2600.282607
759.056014	2601.885693
759.383099	2600.436362
759.710138	2600.106166
760.037129	2598.127513
760.364073	2605.094388
760.690970	2599.654983
761.017820	2603.536671
761.344623	2607.529265
761.671379	2609.054214
761.998088	2614.649895
762.324751	2623.812192
762.651366	2652.808909
762.977935	2687.532377
763.304456	2710.860316
763.630931	2732.877556
763.957359	2725.341031
764.283740	2709.216900
764.610074	2690.925073
764.936362	2671.277176
765.262602	2654.018786
765.588796	2635.396764
765.914943	2623.839918
766.241044	2613.316510
766.567097	2603.070365
766.893104	2597.076433
767.219064	2592.597367
767.544978	2587.871286
767.870845	2583.548496
768.196665	2578.766962
768.522438	2579.886098
768.848165	2577.478947
769.173846	2573.582135
769.499479	2569.108111
769.825066	2570.189439
770.150607	2569.206414
770.476101	2566.443861
770.801548	2564.797925
771.126949	2565.549057
771.452303	2563.714077
771.777611	2561.531257
772.102872	2561.856411
772.428087	2561.589230
772.753256	2560.331462
773.078378	2558.753581
773.403453	2560.578479
773.728482	2555.111348
774.053465	2554.730740
774.378401	2551.731254
774.703291	2552.356357
775.028135	2550.755791
775.352932	2550.765873
775.677683	2547.678166
776.002388	2547.899977
776.327046	2545.341591
776.651658	2547.446273
776.976224	2540.045859
777.300743	2546.327137
777.625216	2545.104657
777.949643	2544.903011
778.274024	2547.564740
778.598359	2546.294369
778.922647	2542.384955
779.246889	2545.144986
779.571086	2543.612476
779.895236	2547.239586
780.219339	2542.942002
780.543397	2542.780685
780.867409	2546.808567
781.191374	2545.676828
781.515294	2542.253885
781.839167	2545.956612
782.162995	2546.102806
782.486776	2548.381407
782.810511	2542.949564
783.134201	2543.471323
783.457844	2544.461910
783.781441	2546.468289
784.104993	2547.421067
784.428498	2542.810932
784.751958	2542.639533
785.075372	2545.276056
785.398739	2540.769265
785.722061	2540.318082
786.045337	2541.777496
786.368568	2543.367980
786.691752	2545.243289
787.014891	2546.801005
787.337983	2548.323434
787.661030	2553.641851
787.984031	2562.017728
788.306987	2565.027297
788.629897	2566.242215
788.952760	2569.062741
789.275579	2565.496124
789.598351	2564.245918
789.921078	2559.517316
790.243759	2558.219219
790.566395	2552.802499
790.888984	2552.406768
791.211529	2549.692107
791.534027	2546.430481
791.856480	2546.173382
792.178888	2539.912269
792.501249	2538.382278
792.823566	2540.048380
793.145836	2536.834644
793.468062	2540.638195
793.790241	2539.894625
794.112375	2539.201466
794.434464	2541.225489
794.756507	2540.494522
795.078505	2542.725233
795.400457	2549.011551
795.722364	2548.053732
796.044226	2552.222766
796.366042	2554.977757
796.687812	2552.184958
797.009538	2557.480690
797.331218	2553.835936
797.652852	2556.817778
797.974442	2552.908363
798.295986	2553.170503
798.617484	2551.862324
798.938938	2552.505071
799.260346	2549.729916
799.581709	2545.608773
799.903026	2547.562220
800.224299	2544.121632
800.545526	2541.283462
800.866708	2540.996117
801.187845	2539.125849
801.508936	2538.838503
801.829983	2541.356559
802.150984	2537.646270
802.471940	2536.590148
802.792851	2537.064017
803.113717	2538.810777
803.434538	2534.664428
803.755314	2536.892617
804.076045	2536.834644
804.396731	2534.568646
804.717372	2535.468492
805.037967	2536.335570
805.358518	2535.826413
805.679024	2539.017464
805.999485	2535.997813
806.319901	2539.922351
806.640272	2536.635519
806.960598	2538.147865
807.280879	2540.587783
807.601115	2539.803884
807.921306	2536.922864
808.241453	2536.844727
808.561554	2533.194931
808.881611	2536.575025
809.201623	2536.983358
809.521590	2537.963863
809.841513	2536.529654
810.161390	2542.536189
810.481223	2537.127031
810.801011	2536.532175
811.120755	2538.634336
811.440453	2536.547298
811.760107	2536.973276
812.079716	2536.769109
812.399281	2534.619057
812.718801	2532.756351
813.038276	2532.882380
813.357707	2535.344983
813.677093	2535.808769
813.996434	2533.691485
814.315731	2533.527647
814.634983	2533.348686
814.954191	2536.138965
815.273354	2535.339942
815.592473	2539.561908
815.911547	2538.518390
816.230577	2540.048380
816.549562	2539.501415
816.868502	2541.255736
817.187399	2544.671118
817.506250	2547.385779
817.825058	2542.952084
818.143821	2551.948023
818.462539	2555.108827
818.781213	2555.691080
819.099843	2559.983623
819.418429	2575.255798
819.736970	2583.059504
820.055466	2599.108018
820.373919	2616.157200
820.692327	2635.724439
821.010691	2674.808504
821.329011	2758.174066
821.647286	2901.078174
821.965517	3085.460897
822.283704	3223.361660
822.601847	3297.849749
822.919945	3249.573140
823.237999	3173.184535
823.556010	3084.046853
823.873976	3000.474605
824.191897	2922.654313
824.509775	2858.863552
824.827609	2802.400108
825.145398	2761.526433
825.463144	2745.770307
825.780845	2739.206724
826.098502	2753.367325
826.416116	2785.411420
826.733685	2827.245435
827.051210	2845.978363
827.368692	2840.460820
827.686129	2803.783905
828.003522	2761.234046
828.320872	2716.720657
828.638177	2684.331244
828.955439	2657.988695
829.272656	2635.595889
829.589830	2616.880606
829.906960	2600.597679
830.224046	2585.650657
830.541088	2576.390058
830.858086	2573.090623
831.175041	2558.980433
831.491952	2561.586710
831.808819	2559.829867
832.125642	2566.660631
832.442421	2573.115828
832.759157	2592.758684
833.075849	2621.276492
833.392497	2658.439878
833.709101	2685.523477
834.025662	2696.266176
834.342179	2680.089113
834.658653	2659.213695
834.975083	2638.295427
835.291469	2618.128291
835.607811	2596.453850
835.924110	2587.349526
836.240366	2576.511046
836.556578	2564.187945
836.872746	2554.788714
837.188871	2549.772766
837.504952	2542.717671
837.820990	2537.845396
838.136984	2533.686444
838.452935	2534.039324
838.768842	2531.110414
839.084706	2535.108049
839.400526	2549.659340
839.716303	2569.481157
840.032037	2582.053794
840.347727	2584.985225
840.663373	2577.418453
840.978977	2559.219888
841.294537	2555.928014
841.610054	2544.174564
841.925527	2540.668442
842.240957	2535.972607
842.556344	2531.942204
842.871687	2527.684950
843.186987	2519.803106
843.502244	2516.314628
843.817458	2516.055008
844.132629	2513.700789
844.447756	2514.840090
844.762840	2511.694410
845.077881	2509.688031
845.392879	2510.744153
845.707833	2508.689882
846.022745	2508.785664
846.337613	2506.867505
846.652438	2505.939933
846.967221	2507.487567
847.281960	2510.638288
847.596656	2504.306599
847.911309	2506.469254
848.225919	2503.321053
848.540485	2505.224089
848.855009	2504.127638
849.169490	2507.815242
849.483928	2501.564211
849.798323	2505.642505
850.112675	2504.447751
850.426984	2504.268790
850.741251	2503.895745
851.055474	2504.064624
851.369654	2505.148472
851.683792	2502.932885
851.997887	2500.871053
852.311938	2503.792401
852.625947	2504.641836
852.939914	2502.196876
853.253837	2503.694099
853.567718	2506.262567
853.881555	2502.758965
854.195350	2504.031856
854.509103	2503.366424
854.822812	2504.112515
855.136479	2503.429438
855.450103	2504.162926
855.763685	2502.295179
856.077224	2501.755775
856.390720	2502.529592
856.704173	2499.860301
857.017584	2505.811383
857.330953	2502.582524
857.644278	2505.607217
857.957561	2506.486898
858.270802	2504.140241
858.584000	2506.113853
858.897155	2507.754748
859.210268	2503.724346
859.523339	2504.304078
859.836367	2506.113853
860.149352	2503.510097
860.462295	2501.685199
860.775195	2503.106804
861.088054	2501.652432
861.400869	2502.073368
861.713642	2505.934892
862.026373	2503.898266
862.339062	2506.824655
862.651708	2506.353308
862.964312	2506.991013
863.276873	2506.149141
863.589392	2505.085457
863.901869	2507.709378
864.214303	2508.410098
864.526696	2509.975377
864.839045	2507.595952
865.151353	2510.096364
865.463619	2510.199708
865.775842	2509.009996
866.088023	2510.592918
866.400162	2511.412105
866.712258	2509.680469
867.024313	2510.592918
867.336325	2510.250119
867.648296	2512.352281
867.960224	2507.653925
868.272110	2510.313134
868.583954	2512.203567
868.895755	2513.269771
869.207515	2512.780779
869.519233	2513.484020
869.830909	2514.706499
870.142542	2511.149965
870.454134	2512.508556
870.765684	2512.891684
871.077191	2515.568537
871.388657	2514.396468
871.700081	2510.930675
872.011463	2511.616272
872.322803	2512.125429
872.634101	2517.947961
872.945357	2520.392921
873.256571	2517.867303
873.567744	2518.273116
873.878874	2520.466018
874.189963	2518.729340
874.501010	2520.264372
874.812015	2519.346882
875.122979	2524.380474
875.433900	2518.492406
875.744780	2519.351923
876.055618	2521.259999
876.366415	2521.141532
876.677169	2525.739065
876.987882	2525.494569
877.298554	2527.309384
877.609183	2530.175280
877.919771	2527.490866
878.230317	2532.703419
878.540822	2539.239275
878.851285	2542.263967
879.161707	2548.401572
879.472087	2562.746175
879.782425	2580.420460
880.092722	2613.208125
880.402977	2664.166629
880.713191	2729.928481
881.023363	2799.710653
881.333494	2851.790813
881.643583	2879.789382
881.953631	2882.491440
882.263637	2870.238916
882.573602	2845.726305
882.883526	2819.209836
883.193408	2790.613891
883.503248	2762.895106
883.813048	2737.492732
884.122806	2712.798640
884.432522	2688.840556
884.742197	2659.979950
885.051831	2644.443114
885.361424	2623.789507
885.670975	2605.043976
885.980485	2592.342789
886.289954	2578.913155
886.599382	2570.953173
886.908768	2561.170814
887.218113	2553.069680
887.527417	2547.957950
887.836680	2539.314892
888.145901	2540.033256
888.455082	2538.778009
888.764221	2537.792463
889.073319	2531.160826
889.382376	2530.896165
889.691392	2529.071267
890.000366	2528.788963
890.309300	2527.634538
890.618193	2526.742254
890.927044	2529.025897
891.235855	2528.925074
891.544625	2530.281144
891.853353	2529.023376
892.162041	2531.768285
892.470687	2534.059489
892.779293	2538.140303
893.087858	2542.833617
893.396381	2552.530277
893.704864	2566.116186
894.013306	2585.025554
894.321707	2609.172681
894.630068	2623.605505
894.938387	2636.336939
895.246665	2632.036835
895.554903	2624.772532
895.863100	2609.719647
896.171256	2600.254880
896.479371	2592.967892
896.787446	2585.131419
897.095480	2574.834862
897.403473	2570.272618
897.711425	2562.922615
898.019336	2557.901626
898.327207	2553.919115
898.635038	2547.408464
898.942827	2541.422094
899.250576	2536.080992
899.558284	2530.535723
899.865952	2529.343490
900.173579	2529.978675
900.481165	2528.126051
900.788711	2523.730165
901.096216	2522.250586
901.403681	2522.623632
901.711105	2521.411234
902.018489	2520.846625
902.325832	2520.463497
902.633135	2521.171779
902.940397	2530.596216
903.247619	2538.452855
903.554800	2567.184911
903.861941	2607.509101
904.169041	2639.477578
904.476101	2656.574651
904.783121	2656.360402
905.090100	2644.443114
905.397039	2633.203862
905.703938	2611.973042
906.010796	2600.552308
906.317614	2588.153590
906.624391	2578.424163
906.931129	2567.663821
907.237826	2561.697615
907.544483	2553.906512
907.851099	2542.878988
908.157675	2535.607123
908.464211	2527.140505
908.770707	2524.698066
909.077163	2519.576254
909.383578	2515.089627
909.689954	2515.097189
909.996289	2509.720798
910.302584	2510.013185
910.608839	2508.664677
910.915054	2507.782475
911.221229	2507.238030
911.527363	2508.974707
911.833458	2509.365397
912.139513	2509.390603
912.445527	2507.364059
912.751502	2509.231806
913.057436	2511.828001
913.363331	2513.594925
913.669186	2517.864782
913.975000	2525.234949
914.280775	2534.054448
914.586510	2544.333361
914.892205	2560.989333
915.197859	2582.021027
915.503475	2605.815273
915.809050	2628.755043
916.114585	2643.518062
916.420081	2656.030206
916.725536	2656.410813
917.030952	2650.109371
917.336328	2642.547640
917.641665	2633.677730
917.946961	2622.582151
918.252218	2612.625872
918.557435	2598.573655
918.862612	2595.972420
919.167750	2586.104361
919.472848	2578.749318
919.777906	2569.241702
920.082925	2561.238870
920.387904	2552.353836
920.692843	2544.655994
920.997743	2539.327495
921.302603	2533.041176
921.607423	2531.664941
921.912204	2527.321987
922.216946	2523.047088
922.521647	2518.275636
922.826310	2518.187416
923.130932	2516.564165
923.435516	2511.770027
923.740059	2508.677279
924.044564	2509.085613
924.349028	2509.226765
924.653454	2510.340860
924.957840	2505.909686
925.262186	2502.148985
925.566493	2502.123779
925.870761	2500.694612
926.174989	2498.721001
926.479178	2499.421721
926.783328	2496.966679
927.087438	2497.064982
927.391509	2499.202431
927.695541	2497.269148
927.999533	2495.598006
928.303486	2494.378047
928.607400	2497.596823
928.911275	2492.989209
929.215110	2495.174549
929.518906	2493.974754
929.822663	2494.710763
930.126381	2496.447440
930.430060	2491.955772
930.733699	2494.768736
931.037299	2493.765546
931.340861	2494.630104
931.644383	2492.371667
931.947866	2494.246977
932.251309	2497.080105
932.554714	2495.469456
932.858080	2493.768067
933.161407	2487.945534
933.464694	2490.549290
933.767943	2487.252376
934.071153	2489.732623
934.374323	2491.534836
934.677455	2492.401914
934.980548	2489.699856
935.283602	2494.040289
935.586617	2490.216574
935.889593	2492.517861
936.192530	2491.950731
936.495428	2493.170690
936.798287	2493.296719
937.101108	2495.267810
937.403890	2494.698160
937.706632	2496.449961
938.009336	2497.228819
938.312002	2499.825013
938.614628	2501.579335
938.917216	2504.541013
939.219765	2504.659480
939.522275	2501.430621
939.824747	2506.229799
940.127179	2506.375993
940.429573	2502.884994
940.731929	2505.455982
941.034246	2505.128307
941.336524	2504.649398
941.638763	2502.824500
941.940964	2502.741321
942.243126	2501.780981
942.545250	2504.399860
942.847335	2503.061434
943.149381	2498.395846
943.451389	2498.962976
943.753359	2499.736793
944.055290	2498.264776
944.357182	2496.381905
944.659036	2497.241422
944.960851	2498.315188
945.262628	2496.220588
945.564367	2498.625219
945.866067	2497.105311
946.167729	2496.684374
946.469352	2493.773108
946.770937	2495.852584
947.072484	2496.996926
947.373992	2497.874087
947.675462	2495.293016
947.976893	2494.418376
948.278286	2489.462922
948.579641	2490.947541
948.880958	2490.597181
949.182236	2492.157418
949.483476	2493.115238
949.784678	2494.844353
950.085841	2495.701349
950.386967	2494.849394
950.688054	2495.366113
950.989103	2496.298726
951.290114	2495.184631
951.591087	2496.147492
951.892021	2499.777122
952.192917	2500.243429
952.493776	2498.572287
952.794596	2498.688233
953.095378	2499.230157
953.396122	2499.628408
953.696828	2496.833088
953.997496	2499.053717
954.298126	2495.739158
954.598718	2498.262256
954.899272	2495.252687
955.199788	2497.180928
955.500266	2495.285454
955.800706	2497.536329
956.101108	2493.374857
956.401472	2492.162459
956.701798	2492.588437
957.002087	2489.372181
957.302337	2488.195071
957.602550	2490.544249
957.902724	2488.215236
958.202861	2487.627942
958.502960	2483.947899
958.803022	2487.302787
959.103045	2485.072077
959.403031	2487.799341
959.702979	2483.050574
960.002889	2481.782724
960.302762	2483.655512
960.602596	2485.218270
960.902393	2482.251551
961.202153	2482.362456
961.501875	2482.778352
961.801559	2483.751294
962.101205	2480.411530
962.400814	2481.926397
962.700385	2480.025882
962.999918	2479.312558
963.299414	2474.679738
963.598873	2477.863227
963.898293	2474.309213
964.197677	2481.132415
964.497022	2479.670480
964.796331	2480.633341
965.095601	2483.098465
965.394835	2479.239462
965.694030	2480.696355
965.993189	2477.974132
966.292309	2478.546303
966.591393	2479.151241
966.890439	2478.100161
967.189447	2476.885243
967.488419	2479.884729
967.787353	2480.194760
968.086249	2479.189050
968.385108	2480.073772
968.683930	2482.778352
968.982714	2482.067549
969.281462	2481.190388
969.580172	2479.718371
969.878844	2479.463793
970.177480	2481.079483
970.476078	2479.085706
970.774639	2479.965388
971.073162	2479.302476
971.371649	2480.698876
971.670098	2482.319607
971.968510	2479.146200
972.266885	2482.478403
972.565223	2481.737353
972.863524	2478.037146
973.161788	2481.596201
973.460014	2479.138638
973.758204	2482.543938
974.056356	2480.285501
974.354471	2483.859679
974.652550	2483.963023
974.950591	2481.470172
975.248595	2482.488485
975.546563	2482.773310
975.844493	2481.465131
976.142386	2480.454380
976.440243	2481.586119
976.738062	2481.664257
977.035845	2479.166365
977.333590	2481.248361
977.631299	2482.453197
977.928971	2478.921869
978.226606	2479.940182
978.524204	2474.611682
978.821765	2474.445324
979.119290	2478.879019
979.416777	2479.360449
979.714228	2480.262816
980.011642	2480.159472
980.309020	2479.143680
980.606360	2480.373721
980.903664	2482.528814
981.200931	2480.255254
981.498162	2483.842035
981.795356	2486.589464
982.092513	2489.180617
982.389633	2492.921153
982.686717	2492.066677
982.983764	2496.926350
983.280775	2498.252173
983.577749	2499.280569
983.874686	2501.929695
984.171587	2498.882318
984.468451	2499.154540
984.765279	2497.238901
985.062070	2495.308139
985.358824	2492.064157
985.655543	2492.288488
985.952224	2492.144815
986.248869	2488.248003
986.545478	2483.035450
986.842050	2482.838845
987.138586	2485.167858
987.435086	2480.156952
987.731549	2480.668629
988.027975	2478.599235
988.324366	2478.667291
988.620719	2476.701241
988.917037	2475.967753
989.213318	2475.975314
989.509563	2475.829121
989.805772	2474.195787
990.101944	2476.280304
990.398080	2480.698876
990.694180	2476.053452
990.990244	2475.025057
991.286271	2473.868112
991.582262	2476.915490
991.878217	2474.573874
992.174136	2478.206025
992.470019	2474.009264
992.765865	2475.604790
993.061676	2472.501959
993.357450	2473.663945
993.653188	2474.561271
993.948890	2477.091930
994.244556	2477.825418
994.540186	2476.199646
994.835780	2476.938175
995.131337	2479.773824
995.426859	2481.825573
995.722345	2481.820532
996.017795	2487.335555
996.313208	2486.839001
996.608586	2486.097951
996.903928	2488.041316
997.199234	2488.230359
997.494504	2485.908908
997.789738	2486.286995
998.084936	2487.083497
998.380099	2485.850935
998.675225	2485.119968
998.970316	2482.412868
999.265371	2483.219452
999.560390	2479.962867
999.855373	2478.097640
1000.150320	2479.652836
1000.445232	2478.163175
1000.740108	2476.948257
1001.034948	2476.366004
1001.329752	2477.215438
1001.624521	2472.471713
1001.919254	2475.423308
1002.213951	2475.425829
1002.508613	2474.662094
1002.803239	2472.910293
1003.097829	2471.176136
1003.392384	2476.194605
1003.686903	2470.654377
1003.981386	2474.553709
1004.275834	2472.675879
1004.570246	2472.028091
1004.864623	2472.018009
1005.158964	2470.767803
1005.453270	2471.972638
1005.747540	2472.907772
1006.041775	2473.800057
1006.335974	2472.630509
1006.630138	2470.062041
1006.924266	2472.222175
1007.218359	2472.368369
1007.512416	2467.402832
1007.806438	2468.330405
1008.100425	2469.172277
1008.394376	2468.108594
1008.688292	2470.392237
1008.982172	2471.287041
1009.276017	2471.675210
1009.569827	2472.897690
1009.863602	2470.548512
1010.157341	2470.878708
1010.451045	2470.351907
1010.744714	2471.728142
1011.038347	2474.588997
1011.331945	2472.680920
1011.625508	2472.718729
1011.919036	2470.977010
1012.212528	2470.631691
1012.505986	2469.477267
1012.799408	2471.806280
1013.092795	2468.423666
1013.386147	2470.004068
1013.679464	2466.616412
1013.972745	2472.572536
1014.265992	2470.901393
1014.559204	2471.350056
1014.852380	2469.036166
1015.145521	2469.963738
1015.438628	2469.441979
1015.731699	2469.447020
1016.024736	2468.627833
1016.317737	2469.003399
1016.610703	2472.751497
1016.903635	2473.043883
1017.196531	2470.795529
1017.489393	2468.098512
1017.782219	2471.849130
1018.075011	2471.770992
1018.367768	2467.430559
1018.660490	2470.097329
1018.953177	2470.097329
1019.245829	2470.097329
