Dividing Wavelength (nm)	Counts (n)	Blue Motor Position (mm): 0.000000	Red Motor Position (mm): 31.000000	
326.493990	2050.539738
326.888308	2050.539738
327.282561	2050.539738
327.676750	2026.430420
328.070874	2027.068126
328.464933	2035.368386
328.858929	2042.650333
329.252859	2054.199616
329.646726	2064.382747
330.040528	2083.529049
330.434265	2096.706625
330.827938	2119.873248
331.221547	2140.675569
331.615091	2160.353713
332.008571	2177.188647
332.401986	2200.577080
332.795338	2222.294371
333.188625	2240.490415
333.581847	2260.705442
333.975006	2276.239758
334.368100	2294.070319
334.761129	2310.917855
335.154095	2326.525268
335.546996	2347.188957
335.939833	2372.122504
336.332606	2387.573641
336.725315	2397.776936
337.117960	2407.183729
337.510540	2416.867786
337.903056	2426.332552
338.295508	2434.884869
338.687896	2442.313010
339.080220	2448.538835
339.472480	2448.138063
339.864676	2454.789865
340.256807	2457.907819
340.648875	2461.476956
341.040879	2464.284879
341.432818	2462.749847
341.824694	2463.611885
342.216506	2463.075002
342.608253	2462.391925
342.999937	2463.503500
343.391557	2462.409569
343.783113	2460.370423
344.174605	2456.327417
344.566033	2457.134002
344.957397	2455.641820
345.348697	2455.974537
345.739934	2453.872375
346.131106	2450.565378
346.522215	2450.391459
346.913260	2446.361056
347.304241	2447.850717
347.695159	2443.472475
348.086012	2443.326282
348.476802	2442.242433
348.867528	2435.620878
349.258191	2433.843871
349.648789	2438.217072
350.039324	2432.117276
350.429796	2437.042483
350.820203	2431.343459
351.210548	2434.368151
351.600828	2433.145671
351.991045	2433.097780
352.381198	2432.729776
352.771288	2431.925712
353.161314	2432.661721
353.551276	2432.679365
353.941175	2433.934612
354.331010	2433.506114
354.720782	2431.494693
355.110490	2435.832606
355.500135	2437.105498
355.889717	2435.509973
356.279235	2432.223140
356.668689	2434.559715
357.058080	2437.329829
357.447408	2435.041145
357.836672	2437.443255
358.225873	2436.876125
358.615010	2437.251691
359.004084	2438.882504
359.393095	2438.469130
359.782043	2440.566250
360.170927	2438.758996
360.559748	2440.634305
360.948505	2441.461055
361.337199	2442.197063
361.725830	2443.238061
362.114398	2444.798298
362.502903	2446.136725
362.891344	2442.875098
363.279722	2443.185129
363.668037	2445.703186
364.056289	2444.354677
364.444478	2444.881477
364.832603	2445.685542
365.220665	2444.737805
365.608665	2448.790892
365.996601	2446.038422
366.384474	2449.012703
366.772284	2450.046140
367.160031	2449.221911
367.547715	2451.193002
367.935336	2450.167127
368.322893	2447.780141
368.710388	2448.521191
369.097820	2448.551437
369.485189	2446.666046
369.872495	2452.672581
370.259738	2451.888681
370.646918	2456.156018
371.034035	2457.575103
371.421090	2455.117540
371.808081	2458.122068
372.195010	2456.952520
372.581875	2458.482511
372.968678	2461.824796
373.355418	2463.831175
373.742096	2464.126082
374.128710	2466.084571
374.515262	2469.681434
374.901751	2470.745117
375.288177	2474.399954
375.674540	2479.488999
376.060841	2480.285501
376.447079	2485.001500
376.833254	2491.786893
377.219367	2498.143788
377.605417	2501.589417
377.991404	2509.410767
378.377329	2514.454442
378.763191	2521.731347
379.148991	2528.710825
379.534727	2541.802701
379.920402	2547.100954
380.306013	2555.048333
380.691563	2570.869994
381.077049	2579.903742
381.462474	2587.077304
381.847835	2604.403750
382.233134	2618.367746
382.618371	2626.879734
383.003545	2645.852117
383.388657	2659.768222
383.773706	2680.575584
384.158693	2692.714683
384.543618	2710.051211
384.928480	2720.872048
385.313280	2747.088568
385.698017	2764.243615
386.082692	2788.400824
386.467305	2803.733493
386.851856	2828.140240
387.236344	2853.038499
387.620770	2871.680686
388.005133	2892.921587
388.389435	2927.692946
388.773674	2938.541509
389.157851	2972.743217
389.541965	3000.953514
389.926018	3010.095647
390.310008	3042.941285
390.693936	3069.619071
391.077802	3095.870879
391.461606	3129.180303
391.845348	3147.094044
392.229027	3174.613702
392.612645	3217.067780
392.996200	3243.566605
393.379694	3282.136473
393.763125	3326.571723
394.146494	3351.893439
394.529801	3387.037843
394.913047	3433.446706
395.296230	3438.424845
395.679351	3463.691108
396.062410	3512.381092
396.445408	3492.216477
396.828343	3535.406563
397.211217	3565.582910
397.594028	3539.746996
397.976778	3588.542845
398.359466	3620.062659
398.742092	3631.823671
399.124656	3645.964108
399.507158	3703.488714
399.889598	3711.080692
400.271977	3773.986730
400.654294	3761.527518
401.036549	3823.316941
401.418742	3824.521777
401.800874	3893.136922
402.182944	3921.074997
402.564952	4007.513141
402.946898	3998.860000
403.328783	3990.998321
403.710606	4046.115777
404.092367	4116.018936
404.474067	4178.415818
404.855705	4161.711955
405.237282	4132.531236
405.618797	4234.168459
406.000250	4310.970438
406.381642	4393.892377
406.762972	4391.081934
407.144240	4362.105382
407.525447	4422.798354
407.906593	4439.643369
408.287677	4525.826935
408.668700	4551.216707
409.049661	4590.807408
409.430560	4624.416781
409.811399	4609.492445
410.192176	4661.786855
410.572891	4742.510851
410.953545	4848.523796
411.334138	4748.338425
411.714669	4854.411864
412.095139	4765.385087
412.475547	4881.992016
412.855894	4885.344384
413.236180	4986.147296
413.616405	4913.680709
413.996568	5017.760372
414.376670	5021.962173
414.756711	5016.308519
415.136691	5081.752779
415.516609	5170.083876
415.896466	5208.555442
416.276262	5284.959170
416.655997	5398.949740
417.035670	5491.273432
417.415283	5631.961953
417.794834	5706.848294
418.174324	5662.304658
418.553753	5668.651471
418.933121	5831.989897
419.312428	5844.416341
419.691674	5766.142345
420.070859	5997.241441
420.449983	5875.046392
420.829045	6070.665846
421.208047	5994.930072
421.586988	6152.093084
421.965867	6227.523869
422.344686	6308.822557
422.723444	6477.315562
423.102141	6094.709630
423.480777	6484.118600
423.859352	6288.302540
424.237866	6667.009141
424.616319	6660.586711
424.994712	6825.306412
425.373044	6739.271560
425.751314	7054.837709
426.129524	6772.230624
426.507673	7036.865995
426.885762	7083.738644
427.263789	7122.469829
427.641756	7208.098868
428.019662	7289.150540
428.397508	7333.676531
428.775292	7311.402193
429.153016	7487.099007
429.530679	7414.234169
429.908282	7469.437325
430.285824	7404.484578
430.663305	7691.091818
431.040726	7573.514466
431.418086	7577.857420
431.795385	7712.541928
432.172624	7904.141062
432.549802	7783.962475
432.926920	7924.167046
433.303977	7859.582303
433.680974	7901.517141
434.057910	8107.498687
434.434786	8156.589444
434.811601	8114.926828
435.188355	8456.470042
435.565050	8342.771858
435.941683	8353.948096
436.318257	8688.136267
436.694770	8641.235892
437.071222	8866.981282
437.447614	8645.939289
437.823946	8613.562478
438.200218	8761.399356
438.576429	8639.297568
438.952580	8809.771747
439.328670	8817.862799
439.704700	8892.779387
440.080670	8784.134960
440.456580	9055.270899
440.832429	9025.034058
441.208218	8769.437476
441.583947	8882.618941
441.959616	9000.052620
442.335224	9029.175366
442.710773	9117.468655
443.086261	9295.980954
443.461689	9019.403089
443.837057	9184.631947
444.212365	9401.882993
444.587612	9380.594200
444.962800	9275.564281
445.337927	9403.027335
445.712995	8956.156773
446.088002	9620.636302
446.462949	9686.214152
446.837837	9670.851236
447.212664	9685.450417
447.587431	10513.621254
447.962139	11521.675583
448.336786	12460.469499
448.711374	12249.393867
449.085901	11041.810668
449.460369	10967.133536
449.834776	10736.178114
450.209124	11646.106383
450.583412	11470.336472
450.957640	11790.132148
451.331808	11374.796524
451.705917	10799.046343
452.079965	10686.374034
452.453954	10881.570032
452.827883	10832.489358
453.201752	10796.785386
453.575562	10805.234360
453.949311	11149.351083
454.323001	11214.555887
454.696632	11136.125616
455.070202	11722.497508
455.443713	11778.726538
455.817164	11950.334976
456.190556	12263.257040
456.563888	12134.319448
456.937160	12401.750139
457.310373	11884.205120
457.683526	11893.569063
458.056619	11913.559759
458.429653	11981.852270
458.802628	12124.176646
459.175542	12167.918738
459.548398	12720.131772
459.921194	13287.861477
460.293930	13561.104618
460.666607	14417.684877
461.039224	15219.924017
461.411782	15580.366517
461.784280	15252.946096
462.156719	15207.679055
462.529099	15124.449605
462.901419	14477.210821
463.273680	14077.843052
463.645882	14287.376091
464.018024	14172.289069
464.390106	14531.796435
464.762130	15589.591829
465.134094	17103.067201
465.505999	19383.062619
465.877845	21650.198053
466.249631	22925.776334
466.621358	22480.420638
466.993026	21686.368332
467.364634	20948.260229
467.736184	20145.910183
468.107674	19527.423621
468.479105	19378.737309
468.850477	19110.721844
469.221790	18678.982305
469.593043	18006.263009
469.964238	17613.879759
470.335373	17660.926327
470.706449	18376.603815
471.077467	19224.155367
471.448425	21677.306858
471.819324	23553.813362
472.190164	23479.751251
472.560945	21730.647306
472.931667	20151.014352
473.302330	19817.292487
473.672934	19254.533360
474.043479	19670.078192
474.413965	19453.268248
474.784393	19259.483773
475.154761	19935.373955
475.525070	20042.687517
475.895321	19870.325426
476.265513	20387.686442
476.635645	20973.463478
477.005719	21024.477434
477.375734	21373.605065
477.745691	21991.958037
478.115588	22617.809725
478.485427	23777.055819
478.855207	25559.685957
479.224928	27315.134193
479.594591	28724.799605
479.964194	28380.642553
480.333739	28840.577265
480.703226	29026.938640
481.072653	29430.180537
481.442022	29923.039025
481.811333	30284.852718
482.180584	29843.197230
482.549777	29603.210581
482.918912	29328.056842
483.287988	29236.141484
483.657005	29039.428099
484.025964	28658.732763
484.394864	28802.728282
484.763706	28686.839717
485.132489	28119.677142
485.501213	28152.898345
485.869879	28261.605787
486.238487	28143.930133
486.607036	28368.085038
486.975527	27994.487648
487.343959	28289.178378
487.712333	28564.778259
488.080648	28460.229769
488.448905	28826.058742
488.817104	28630.787127
489.185244	29358.248312
489.553326	30157.800518
489.921350	31846.264423
490.289315	34133.118330
490.657222	34917.166467
491.025070	35363.835383
491.392861	35010.823544
491.760593	34210.308478
492.128267	33168.271731
492.495883	32160.313184
492.863440	31218.237477
493.230939	30207.849093
493.598380	29566.160620
493.965763	29298.533324
494.333088	28716.060765
494.700354	28410.289578
495.067563	28261.522608
495.434713	28022.390434
495.801805	28144.910637
496.168839	27863.591567
496.535815	27597.481659
496.902733	27571.113903
497.269593	27266.504703
497.636395	27267.883458
498.003139	27344.526641
498.369825	26993.947158
498.736453	27204.800980
499.103023	26894.641469
499.469535	26813.630127
499.835989	26756.365139
500.202385	26476.785268
500.568723	26357.138522
500.935003	26432.473525
501.301226	26136.411601
501.667390	26560.473463
502.033497	26561.393473
502.399546	26213.581584
502.765537	25711.447373
503.131470	25908.833752
503.497345	26044.962550
503.863163	25028.403794
504.228923	25440.881084
504.594625	25528.332501
504.960269	24942.532780
505.325856	25232.938529
505.691385	24783.650734
506.056856	24811.866072
506.422270	24952.887310
506.787625	24395.305448
507.152924	24500.257229
507.518164	24410.547376
507.883347	23893.284662
508.248472	23767.780096
508.613540	24027.757441
508.978550	23946.345327
509.343503	23608.217495
509.708398	23616.837868
510.073236	23773.590026
510.438016	23598.135187
510.802738	23146.357062
511.167403	23256.710440
511.532010	23180.901568
511.896561	23279.133492
512.261053	23497.496112
512.625488	23118.718936
512.989866	22807.047078
513.354186	22587.066248
513.718449	22325.463131
514.082655	22590.857196
514.446803	22169.068895
514.810894	22264.230756
515.174927	22023.888705
515.538904	21780.181684
515.902822	21874.592413
516.266684	21437.826844
516.630488	21379.765355
516.994235	21136.169239
517.357925	21192.446160
517.721558	21059.889020
518.085133	21010.334477
518.448651	20841.808704
518.812112	20533.693381
519.175516	20365.001250
519.538863	20317.969805
519.902152	20096.048131
520.265385	20104.610530
520.628560	19864.439879
520.991678	19581.749615
521.354739	19437.486916
521.717743	19358.933136
522.080690	19063.834072
522.443580	19117.804665
522.806413	18865.678917
523.169189	18673.870575
523.531908	18528.647536
523.894569	18216.932829
524.257174	18048.129792
524.619722	17945.466694
524.982213	17762.682017
525.344647	17530.463786
525.707025	17342.093511
526.069345	17264.361439
526.431608	17002.198754
526.793815	16912.430927
527.155964	16509.859505
527.518057	16380.939557
527.880093	16108.026611
528.242072	16097.488079
528.603995	15787.691531
528.965860	15541.821855
529.327669	15401.332459
529.689421	15218.532659
530.051117	14995.121323
530.412755	14862.917064
530.774337	14673.868753
531.135862	14456.284992
531.497331	14300.747751
531.858743	14100.964304
532.220098	14021.346841
532.581396	13747.660078
532.942638	13491.667765
533.303824	13378.269530
533.664953	13202.870143
534.026025	12928.097012
534.387040	12886.169735
534.747999	12717.389384
535.108902	12613.503806
535.469748	12277.132816
535.830537	12159.043787
536.191270	12045.948021
536.551947	11818.002167
536.912567	11714.454347
537.273131	11577.254304
537.633638	11333.287663
537.994089	11213.681247
538.354483	11003.634010
538.714821	10978.385391
539.075103	10883.747810
539.435328	10703.932373
539.795497	10504.557259
540.155609	10383.604855
540.515665	10339.076343
540.875665	10065.321524
541.235609	9965.441143
541.595496	9845.622999
541.955328	9804.555239
542.315102	9570.517151
542.674821	9417.760107
543.034483	9265.887786
543.394090	9132.992888
543.753640	9002.212754
544.113134	9027.650417
544.472571	8767.330273
544.831953	8798.466960
545.191278	8572.625788
545.550548	8401.110611
545.909761	8365.724232
546.268918	8258.445957
546.628019	8191.370885
546.987064	8001.188315
547.346053	7798.382695
547.704986	7783.223946
548.063863	7628.299206
548.422684	7538.433077
548.781449	7374.824949
549.140158	7328.093453
549.498811	7199.322219
549.857408	7024.094232
550.215949	7003.891808
550.574434	6889.029118
550.932864	6785.796369
551.291237	6754.669765
551.649555	6629.293748
552.007817	6553.215175
552.366022	6425.205155
552.724173	6337.665519
553.082267	6278.384070
553.440305	6216.004832
553.798288	6065.879271
554.156215	6011.107134
554.514086	5936.167862
554.871902	5818.923226
555.229661	5748.813379
555.587365	5640.884796
555.945014	5572.990536
556.302606	5492.420294
556.660143	5422.537299
557.017625	5366.741808
557.375050	5263.819091
557.732421	5213.226071
558.089735	5147.043283
558.446994	5061.772165
558.804197	5017.190721
559.161345	4942.259011
559.518437	4838.534750
559.875474	4784.707829
560.232455	4728.476279
560.589381	4669.099048
560.946251	4598.134726
561.303065	4568.865786
561.659825	4494.710413
562.016528	4428.099127
562.373177	4358.130432
562.729770	4322.733970
563.086307	4253.965070
563.442789	4221.842838
563.799216	4167.582378
564.155587	4112.603555
564.511904	4064.455494
564.868164	4020.153834
565.224370	3983.308041
565.580520	3931.769804
565.936615	3901.258221
566.292654	3846.100436
566.648638	3816.400478
567.004567	3775.751134
567.360441	3743.535640
567.716260	3699.874207
568.072023	3678.230013
568.427732	3643.299858
568.783385	3605.075309
569.138982	3580.915579
569.494525	3555.268709
569.850013	3520.290663
570.205445	3494.421982
570.560823	3465.402580
570.916145	3437.817386
571.271412	3419.298707
571.626625	3391.017834
571.981782	3370.402036
572.336884	3341.637212
572.691931	3325.437464
573.046923	3299.898978
573.401860	3277.412912
573.756743	3265.533433
574.111570	3248.028026
574.466342	3234.275758
574.821059	3221.894684
575.175722	3195.872248
575.530330	3187.425795
575.884882	3165.824451
576.239380	3148.424908
576.593823	3140.164978
576.948211	3125.868265
577.302544	3107.798249
577.656823	3099.026642
578.011047	3093.652772
578.365216	3081.261616
578.719330	3065.016497
579.073389	3057.802606
579.427394	3048.559651
579.781344	3039.548588
580.135239	3025.405631
580.489080	3022.786752
580.842866	3011.492046
581.196597	3010.572036
581.550273	3000.625839
581.903895	2996.091321
582.257463	2993.759788
582.610975	2982.767552
582.964434	2978.459886
583.317837	2967.371868
583.671186	2961.125878
584.024481	2958.602781
584.377721	2946.912345
584.730906	2948.575926
585.084037	2944.245575
585.437113	2935.083278
585.790135	2929.895930
586.143103	2921.953592
586.496016	2919.707758
586.848874	2913.567633
587.201679	2912.526635
587.554428	2904.939698
587.907124	2901.635222
588.259765	2895.863101
588.612352	2892.919067
588.964884	2880.905997
589.317362	2884.805330
589.669786	2877.510780
590.022155	2873.392157
590.374470	2871.267311
590.726731	2867.909902
591.078937	2856.612677
591.431090	2860.113758
591.783188	2851.145545
592.135232	2846.762262
592.487222	2847.750328
592.839157	2846.981552
593.191038	2840.032322
593.542866	2835.233143
593.894639	2826.907678
594.246358	2824.674447
594.598022	2825.864159
594.949633	2819.477017
595.301190	2813.490647
595.652692	2810.826397
596.004141	2812.608445
596.355535	2803.252063
596.706876	2799.413225
597.058162	2793.925929
597.409395	2797.666465
597.760573	2795.821402
598.111698	2789.943417
598.462768	2789.908129
598.813785	2786.268416
599.164748	2782.719444
599.515657	2780.960081
599.866511	2775.371962
600.217312	2776.075203
600.568060	2768.601692
600.918753	2773.562188
601.269392	2772.977414
601.619978	2767.341404
601.970510	2767.041455
602.320988	2764.082298
602.671412	2765.430807
603.021783	2761.949890
603.372100	2760.908892
603.722363	2757.604415
604.072572	2757.773294
604.422728	2753.942017
604.772830	2753.039650
605.122878	2748.694176
605.472872	2747.829618
605.822813	2746.546644
606.172701	2746.808784
606.522534	2746.929772
606.872314	2746.284504
607.222041	2741.344173
607.571714	2743.035481
607.921333	2736.136662
608.270899	2734.359655
608.620411	2733.016187
608.969870	2735.438462
609.319276	2734.437793
609.668627	2733.754716
610.017926	2735.604820
610.367171	2734.145406
610.716362	2733.439644
611.065500	2730.603995
611.414585	2730.039386
611.763616	2732.287741
612.112594	2730.914026
612.461518	2729.409242
612.810389	2731.140878
613.159207	2730.402349
613.507971	2728.126268
613.856682	2728.176680
614.205340	2726.041751
614.553945	2729.386557
614.902496	2723.075032
615.250994	2725.245249
615.599439	2724.330279
615.947830	2726.661813
616.296169	2725.779611
616.644454	2722.281050
616.992686	2723.067470
617.340864	2725.482183
617.688990	2721.295505
618.037063	2725.555280
618.385082	2722.296174
618.733048	2726.729868
619.080961	2722.326421
619.428821	2724.806668
619.776628	2723.954713
620.124382	2722.586040
620.472083	2721.625700
620.819731	2720.824157
621.167326	2715.631768
621.514868	2715.447766
621.862357	2713.648074
622.209793	2712.745708
622.557176	2708.455686
622.904506	2706.736652
623.251783	2703.984182
623.599007	2704.263966
623.946179	2701.236753
624.293297	2699.989068
624.640363	2695.832637
624.987376	2692.636545
625.334336	2690.894826
625.681243	2689.468180
626.028097	2687.489527
626.374899	2691.421627
626.721647	2690.153777
627.068343	2688.573375
627.414987	2687.144208
627.761577	2685.576409
628.108115	2687.832325
628.454600	2678.460820
628.801032	2681.886284
629.147412	2681.195646
629.493739	2682.047601
629.840014	2681.109947
630.186236	2680.865451
630.532405	2678.233968
630.878521	2677.775223
631.224585	2675.645336
631.570597	2674.700120
631.916556	2673.538134
632.262462	2675.514266
632.608316	2674.493432
632.954117	2672.628205
633.299866	2673.260870
633.645562	2672.270283
633.991206	2669.364058
634.336797	2666.241063
634.682336	2666.109993
635.027823	2665.048831
635.373257	2666.190652
635.718639	2663.614622
636.063968	2663.163439
636.409245	2659.329642
636.754470	2656.872079
637.099642	2655.692449
637.444762	2653.154228
637.789829	2652.950061
638.134845	2650.837818
638.479808	2652.471152
638.824719	2650.520225
639.169577	2648.198774
639.514383	2649.784217
639.859137	2649.701038
640.203839	2648.763383
640.548489	2648.428146
640.893086	2645.673156
641.237632	2644.160810
641.582125	2647.238434
641.926566	2643.608803
642.270955	2639.739718
642.615292	2637.113277
642.959576	2642.421612
643.303809	2638.494553
643.647990	2644.165851
643.992118	2642.235089
644.336195	2639.364152
644.680219	2640.879018
645.024192	2640.137969
645.368112	2642.749287
645.711981	2644.947230
646.055797	2645.756335
646.399562	2646.293218
646.743274	2646.215080
647.086935	2655.034578
647.430544	2652.209012
647.774101	2652.080462
648.117606	2653.628097
648.461059	2656.189003
648.804460	2654.807727
649.147810	2648.647437
649.491108	2647.354381
649.834354	2646.636016
650.177548	2643.250881
650.520690	2643.699544
650.863781	2643.283649
651.206820	2643.702065
651.549807	2640.158133
651.892742	2635.638739
652.235626	2636.367186
652.578458	2635.691671
652.921238	2632.881228
653.263967	2635.222844
653.606644	2633.541619
653.949269	2631.638583
654.291843	2630.189252
654.634365	2630.809314
654.976836	2628.888634
655.319255	2631.399129
655.661622	2630.786628
656.003938	2628.233284
656.346203	2627.207409
656.688416	2631.653707
657.030577	2627.572893
657.372687	2625.831174
657.714746	2627.890486
658.056753	2628.649179
658.398708	2624.283540
658.740612	2627.673716
659.082465	2624.996863
659.424266	2623.388735
659.766016	2621.989815
660.107715	2623.542490
660.449362	2621.057202
660.790958	2624.636421
661.132503	2623.993674
661.473996	2628.087091
661.815438	2625.208592
662.156829	2625.478293
662.498168	2626.544498
662.839456	2628.462657
663.180693	2625.168262
663.521879	2625.226236
663.863013	2624.023921
664.204097	2624.948972
664.545129	2626.657923
664.886110	2628.679426
665.227040	2628.752523
665.567918	2628.036679
665.908746	2626.173973
666.249522	2627.373767
666.590248	2627.784621
666.930922	2626.413427
667.271545	2626.645321
667.612118	2629.589354
667.952639	2628.974334
668.293109	2632.883748
668.633528	2628.807976
668.973896	2628.974334
669.314213	2626.912502
669.654480	2627.235136
669.994695	2625.790845
670.334859	2628.102214
670.674973	2623.449229
671.015035	2628.676906
671.355047	2624.684312
671.695008	2625.148098
672.034918	2622.937552
672.374777	2623.333282
672.714585	2623.771863
673.054342	2625.405197
673.394049	2626.426030
673.733705	2626.816720
674.073310	2624.323869
674.412864	2624.669188
674.752368	2623.640793
675.091820	2625.372429
675.431223	2620.467387
675.770574	2620.258179
676.109875	2621.596605
676.449125	2620.094341
676.788324	2616.447066
677.127473	2613.203084
677.466571	2615.650564
677.805619	2616.484875
678.144616	2613.868516
678.483562	2615.796757
678.822458	2610.571602
679.161303	2614.387755
679.500098	2614.581839
679.838842	2613.228290
680.177535	2612.688886
680.516179	2615.625358
680.854771	2614.793568
681.193314	2618.733230
681.531805	2619.930504
681.870247	2624.880917
682.208638	2626.783952
682.546978	2630.912657
682.885268	2630.083387
683.223508	2628.351751
683.561697	2627.686319
683.899836	2627.323356
684.237925	2627.277985
684.575963	2625.422841
684.913951	2622.153652
685.251889	2621.523508
685.589776	2624.505351
685.927614	2621.929321
686.265401	2623.411420
686.603137	2627.197327
686.940824	2626.173973
687.278460	2628.361833
687.616046	2628.306381
687.953582	2631.169756
688.291068	2632.165384
688.628504	2629.980044
688.965889	2631.068933
689.303224	2631.956176
689.640510	2630.373254
689.977745	2629.609519
690.314930	2625.669857
690.652065	2623.976030
690.989150	2619.675925
691.326185	2614.808691
691.663170	2610.112857
692.000105	2611.509256
692.336990	2610.311982
692.673825	2607.544389
693.010610	2600.690940
693.347345	2599.982658
693.684030	2592.289857
694.020665	2595.039807
694.357251	2589.247521
694.693786	2594.586103
695.030272	2592.272213
695.366707	2587.810792
695.703093	2589.865062
696.039429	2590.875813
696.375716	2587.029413
696.711952	2586.235431
697.048139	2587.941862
697.384276	2583.281315
697.720363	2586.459763
698.056400	2584.871799
698.392388	2585.721234
698.728326	2586.205184
699.064214	2583.727457
699.400053	2585.648137
699.735842	2581.116140
700.071581	2580.044894
700.407270	2577.602455
700.742910	2580.228897
701.078501	2578.640933
701.414042	2577.758731
701.749533	2574.333267
702.084974	2575.059193
702.420366	2573.856878
702.755709	2575.081878
703.091002	2571.243040
703.426246	2572.944429
703.761440	2570.524675
704.096584	2572.087433
704.431679	2571.548030
704.766725	2569.156002
705.101721	2569.186249
705.436668	2569.687844
705.771565	2568.820765
706.106413	2572.135324
706.441212	2567.252967
706.775961	2570.360838
707.110661	2573.022567
707.445311	2573.123390
707.779913	2572.616754
708.114465	2571.981569
708.448967	2574.686148
708.783421	2575.570870
709.117825	2577.967939
709.452180	2579.470203
709.786485	2581.353074
710.120742	2585.307859
710.454949	2582.885585
710.789107	2588.466142
711.123216	2590.422110
711.457275	2595.385126
711.791286	2594.923860
712.125247	2596.050558
712.459159	2594.150043
712.793023	2600.983327
713.126837	2595.939652
713.460602	2597.217585
713.794318	2595.105342
714.127985	2595.067533
714.461602	2591.405135
714.795171	2590.691811
715.128691	2587.616707
715.462162	2584.617221
715.795584	2581.695872
716.128957	2582.230235
716.462281	2580.065059
716.795556	2577.990624
717.128782	2573.735890
717.461960	2572.904100
717.795088	2572.412587
718.128167	2568.553584
718.461198	2567.411763
718.794180	2567.326063
719.127113	2561.732903
719.459997	2563.893038
719.792833	2562.796587
720.125619	2563.809858
720.458357	2559.156873
720.791046	2561.075033
721.123686	2558.229301
721.456278	2558.143602
721.788821	2557.594116
722.121315	2556.941286
722.453761	2556.167469
722.786158	2557.299208
723.118506	2556.951369
723.450805	2556.986657
723.783056	2556.671585
724.115259	2559.025803
724.447412	2558.597305
724.779518	2560.137378
725.111574	2554.909701
725.443582	2559.166956
725.775542	2558.161246
726.107453	2564.298850
726.439315	2561.057388
726.771129	2563.583007
727.102895	2560.888510
727.434612	2565.523851
727.766281	2565.617112
728.097901	2569.549212
728.429473	2568.916547
728.760996	2573.367886
729.092471	2571.232957
729.423897	2573.057855
729.755276	2573.584656
730.086606	2567.351269
730.417887	2571.164902
730.749120	2575.780078
731.080305	2574.207238
731.411442	2581.224524
731.742530	2577.831828
732.073570	2579.959195
732.404562	2583.296439
732.735506	2581.806778
733.066401	2584.730647
733.397249	2579.283680
733.728048	2575.046590
734.058798	2573.047773
734.389501	2568.898903
734.720156	2567.046279
735.050762	2562.768860
735.381320	2557.548745
735.711831	2561.420352
736.042293	2558.025134
736.372707	2556.636297
736.703073	2557.878941
737.033391	2558.612429
737.363661	2554.705535
737.693883	2557.384908
738.024056	2560.207954
738.354182	2560.240722
738.684260	2560.278530
739.014290	2563.376319
739.344272	2562.821792
739.674207	2565.433110
740.004093	2566.343038
740.333931	2566.958059
740.663722	2566.274983
740.993464	2566.078378
741.323159	2568.868656
741.652806	2566.360682
741.982405	2564.656772
742.311956	2561.314487
742.641460	2562.133675
742.970915	2562.574776
743.300323	2556.716955
743.629683	2554.307283
743.958996	2552.278219
744.288260	2548.396531
744.617477	2553.596481
744.946647	2550.707900
745.275768	2553.533466
745.604842	2548.051212
745.933869	2551.181768
746.262847	2549.636654
746.591778	2549.946685
746.920662	2546.964843
747.249498	2549.687066
747.578286	2549.994576
747.907027	2549.311500
748.235720	2551.365770
748.564365	2557.095042
748.892963	2547.113557
749.221514	2551.786707
749.550017	2549.656819
749.878473	2553.341903
750.206881	2550.617159
750.535242	2551.418702
750.863555	2548.220090
751.191821	2548.310831
751.520039	2547.710934
751.848210	2547.083310
752.176334	2547.277394
752.504411	2545.066848
752.832440	2543.720860
753.160421	2547.537014
753.488356	2544.103988
753.816243	2549.820657
754.144082	2543.617517
754.471875	2546.236396
754.799620	2543.007537
755.127318	2546.349822
755.454969	2543.317568
755.782572	2543.022661
756.110129	2544.870243
756.437638	2545.139945
756.765100	2546.606921
757.092515	2543.804039
757.419882	2544.356046
757.747203	2545.694472
758.074477	2546.639688
758.401703	2543.672969
758.728882	2546.904349
759.056014	2545.235727
759.383099	2549.669422
759.710138	2544.963505
760.037129	2547.531973
760.364073	2549.455173
760.690970	2544.829914
761.017820	2550.939793
761.344623	2552.338713
761.671379	2557.750392
761.998088	2558.448591
762.324751	2564.999571
762.651366	2580.480954
762.977935	2605.963987
763.304456	2622.597274
763.630931	2634.660755
763.957359	2633.261835
764.283740	2621.957047
764.610074	2609.661673
764.936362	2596.839498
765.262602	2584.208887
765.588796	2570.552402
765.914943	2563.915723
766.241044	2558.015052
766.567097	2551.476676
766.893104	2546.795964
767.219064	2541.711961
767.544978	2541.233051
767.870845	2538.848585
768.196665	2533.633512
768.522438	2532.826927
768.848165	2533.023532
769.173846	2532.733666
769.499479	2530.253418
769.825066	2528.451205
770.150607	2527.591689
770.476101	2526.739734
770.801548	2526.417100
771.126949	2524.574558
771.452303	2525.366019
771.777611	2521.575072
772.102872	2522.260668
772.428087	2522.996677
772.753256	2520.506347
773.078378	2522.583302
773.403453	2522.689167
773.728482	2520.944927
774.053465	2522.210257
774.378401	2519.331758
774.703291	2517.889988
775.028135	2520.125740
775.352932	2514.207425
775.677683	2514.398989
776.002388	2512.745491
776.327046	2513.093330
776.651658	2513.194153
776.976224	2510.035870
777.300743	2512.349760
777.625216	2514.774555
777.949643	2512.710203
778.274024	2512.090141
778.598359	2511.475120
778.922647	2514.580471
779.246889	2512.606859
779.571086	2513.070645
779.895236	2510.761797
780.219339	2513.131139
780.543397	2512.490912
780.867409	2513.095851
781.191374	2513.065604
781.515294	2512.853875
781.839167	2516.115502
782.162995	2512.579133
782.486776	2511.591066
782.810511	2512.190964
783.134201	2512.334637
783.457844	2510.812208
783.781441	2511.906138
784.104993	2512.921931
784.428498	2511.404544
784.751958	2513.153824
785.075372	2509.216683
785.398739	2511.364214
785.722061	2512.054853
786.045337	2510.081241
786.368568	2516.299504
786.691752	2512.155676
787.014891	2514.439318
787.337983	2516.443177
787.661030	2519.392252
787.984031	2525.764270
788.306987	2527.881555
788.629897	2529.368695
788.952760	2526.908612
789.275579	2528.736031
789.598351	2525.025741
789.921078	2522.953827
790.243759	2523.457943
790.566395	2519.208250
790.888984	2521.885103
791.211529	2514.766993
791.534027	2514.333454
791.856480	2510.643329
792.178888	2512.586694
792.501249	2508.135355
792.823566	2510.948319
793.145836	2506.398678
793.468062	2512.793382
793.790241	2510.918072
794.112375	2510.683659
794.434464	2511.011334
794.756507	2511.152486
795.078505	2514.842611
795.400457	2513.136180
795.722364	2518.802437
796.044226	2520.123219
796.366042	2520.065246
796.687812	2520.907119
797.009538	2523.281502
797.331218	2522.008611
797.652852	2519.891326
797.974442	2521.323014
798.295986	2521.015503
798.617484	2517.678260
798.938938	2515.601304
799.260346	2516.591891
799.581709	2513.184071
799.903026	2517.867303
800.224299	2514.096520
800.545526	2514.809843
800.866708	2513.630213
801.187845	2512.087620
801.508936	2510.587877
801.829983	2507.447238
802.150984	2508.755417
802.471940	2509.267094
802.792851	2510.633247
803.113717	2508.359687
803.434538	2509.619975
803.755314	2508.878926
804.076045	2506.348266
804.396731	2507.795078
804.717372	2508.248781
805.037967	2507.658966
805.358518	2511.467558
805.679024	2506.365910
805.999485	2506.552433
806.319901	2507.966477
806.640272	2510.844976
806.960598	2509.569564
807.280879	2511.155007
807.601115	2512.649709
807.921306	2509.730881
808.241453	2507.865654
808.561554	2505.713081
808.881611	2509.418329
809.201623	2505.110663
809.521590	2511.593587
809.841513	2508.195849
810.161390	2510.819770
810.481223	2510.706344
810.801011	2507.636281
811.120755	2512.253978
811.440453	2509.183915
811.760107	2511.235665
812.079716	2510.338340
812.399281	2508.490757
812.718801	2508.904131
813.038276	2509.035201
813.357707	2507.119563
813.677093	2507.351456
813.996434	2506.186949
814.315731	2505.486229
814.634983	2509.365397
814.954191	2510.313134
815.273354	2507.507732
815.592473	2508.825993
815.911547	2510.802126
816.230577	2510.855058
816.549562	2507.996724
816.868502	2509.816580
817.187399	2515.437467
817.506250	2514.880419
817.825058	2515.596263
818.143821	2519.949299
818.462539	2520.410565
818.781213	2522.290915
819.099843	2525.900382
819.418429	2534.982020
819.736970	2542.175747
820.055466	2550.876778
820.373919	2566.345559
820.692327	2582.578074
821.010691	2610.334667
821.329011	2671.685510
821.647286	2774.789709
821.965517	2908.970101
822.283704	3005.394771
822.601847	3062.717731
822.919945	3029.350334
823.237999	2971.971921
823.556010	2908.254257
823.873976	2845.572550
824.191897	2789.154477
824.509775	2742.329719
824.827609	2706.224975
825.145398	2675.723474
825.463144	2664.970693
825.780845	2659.601864
826.098502	2666.944304
826.416116	2690.940197
826.733685	2721.388766
827.051210	2736.764285
827.368692	2731.702967
827.686129	2703.618699
828.003522	2674.435459
828.320872	2643.177785
828.638177	2618.781121
828.955439	2595.647266
829.272656	2580.617065
829.589830	2567.996537
829.906960	2556.023796
830.224046	2547.567261
830.541088	2536.569984
830.858086	2532.698377
831.175041	2529.711494
831.491952	2527.523633
831.808819	2524.534229
832.125642	2529.298119
832.442421	2536.035621
832.759157	2548.986346
833.075849	2570.900241
833.392497	2599.060127
833.709101	2618.080400
834.025662	2626.148767
834.342179	2615.249792
834.658653	2599.546598
834.975083	2581.242168
835.291469	2567.366393
835.607811	2554.443395
835.924110	2545.238248
836.240366	2535.518903
836.556578	2526.676719
836.872746	2525.613036
837.188871	2518.479803
837.504952	2512.516118
837.820990	2507.353977
838.136984	2506.612927
838.452935	2508.117711
838.768842	2506.791888
839.084706	2509.950171
839.400526	2519.823271
839.716303	2531.639735
840.032037	2543.667928
840.347727	2542.021992
840.663373	2539.571991
840.978977	2524.309897
841.294537	2522.575741
841.610054	2515.140039
841.925527	2510.716426
842.240957	2507.694254
842.556344	2505.065293
842.871687	2500.341732
843.186987	2500.248470
843.502244	2494.705722
843.817458	2495.613129
844.132629	2493.596668
844.447756	2493.531133
844.762840	2490.067860
845.077881	2488.817654
845.392879	2488.467294
845.707833	2487.297746
846.022745	2487.038127
846.337613	2487.169197
846.652438	2486.690287
846.967221	2489.651965
847.281960	2486.032416
847.596656	2484.767087
847.911309	2488.348827
848.225919	2486.380256
848.540485	2484.656181
848.855009	2487.569968
849.169490	2486.811275
849.483928	2487.418734
849.798323	2485.566110
850.112675	2485.309011
850.426984	2483.589977
850.741251	2487.295225
851.055474	2483.713486
851.369654	2484.951089
851.683792	2484.305821
851.997887	2483.559730
852.311938	2485.125009
852.625947	2485.724906
852.939914	2486.332365
853.253837	2487.660709
853.567718	2483.269864
853.881555	2485.140132
854.195350	2483.894967
854.509103	2483.436222
854.822812	2481.888588
855.136479	2485.450163
855.450103	2484.840183
855.763685	2484.066366
856.077224	2479.766262
856.390720	2484.008393
856.704173	2480.643423
857.017584	2486.443270
857.330953	2483.058136
857.644278	2485.056953
857.957561	2490.095586
858.270802	2485.056953
858.584000	2486.080307
858.897155	2485.548466
859.210268	2485.054433
859.523339	2484.933445
859.836367	2484.487303
860.149352	2483.468990
860.462295	2485.399752
860.775195	2483.259782
861.088054	2484.401603
861.400869	2486.660040
861.713642	2482.198619
862.026373	2485.896305
862.339062	2485.165338
862.651708	2484.527632
862.964312	2484.983856
863.276873	2485.495533
863.589392	2485.162817
863.901869	2485.296408
864.214303	2487.348158
864.526696	2486.591984
864.839045	2484.842704
865.151353	2488.492499
865.463619	2487.234732
865.775842	2489.357057
866.088023	2489.374701
866.400162	2489.576348
866.712258	2487.398569
867.024313	2488.205154
867.336325	2489.157932
867.648296	2489.944352
867.960224	2488.933600
868.272110	2488.454691
868.583954	2490.584578
868.895755	2490.710607
869.207515	2490.025010
869.519233	2488.479897
869.830909	2489.296563
870.142542	2491.018118
870.454134	2491.202120
870.765684	2492.164980
871.077191	2491.250011
871.388657	2492.701863
871.700081	2489.165493
872.011463	2492.694301
872.322803	2489.621718
872.634101	2494.531802
872.945357	2494.347800
873.256571	2494.995588
873.567744	2496.165136
873.878874	2494.836792
874.189963	2498.042965
874.501010	2496.505413
874.812015	2497.158243
875.122979	2496.346617
875.433900	2495.764364
875.744780	2498.045486
876.055618	2497.743017
876.366415	2498.877276
876.677169	2496.714621
876.987882	2500.674448
877.298554	2500.150168
877.609183	2499.499859
877.919771	2501.365086
878.230317	2506.625530
878.540822	2507.278359
878.851285	2512.387569
879.161707	2517.889988
879.472087	2525.045906
879.782425	2542.203473
880.092722	2563.260373
880.402977	2604.895262
880.713191	2655.029537
881.023363	2708.816128
881.333494	2748.031264
881.643583	2768.604213
881.953631	2770.671086
882.263637	2761.881834
882.573602	2742.100347
882.883526	2721.260217
883.193408	2701.587114
883.503248	2679.479133
883.813048	2659.775784
884.122806	2643.543268
884.432522	2623.166924
884.742197	2603.766044
885.051831	2589.159301
885.361424	2574.164388
885.670975	2561.609395
885.980485	2550.821326
886.289954	2540.244985
886.599382	2531.629653
886.908768	2529.232584
887.218113	2521.738909
887.527417	2516.296983
887.836680	2511.379338
888.145901	2508.682321
888.455082	2507.754748
888.764221	2505.226610
889.073319	2505.093019
889.382376	2503.389109
889.691392	2504.422546
890.000366	2500.409787
890.309300	2502.700992
890.618193	2499.189828
890.927044	2501.022287
891.235855	2501.710405
891.544625	2502.552278
891.853353	2503.663852
892.162041	2504.835920
892.470687	2507.023781
892.779293	2507.928668
893.087858	2512.710203
893.396381	2522.311080
893.704864	2530.450023
894.013306	2544.340922
894.321707	2564.674416
894.630068	2572.316806
894.938387	2580.606983
895.246665	2578.139338
895.554903	2573.919892
895.863100	2561.642162
896.171256	2558.178890
896.479371	2549.208156
896.787446	2544.855120
897.095480	2534.240971
897.403473	2530.240815
897.711425	2528.347862
898.019336	2524.743437
898.327207	2519.069618
898.635038	2514.905625
898.942827	2511.654081
899.250576	2508.251302
899.558284	2506.113853
899.865952	2504.601507
900.173579	2505.612258
900.481165	2499.482215
900.788711	2501.034890
901.096216	2498.927688
901.403681	2497.896772
901.711105	2499.222595
902.018489	2499.676299
902.325832	2497.125475
902.633135	2494.509117
902.940397	2498.826865
903.247619	2509.582167
903.554800	2531.470857
903.861941	2558.725855
904.169041	2583.881212
904.476101	2599.382761
904.783121	2597.147009
905.090100	2590.588468
905.397039	2580.332240
905.703938	2564.750034
906.010796	2558.057902
906.317614	2546.740512
906.624391	2541.331353
906.931129	2533.036135
907.237826	2526.941380
907.544483	2517.620286
907.851099	2514.361180
908.157675	2507.532938
908.464211	2502.698471
908.770707	2498.776453
909.077163	2494.741010
909.383578	2494.383088
909.689954	2490.423261
909.996289	2489.573827
910.302584	2486.166007
910.608839	2487.204485
910.915054	2485.306490
911.221229	2488.174907
911.527363	2485.855976
911.833458	2481.747436
912.139513	2486.755822
912.445527	2483.219453
912.751502	2489.735144
913.057436	2489.445277
913.363331	2490.811430
913.669186	2495.998777
913.975000	2495.998778
914.280775	2505.597134
914.586510	2514.530059
914.892205	2525.199661
915.197859	2539.541744
915.503475	2559.870197
915.809050	2581.365677
916.114585	2592.007552
916.420081	2596.466453
916.725536	2600.186825
917.030952	2594.172728
917.336328	2587.485638
917.641665	2579.071952
917.946961	2571.358986
918.252218	2564.936556
918.557435	2554.902140
918.862612	2553.346944
919.167750	2546.090203
919.472848	2539.009902
919.777906	2528.978006
920.082925	2526.132275
920.387904	2519.803106
920.692843	2516.049967
920.997743	2512.445542
921.302603	2508.089985
921.607423	2503.121928
921.912204	2500.404746
922.216946	2499.998933
922.521647	2495.837461
922.826310	2494.057933
923.130932	2494.249497
923.435516	2491.174393
923.740059	2489.102479
924.044564	2487.983343
924.349028	2486.314721
924.653454	2485.855976
924.957840	2486.256748
925.262186	2482.906901
925.566493	2485.687097
925.870761	2483.108547
926.174989	2482.105357
926.479178	2482.959833
926.783328	2480.459421
927.087438	2479.209215
927.391509	2481.001345
927.695541	2479.143680
927.999533	2477.568319
928.303486	2477.467496
928.607400	2476.605459
928.911275	2475.433390
929.215110	2477.096971
929.518906	2475.866930
929.822663	2477.089409
930.126381	2477.147383
930.430060	2475.640078
930.733699	2475.816518
931.037299	2478.105202
931.340861	2480.187198
931.644383	2477.981694
931.947866	2477.187712
932.251309	2477.759883
932.554714	2476.176961
932.858080	2474.450365
933.161407	2472.630509
933.464694	2473.842906
933.767943	2471.604634
934.071153	2477.008751
934.374323	2472.706126
934.677455	2477.522949
934.980548	2472.786785
935.283602	2474.871302
935.586617	2474.084882
935.889593	2473.530355
936.192530	2474.205869
936.495428	2476.086220
936.798287	2473.084213
937.101108	2475.786271
937.403890	2475.904738
937.706632	2476.557568
938.009336	2477.122177
938.312002	2478.511015
938.614628	2480.792137
938.917216	2484.005872
939.219765	2483.181644
939.522275	2483.569813
939.824747	2483.295070
940.127179	2486.216418
940.429573	2483.254741
940.731929	2485.220791
941.034246	2485.850935
941.336524	2485.530822
941.638763	2482.750625
941.940964	2485.230873
942.243126	2485.692138
942.545250	2483.547128
942.847335	2481.507981
943.149381	2484.643578
943.451389	2483.501757
943.753359	2478.712661
944.055290	2480.827425
944.357182	2479.148721
944.659036	2477.384317
944.960851	2480.686273
945.262628	2477.444811
945.564367	2479.665439
945.866067	2480.532518
946.167729	2478.584112
946.469352	2477.480099
946.770937	2480.802219
947.072484	2476.449183
947.373992	2479.617548
947.675462	2478.591673
947.976893	2475.597228
948.278286	2473.779892
948.579641	2475.226703
948.880958	2473.547999
949.182236	2475.982876
949.483476	2478.485809
949.784678	2477.711992
950.085841	2479.158803
950.386967	2476.514718
950.688054	2475.141003
950.989103	2477.205356
951.290114	2478.642085
951.591087	2478.120325
951.892021	2479.294914
952.192917	2479.393217
952.493776	2481.137456
952.794596	2477.878350
953.095378	2481.202991
953.396122	2480.678711
953.696828	2480.628299
953.997496	2482.622076
954.298126	2479.418423
954.598718	2480.252733
954.899272	2478.049749
955.199788	2478.894142
955.500266	2477.366673
955.800706	2477.676704
956.101108	2476.852475
956.401472	2473.512711
956.701798	2477.031436
957.002087	2472.302834
957.302337	2473.064048
957.602550	2473.041363
957.902724	2471.531537
958.202861	2472.600262
958.502960	2475.869450
958.803022	2469.999027
959.103045	2470.828296
959.403031	2469.363841
959.702979	2470.114973
960.002889	2469.389047
960.302762	2469.320991
960.602596	2469.411732
960.902393	2468.920220
961.202153	2468.625312
961.501875	2468.330405
961.801559	2463.642132
962.101205	2469.704119
962.400814	2467.997688
962.700385	2465.976186
962.999918	2467.455764
963.299414	2463.969807
963.598873	2465.126751
963.898293	2463.853860
964.197677	2467.304530
964.497022	2467.019705
964.796331	2468.849643
965.095601	2464.478963
965.394835	2467.332256
965.694030	2468.716053
965.993189	2469.320991
966.292309	2467.246557
966.591393	2466.024077
966.890439	2466.029118
967.189447	2467.581793
967.488419	2466.228243
967.787353	2466.591207
968.086249	2468.983234
968.385108	2466.656742
968.683930	2466.681947
968.982714	2469.636063
969.281462	2466.298820
969.580172	2468.395940
969.878844	2467.720425
970.177480	2467.496094
970.476078	2467.712863
970.774639	2468.075826
971.073162	2467.097842
971.371649	2469.207565
971.670098	2468.327884
971.968510	2468.476598
972.266885	2469.709160
972.565223	2469.265539
972.863524	2469.197483
973.161788	2470.059520
973.460014	2467.826289
973.758204	2467.254118
974.056356	2465.429221
974.354471	2468.544654
974.652550	2468.869808
974.950591	2468.073306
975.248595	2468.829479
975.546563	2469.482308
975.844493	2468.572380
976.142386	2467.357462
976.440243	2467.070116
976.738062	2467.430559
977.035845	2466.674386
977.333590	2469.452061
977.631299	2466.298820
977.928971	2466.608851
978.226606	2462.376802
978.524204	2465.010805
978.821765	2463.967286
979.119290	2468.229582
979.416777	2467.735548
979.714228	2470.157823
980.011642	2465.802266
980.309020	2466.623974
980.606360	2467.309571
980.903664	2466.316464
981.200931	2467.153295
981.498162	2471.347535
981.795356	2469.240333
982.092513	2476.328195
982.389633	2475.120839
982.686717	2478.019502
982.983764	2481.969246
983.280775	2481.061839
983.577749	2482.453197
983.874686	2483.184164
984.171587	2482.821201
984.468451	2481.084524
984.765279	2480.739205
985.062070	2479.252064
985.358824	2475.932465
985.655543	2476.103864
985.952224	2475.375417
986.248869	2471.566825
986.545478	2473.968935
986.842050	2470.087247
987.138586	2472.247381
987.435086	2471.218986
987.731549	2466.651700
988.027975	2467.120528
988.324366	2466.903758
988.620719	2465.371247
988.917037	2464.718418
989.213318	2463.937039
989.509563	2465.295630
989.805772	2466.744962
990.101944	2465.560291
990.398080	2465.532564
990.694180	2464.131123
990.990244	2462.550722
991.286271	2467.448203
991.582262	2464.327728
991.878217	2464.751185
992.174136	2465.787143
992.470019	2466.273614
992.765865	2462.200362
993.061676	2462.701956
993.357450	2463.284210
993.653188	2462.961576
993.948890	2466.901238
994.244556	2463.543829
994.540186	2466.293778
994.835780	2467.483491
995.131337	2468.073306
995.426859	2470.848461
995.722345	2469.734366
996.017795	2471.097998
996.313208	2472.262505
996.608586	2472.373410
996.903928	2478.160655
997.199234	2476.066055
997.494504	2475.236785
997.789738	2473.396764
998.084936	2474.067238
998.380099	2472.254943
998.675225	2471.816362
998.970316	2469.958697
999.265371	2470.175467
999.560390	2469.469705
999.855373	2467.705302
1000.150320	2469.091619
1000.445232	2465.895527
1000.740108	2462.833026
1001.034948	2466.137503
1001.329752	2465.857719
1001.624521	2464.168932
1001.919254	2464.481484
1002.213951	2463.942080
1002.508613	2463.541308
1002.803239	2464.002574
1003.097829	2464.441154
1003.392384	2464.549539
1003.686903	2464.657924
1003.981386	2464.216823
1004.275834	2461.297995
1004.570246	2462.732203
1004.864623	2461.734055
1005.158964	2463.140537
1005.453270	2462.437296
1005.747540	2464.567183
1006.041775	2464.678089
1006.335974	2464.549539
1006.630138	2462.850670
1006.924266	2460.602316
1007.218359	2463.458129
1007.512416	2460.461163
1007.806438	2459.450412
1008.100425	2459.775567
1008.394376	2458.598457
1008.688292	2466.939046
1008.982172	2461.754219
1009.276017	2463.420321
1009.569827	2459.488221
1009.863602	2463.198510
1010.157341	2462.437296
1010.451045	2462.454940
1010.744714	2461.146760
1011.038347	2465.381330
1011.331945	2463.775722
1011.625508	2464.194138
1011.919036	2461.250104
1012.212528	2464.720938
1012.505986	2464.428552
1012.799408	2463.485856
1013.092795	2464.758747
1013.386147	2464.088274
1013.679464	2465.237657
1013.972745	2460.778756
1014.265992	2464.481484
1014.559204	2461.658438
1014.852380	2462.243211
1015.145521	2463.382512
1015.438628	2461.759261
1015.731699	2461.905454
1016.024736	2462.785135
1016.317737	2460.801441
1016.610703	2463.460650
1016.903635	2463.785804
1017.196531	2460.703139
1017.489393	2461.751699
1017.782219	2462.694395
1018.075011	2461.930660
1018.367768	2462.197841
1018.660490	2463.896710
1018.953177	2463.896710
1019.245829	2463.896710
