Dividing Wavelength (nm)	Counts (n)	Blue Motor Position (mm): 0.000000	Red Motor Position (mm): 25.000000	
326.493990	2049.783565
326.888308	2049.783565
327.282561	2049.783565
327.676750	2024.207271
328.070874	2028.015863
328.464933	2032.144568
328.858929	2038.403161
329.252859	2050.161652
329.646726	2063.165308
330.040528	2079.188616
330.434265	2096.189907
330.827938	2118.325614
331.221547	2138.535599
331.615091	2158.027221
332.008571	2179.416837
332.401986	2197.839733
332.795338	2220.396376
333.188625	2237.155692
333.581847	2257.577406
333.975006	2277.058945
334.368100	2294.662655
334.761129	2309.342495
335.154095	2323.465287
335.546996	2345.618638
335.939833	2360.490042
336.332606	2373.473533
336.725315	2386.802344
337.117960	2398.686864
337.510540	2405.573080
337.903056	2414.168248
338.295508	2421.036820
338.687896	2428.669127
339.080220	2432.893614
339.472480	2439.686568
339.864676	2441.231682
340.256807	2445.178906
340.648875	2449.005141
341.040879	2447.757456
341.432818	2449.335337
341.824694	2450.325924
342.216506	2450.242745
342.608253	2449.763835
342.999937	2449.756273
343.391557	2450.048660
343.783113	2444.916766
344.174605	2446.451797
344.566033	2444.662187
344.957397	2444.379883
345.348697	2439.421908
345.739934	2440.281425
346.131106	2440.011723
346.522215	2436.714808
346.913260	2437.773451
347.304241	2432.419745
347.695159	2430.529312
348.086012	2432.243305
348.476802	2427.723910
348.867528	2428.943870
349.258191	2423.980854
349.648789	2422.332396
350.039324	2420.502458
350.429796	2424.280802
350.820203	2421.639238
351.210548	2422.365164
351.600828	2421.634197
351.991045	2419.771490
352.381198	2421.051943
352.771288	2421.979516
353.161314	2420.290729
353.551276	2421.566141
353.941175	2420.109248
354.331010	2420.570513
354.720782	2422.413055
355.110490	2421.316604
355.500135	2419.458939
355.889717	2420.757036
356.279235	2420.273085
356.668689	2421.442633
357.058080	2420.073959
357.447408	2424.137129
357.836672	2423.141502
358.225873	2423.189393
358.615010	2423.471697
359.004084	2426.002356
359.393095	2426.113262
359.782043	2426.340114
360.170927	2425.626790
360.559748	2426.698036
360.948505	2427.373550
361.337199	2427.308015
361.725830	2428.696853
362.114398	2431.792122
362.502903	2428.701894
362.891344	2431.976124
363.279722	2431.383788
363.668037	2431.562749
364.056289	2433.922009
364.444478	2432.661721
364.832603	2431.277924
365.220665	2434.340425
365.608665	2433.095260
365.996601	2434.496701
366.384474	2434.484098
366.772284	2435.497370
367.160031	2437.352514
367.547715	2435.313368
367.935336	2435.764551
368.322893	2432.714653
368.710388	2434.552153
369.097820	2436.767740
369.485189	2429.064857
369.872495	2439.754624
370.259738	2440.954419
370.646918	2438.166661
371.034035	2440.420056
371.421090	2444.256374
371.808081	2443.406940
372.195010	2442.668411
372.581875	2443.477516
372.968678	2448.642178
373.355418	2447.356684
373.742096	2446.991200
374.128710	2453.585030
374.515262	2455.427571
374.901751	2455.402366
375.288177	2460.826647
375.674540	2462.727162
376.060841	2470.692185
376.447079	2471.874336
376.833254	2476.431539
377.219367	2478.442959
377.605417	2486.619711
377.991404	2493.168170
378.377329	2500.014057
378.763191	2504.130159
379.148991	2513.108454
379.534727	2522.800072
379.920402	2532.569828
380.306013	2538.803215
380.691563	2551.690925
381.077049	2565.496124
381.462474	2573.627506
381.847835	2588.178796
382.233134	2602.223451
382.618371	2613.770214
383.003545	2630.761423
383.388657	2644.455717
383.773706	2664.348110
384.158693	2677.674400
384.543618	2693.730475
384.928480	2710.242775
385.313280	2731.284551
385.698017	2750.077972
386.082692	2773.194183
386.467305	2787.863941
386.851856	2811.995945
387.236344	2841.524503
387.620770	2855.428006
388.005133	2875.529607
388.389435	2908.314751
388.773674	2924.695980
389.157851	2956.772842
389.541965	2985.681339
389.926018	2994.853718
390.310008	3027.676671
390.693936	3055.450908
391.077802	3081.324630
391.461606	3112.494084
391.845348	3130.533853
392.229027	3160.193482
392.612645	3201.354503
392.996200	3230.207547
393.379694	3268.598454
393.763125	3313.976401
394.146494	3332.104390
394.529801	3373.361193
394.913047	3414.199580
395.296230	3422.295673
395.679351	3445.772327
396.062410	3495.604133
396.445408	3474.171667
396.828343	3519.819315
397.211217	3549.731001
397.594028	3521.664377
397.976778	3575.569435
398.359466	3603.381481
398.742092	3614.628295
399.124656	3630.749905
399.507158	3689.076055
399.889598	3696.224412
400.271977	3761.325872
400.654294	3748.309613
401.036549	3806.676092
401.418742	3808.339673
401.800874	3873.632698
402.182944	3904.603026
402.564952	3988.802898
402.946898	3982.705623
403.328783	3976.618430
403.710606	4024.847148
404.092367	4097.359105
404.474067	4164.587933
404.855705	4145.141682
405.237282	4119.018423
405.618797	4213.441755
406.000250	4290.062252
406.381642	4383.661356
406.762972	4376.066857
407.144240	4341.325746
407.525447	4408.015170
407.906593	4423.229372
408.287677	4508.313967
408.668700	4534.265827
409.049661	4570.728493
409.430560	4607.886838
409.811399	4593.680866
410.192176	4642.141478
410.572891	4724.062749
410.953545	4832.092155
411.334138	4723.689703
411.714669	4837.463504
412.095139	4754.145834
412.475547	4863.687587
412.855894	4868.610273
413.236180	4966.315397
413.616405	4893.566506
413.996568	4997.250437
414.376670	5002.848639
414.756711	4995.745653
415.136691	5068.948248
415.516609	5154.166433
415.896466	5185.960990
416.276262	5264.630717
416.655997	5379.097677
417.035670	5472.595957
417.415283	5613.712977
417.794834	5683.195200
418.174324	5643.778418
418.553753	5646.162884
418.933121	5810.688501
419.312428	5826.812632
419.691674	5751.661631
420.070859	5979.544470
420.449983	5858.587025
420.829045	6050.770933
421.208047	5975.751002
421.586988	6129.360001
421.965867	6202.005548
422.344686	6288.128620
422.723444	6461.403160
423.102141	6071.313635
423.480777	6468.372556
423.859352	6274.444408
424.237866	6644.112220
424.616319	6636.426981
424.994712	6799.820859
425.373044	6710.874741
425.751314	7032.875922
426.129524	6751.577017
426.507673	7018.717842
426.885762	7056.486166
427.263789	7099.555264
427.641756	7190.384253
428.019662	7263.458299
428.397508	7304.458003
428.775292	7284.774818
429.153016	7453.177083
429.530679	7387.808441
429.908282	7441.179137
430.285824	7381.766618
430.663305	7666.881677
431.040726	7540.479785
431.418086	7546.325003
431.795385	7675.028181
432.172624	7870.685444
432.549802	7751.976354
432.926920	7884.568782
433.303977	7827.588620
433.680974	7864.757047
434.057910	8071.393944
434.434786	8124.061398
434.811601	8074.915190
435.188355	8411.757528
435.565050	8301.562946
435.941683	8309.671642
436.318257	8644.442066
436.694770	8589.511133
437.071222	8812.269639
437.447614	8593.468439
437.823946	8555.528715
438.200218	8707.234678
438.576429	8582.531656
438.952580	8743.311696
439.328670	8743.972087
439.704700	8813.610586
440.080670	8708.200059
440.456580	8972.502714
440.832429	8935.412425
441.208218	8671.646653
441.583947	8778.670349
441.959616	8883.309579
442.335224	8913.697655
442.710773	8982.451431
443.086261	9158.932145
443.461689	8860.190848
443.837057	9016.217080
444.212365	9224.026044
444.587612	9184.140435
444.962800	9065.322959
445.337927	9175.535185
445.712995	8712.855565
446.088002	9346.843675
446.462949	9383.833142
446.837837	9346.231175
447.212664	9343.723201
447.587431	10102.520199
447.962139	11031.035202
448.336786	11888.260728
448.711374	11659.225986
449.085901	10488.128139
449.460369	10370.656651
449.834776	10120.287745
450.209124	10915.648232
450.583412	10705.762312
450.957640	10948.294744
451.331808	10534.552124
451.705917	9961.209095
452.079965	9803.335280
452.453954	9933.933932
452.827883	9826.529628
453.201752	9744.943595
453.575562	9696.805617
453.949311	9929.603581
454.323001	9921.855327
454.696632	9785.003124
455.070202	10208.205468
455.443713	10189.517911
455.817164	10253.490153
456.190556	10437.835067
456.563888	10253.948898
456.937160	10374.445078
457.310373	9885.334688
457.683526	9814.012443
458.056619	9742.029808
458.429653	9703.545639
458.802628	9717.020643
459.175542	9658.192899
459.548398	9953.208783
459.921194	10255.814125
460.293930	10351.366676
460.666607	10838.727786
461.039224	11280.050558
461.411782	11401.088662
461.784280	11065.194061
462.156719	10903.226829
462.529099	10721.215969
462.901419	10175.753041
463.273680	9784.055387
463.645882	9795.473600
464.018024	9588.206560
464.390106	9682.670221
464.762130	10172.332618
465.134094	10908.686398
465.505999	12042.565407
465.877845	13185.425230
466.249631	13714.653123
466.621358	13283.737813
466.993026	12640.698310
467.364634	12047.210830
467.736184	11438.816657
468.107674	10946.961359
468.479105	10720.472399
468.850477	10415.865719
469.221790	10061.205422
469.593043	9611.224468
469.964238	9277.852964
470.335373	9155.630189
470.706449	9301.339700
471.077467	9510.247636
471.448425	10350.678558
471.819324	10956.479057
472.190164	10780.522623
472.560945	9961.060381
472.931667	9203.364875
473.302330	8918.108664
473.672934	8577.271212
474.043479	8578.975122
474.413965	8377.359215
474.784393	8178.026950
475.154761	8266.388295
475.525070	8183.708331
475.895321	8004.520517
476.265513	8033.960856
476.635645	8087.152591
477.005719	7974.364335
477.375734	7953.766180
477.745691	8002.284766
478.115588	8046.112557
478.485427	8226.122079
478.855207	8564.688492
479.224928	8898.506137
479.594591	9104.225544
479.964194	8875.336994
480.333739	8817.704003
480.703226	8714.751039
481.072653	8656.001432
481.442022	8629.164849
481.811333	8567.135972
482.180584	8327.429106
482.549777	8130.851833
482.918912	7943.295704
483.287988	7791.985471
483.657005	7629.609906
484.025964	7423.401508
484.394864	7318.167421
484.763706	7175.570823
485.132489	6957.094777
485.501213	6846.673343
485.869879	6753.795125
486.238487	6627.143696
486.607036	6542.527929
486.975527	6389.690226
487.343959	6322.373178
487.712333	6257.483446
488.080648	6146.580582
488.448905	6093.351039
488.817104	5963.503518
489.185244	5956.057734
489.553326	5954.278207
489.921350	6060.323919
490.289315	6228.844651
490.657222	6221.449278
491.025070	6169.734602
491.392861	6021.675913
491.760593	5826.147200
492.128267	5610.385815
492.495883	5413.679992
492.863440	5226.025561
493.230939	5046.159712
493.598380	4901.473555
493.965763	4796.383142
494.333088	4671.891847
494.700354	4576.866098
495.067563	4494.660002
495.434713	4403.687339
495.801805	4342.583514
496.168839	4256.921707
496.535815	4176.931198
496.902733	4115.139255
497.269593	4037.422307
497.636395	3975.441320
498.003139	3930.058333
498.369825	3854.471272
498.736453	3811.974345
499.103023	3749.189294
499.469535	3697.991336
499.835989	3646.185918
500.202385	3589.616611
500.568723	3539.114331
500.935003	3503.851460
501.301226	3452.923203
501.667390	3438.344187
502.033497	3402.289854
502.399546	3353.670446
502.765537	3305.139258
503.131470	3282.421298
503.497345	3257.351640
503.863163	3200.810058
504.228923	3185.981504
504.594625	3166.283196
504.960269	3128.169552
505.325856	3111.145576
505.691385	3082.146338
506.056856	3063.141188
506.422270	3050.555948
506.787625	3021.770959
507.152924	3005.775378
507.518164	2992.663337
507.883347	2967.535705
508.248472	2952.951647
508.613540	2946.498970
508.978550	2934.145623
509.343503	2920.610125
509.708398	2910.285842
510.073236	2907.558578
510.438016	2895.036351
510.802738	2880.104454
511.167403	2876.961294
511.532010	2868.726569
511.896561	2867.738503
512.261053	2864.194572
512.625488	2852.017665
512.989866	2846.832838
513.354186	2838.351097
513.718449	2832.120231
514.082655	2833.816579
514.446803	2824.598829
514.810894	2822.746205
515.174927	2816.122129
515.538904	2811.653146
515.902822	2811.176757
516.266684	2806.584266
516.630488	2802.269038
516.994235	2795.952472
517.357925	2796.144036
517.721558	2795.352575
518.085133	2791.911988
518.448651	2790.692028
518.812112	2778.467230
519.175516	2778.056376
519.538863	2776.475975
519.902152	2778.210132
520.265385	2777.254833
520.628560	2773.015222
520.991678	2769.166302
521.354739	2765.665220
521.717743	2768.490787
522.080690	2762.406114
522.443580	2764.397370
522.806413	2757.170876
523.169189	2756.165166
523.531908	2754.057963
523.894569	2752.585947
524.257174	2749.687283
524.619722	2746.866757
524.982213	2746.581932
525.344647	2744.444483
525.707025	2740.769482
526.069345	2739.859554
526.431608	2736.391240
526.793815	2738.387537
527.155964	2735.221692
527.518057	2731.841598
527.880093	2730.283882
528.242072	2731.327401
528.603995	2726.233315
528.965860	2723.090155
529.327669	2722.364229
529.689421	2719.614280
530.051117	2721.713920
530.412755	2717.567571
530.774337	2715.167982
531.135862	2713.204453
531.497331	2713.708568
531.858743	2710.625902
532.220098	2712.397868
532.581396	2706.845037
532.942638	2705.199100
533.303824	2703.747248
533.664953	2701.773636
534.026025	2700.735159
534.387040	2699.242977
534.747999	2699.303471
535.108902	2700.450333
535.469748	2694.070753
535.830537	2694.559745
536.191270	2693.329704
536.551947	2694.196782
536.912567	2689.359795
537.273131	2689.526153
537.633638	2683.557427
537.994089	2689.112778
538.354483	2685.435257
538.714821	2686.808971
539.075103	2686.572037
539.435328	2686.655216
539.795497	2683.345698
540.155609	2681.107426
540.515665	2686.468693
540.875665	2679.345543
541.235609	2681.057015
541.595496	2678.062569
541.955328	2682.773527
542.315102	2678.402847
542.674821	2676.217507
543.034483	2675.463854
543.394090	2675.491581
543.753640	2672.633247
544.113134	2675.216838
544.472571	2672.597958
544.831953	2677.313958
545.191278	2673.553257
545.550548	2670.599141
545.909761	2670.616785
546.268918	2672.872701
546.628019	2670.768020
546.987064	2671.125942
547.346053	2665.893224
547.704986	2669.013698
548.063863	2666.362051
548.422684	2666.210817
548.781449	2663.672596
549.140158	2667.324912
549.498811	2665.094201
549.857408	2657.983653
550.215949	2662.387101
550.574434	2663.095383
550.932864	2662.268634
551.291237	2663.944818
551.649555	2664.083450
552.007817	2660.796617
552.366022	2660.080773
552.724173	2662.941628
553.082267	2662.208140
553.440305	2663.596978
553.798288	2660.673109
554.156215	2659.526247
554.514086	2657.502223
554.871902	2654.343940
555.229661	2658.812923
555.587365	2651.586429
555.945014	2657.953407
556.302606	2654.444763
556.660143	2659.246462
557.017625	2659.647234
557.375050	2656.282264
557.732421	2658.707059
558.089735	2658.344096
558.446994	2656.604898
558.804197	2657.958448
559.161345	2659.117913
559.518437	2656.788900
559.875474	2656.183962
560.232455	2656.307470
560.589381	2658.107162
560.946251	2657.640855
561.303065	2658.838129
561.659825	2658.926349
562.016528	2654.495175
562.373177	2652.619866
562.729770	2657.885351
563.086307	2654.190185
563.442789	2652.506440
563.799216	2655.261430
564.155587	2656.226811
564.511904	2656.488951
564.868164	2654.429640
565.224370	2659.619508
565.580520	2652.584578
565.936615	2656.534322
566.292654	2654.117088
566.648638	2654.074239
567.004567	2657.411482
567.360441	2653.923004
567.716260	2654.318735
568.072023	2654.487613
568.427732	2653.862510
568.783385	2653.789413
569.138982	2652.876965
569.494525	2655.581544
569.850013	2655.200937
570.205445	2653.963333
570.560823	2654.694301
570.916145	2655.652120
571.271412	2651.538538
571.626625	2650.893271
571.981782	2651.924187
572.336884	2649.549803
572.691931	2647.992087
573.046923	2648.642395
573.401860	2645.378248
573.756743	2646.930924
574.111570	2647.772796
574.466342	2648.927221
574.821059	2650.280770
575.175722	2649.955616
575.530330	2647.843372
575.884882	2647.669453
576.239380	2646.762045
576.593823	2646.046201
576.948211	2646.915800
577.302544	2644.685090
577.656823	2644.337250
578.011047	2645.867240
578.365216	2646.646098
578.719330	2643.427322
579.073389	2642.512352
579.427394	2643.127373
579.781344	2643.220634
580.135239	2643.513021
580.489080	2642.459420
580.842866	2638.711322
581.196597	2640.463123
581.550273	2642.817342
581.903895	2640.609317
582.257463	2641.418422
582.610975	2641.370531
582.964434	2641.599903
583.317837	2641.710809
583.671186	2638.605458
584.024481	2642.449338
584.377721	2639.550674
584.730906	2637.488842
585.084037	2641.433545
585.437113	2639.507825
585.790135	2640.536220
586.143103	2636.730149
586.496016	2638.633184
586.848874	2636.914151
587.201679	2639.568318
587.554428	2636.689820
587.907124	2638.305509
588.259765	2635.482463
588.612352	2636.183184
588.964884	2635.827782
589.317362	2636.498256
589.669786	2635.613533
590.022155	2635.961373
590.374470	2632.964407
590.726731	2633.309726
591.078937	2628.649179
591.431090	2632.745117
591.783188	2630.955507
592.135232	2632.724952
592.487222	2632.392236
592.839157	2632.019191
593.191038	2633.097997
593.542866	2632.820734
593.894639	2627.272944
594.246358	2628.727317
594.598022	2629.090280
594.949633	2629.622122
595.301190	2625.450567
595.652692	2628.755043
596.004141	2630.612709
596.355535	2626.065588
596.706876	2625.405197
597.058162	2623.146760
597.409395	2626.370578
597.760573	2626.806637
598.111698	2626.728500
598.462768	2626.214302
598.813785	2622.602315
599.164748	2624.739764
599.515657	2623.038375
599.866511	2622.753550
600.217312	2624.328910
600.568060	2618.642489
600.918753	2623.703807
601.269392	2623.245062
601.619978	2621.735237
601.970510	2623.003087
602.320988	2623.900412
602.671412	2624.041565
603.021783	2622.670371
603.372100	2622.753550
603.722363	2620.817747
604.072572	2624.712038
604.422728	2622.546862
604.772830	2619.711213
605.122878	2620.540483
605.472872	2621.021913
605.822813	2620.096862
606.172701	2620.744650
606.522534	2621.152983
606.872314	2623.948303
607.222041	2620.951337
607.571714	2620.386728
607.921333	2616.885647
608.270899	2619.126440
608.620411	2617.117540
608.969870	2620.260699
609.319276	2623.660957
609.668627	2623.219857
610.017926	2622.186420
610.367171	2620.767335
610.716362	2622.675412
611.065500	2621.765484
611.414585	2620.172479
611.763616	2623.461832
612.112594	2623.991153
612.461518	2623.827316
612.810389	2622.854373
613.159207	2621.886471
613.507971	2624.154991
613.856682	2624.230608
614.205340	2622.751029
614.553945	2626.647841
614.902496	2624.656585
615.250994	2627.494755
615.599439	2625.085083
615.947830	2625.135495
616.296169	2627.925774
616.644454	2626.630197
616.992686	2623.862604
617.340864	2628.223202
617.688990	2624.853190
618.037063	2625.231277
618.385082	2626.920063
618.733048	2630.421145
619.080961	2626.894858
619.428821	2629.919550
619.776628	2629.296967
620.124382	2626.405866
620.472083	2627.008284
620.819731	2626.907461
621.167326	2629.415435
621.514868	2625.916874
621.862357	2623.650875
622.209793	2625.228756
622.557176	2624.522995
622.904506	2622.337655
623.251783	2620.185082
623.599007	2619.701131
623.946179	2618.070318
624.293297	2616.976387
624.640363	2616.855400
624.987376	2617.745163
625.334336	2609.616303
625.681243	2613.634102
626.028097	2607.957763
626.374899	2611.007661
626.721647	2611.156375
627.068343	2612.890532
627.414987	2607.375510
627.761577	2608.590428
628.108115	2610.090171
628.454600	2604.345777
628.801032	2606.256374
629.147412	2607.196549
629.493739	2607.078082
629.840014	2603.864346
630.186236	2605.971549
630.532405	2602.800663
630.878521	2603.309819
631.224585	2604.665890
631.570597	2600.264962
631.916556	2602.674634
632.262462	2606.021960
632.608316	2605.396857
632.954117	2603.040118
633.299866	2601.431990
633.645562	2604.615478
633.991206	2600.751434
634.336797	2600.653131
634.682336	2601.726897
635.027823	2596.685743
635.373257	2597.958635
635.718639	2596.458891
636.063968	2596.506782
636.409245	2595.065012
636.754470	2597.333532
637.099642	2593.199785
637.444762	2590.984198
637.789829	2591.914291
638.134845	2588.493868
638.479808	2590.593509
638.824719	2590.976637
639.169577	2589.035792
639.514383	2587.387335
639.859137	2587.634352
640.203839	2587.205853
640.548489	2587.485637
640.893086	2585.171748
641.237632	2585.471697
641.582125	2586.086717
641.926566	2585.660740
642.270955	2582.996490
642.615292	2581.315265
642.959576	2584.012282
643.303809	2580.344843
643.647990	2585.761563
643.992118	2583.036819
644.336195	2583.059504
644.680219	2583.435070
645.024192	2583.326686
645.368112	2586.797520
645.711981	2586.951275
646.055797	2590.792634
646.399562	2586.253075
646.743274	2593.277923
647.086935	2591.556369
647.430544	2589.308015
647.774101	2592.171390
648.117606	2593.247676
648.461059	2593.726586
648.804460	2596.431165
649.147810	2590.747264
649.491108	2588.889599
649.834354	2586.580750
650.177548	2588.498909
650.520690	2585.708631
650.863781	2583.490523
651.206820	2581.968095
651.549807	2584.002200
651.892742	2584.027406
652.235626	2579.802919
652.578458	2580.861561
652.921238	2578.114132
653.263967	2578.588001
653.606644	2576.281673
653.949269	2579.381983
654.291843	2576.009451
654.634365	2578.482137
654.976836	2572.793195
655.319255	2573.143555
655.661622	2577.095819
656.003938	2575.775037
656.346203	2574.350911
656.688416	2573.151117
657.030577	2574.635736
657.372687	2572.707495
657.714746	2572.647001
658.056753	2572.667166
658.398708	2573.347722
658.740612	2573.526683
659.082465	2572.452917
659.424266	2570.012998
659.766016	2568.949315
660.107715	2570.045766
660.449362	2567.802452
660.790958	2575.016343
661.132503	2574.570201
661.473996	2570.345714
661.815438	2574.126580
662.156829	2573.440983
662.498168	2573.287228
662.839456	2572.765468
663.180693	2576.886612
663.521879	2573.350242
663.863013	2571.883266
664.204097	2574.913000
664.545129	2573.599779
664.886110	2572.773030
665.227040	2573.962742
665.567918	2574.761765
665.908746	2572.591548
666.249522	2577.428536
666.590248	2572.553740
666.930922	2572.079871
667.271545	2574.592887
667.612118	2575.654049
667.952639	2574.918041
668.293109	2574.156827
668.633528	2574.418967
668.973896	2574.504666
669.314213	2573.163719
669.654480	2571.951322
669.994695	2574.686148
670.334859	2572.092474
670.674973	2571.303534
671.015035	2573.531724
671.355047	2570.746486
671.695008	2571.994172
672.034918	2570.920406
672.374777	2574.902918
672.714585	2568.485529
673.054342	2571.953842
673.394049	2570.076013
673.733705	2573.753534
674.073310	2571.991651
674.412864	2573.088102
674.752368	2570.996023
675.091820	2573.166240
675.431223	2570.025601
675.770574	2569.544171
676.109875	2568.336815
676.449125	2566.859757
676.788324	2562.403377
677.127473	2566.479149
677.466571	2562.610064
677.805619	2564.528223
678.144616	2567.048800
678.483562	2561.753068
678.822458	2561.833726
679.161303	2562.559652
679.500098	2565.266752
679.838842	2562.804148
680.177535	2565.276834
680.516179	2565.085270
680.854771	2562.668037
681.193314	2567.948646
681.531805	2567.507545
681.870247	2571.646332
682.208638	2572.052145
682.546978	2573.534244
682.885268	2577.146231
683.223508	2573.781261
683.561697	2573.423339
683.899836	2575.182702
684.237925	2571.404357
684.575963	2568.969479
684.913951	2567.384037
685.251889	2570.330591
685.589776	2571.119532
685.927614	2571.870663
686.265401	2569.100549
686.603137	2570.088616
686.940824	2572.808318
687.278460	2574.565160
687.616046	2572.974676
687.953582	2573.776220
688.291068	2577.415933
688.628504	2577.093299
688.965889	2577.867116
689.303224	2577.501632
689.640510	2575.802763
689.977745	2576.379976
690.314930	2572.223544
690.652065	2572.505849
690.989150	2567.792370
691.326185	2565.400342
691.663170	2560.893551
692.000105	2558.766184
692.336990	2557.311811
692.673825	2559.686195
693.010610	2558.226781
693.347345	2550.702858
693.684030	2546.347302
694.020665	2550.241593
694.357251	2544.668597
694.693786	2547.587425
695.030272	2550.105482
695.366707	2544.955943
695.703093	2543.456200
696.039429	2545.702034
696.375716	2545.659184
696.711952	2545.192877
697.048139	2544.159441
697.384276	2542.778165
697.720363	2544.507280
698.056400	2542.233720
698.392388	2544.449307
698.728326	2542.407640
699.064214	2543.733463
699.400053	2539.473688
699.735842	2540.340767
700.071581	2541.001158
700.407270	2539.062834
700.742910	2539.718184
701.078501	2535.191228
701.414042	2536.733821
701.749533	2537.484953
702.084974	2533.099149
702.420366	2537.888245
702.755709	2536.380940
703.091002	2531.669982
703.426246	2533.741896
703.761440	2533.605785
704.096584	2533.474715
704.431679	2531.485980
704.766725	2530.969262
705.101721	2531.359951
705.436668	2535.402957
705.771565	2530.979344
706.106413	2531.090249
706.441212	2535.536547
706.775961	2536.809438
707.110661	2532.060672
707.445311	2536.038142
707.779913	2535.949922
708.114465	2531.075126
708.448967	2535.884387
708.783421	2538.483102
709.117825	2540.509645
709.452180	2539.017464
709.786485	2541.679193
710.120742	2539.894625
710.454949	2537.900848
710.789107	2541.500232
711.123216	2542.992414
711.457275	2546.014585
711.791286	2549.651778
712.125247	2552.860472
712.459159	2547.685728
712.793023	2553.409958
713.126837	2545.449976
713.460602	2552.121943
713.794318	2548.144473
714.127985	2550.513815
714.461602	2545.054246
714.795171	2545.891077
715.128691	2541.631302
715.462162	2540.320602
715.795584	2537.825231
716.128957	2536.398584
716.462281	2538.626774
716.795556	2535.188708
717.128782	2535.075282
717.461960	2534.470343
717.795088	2532.436237
718.128167	2531.241484
718.461198	2529.376257
718.794180	2528.368026
719.127113	2530.185362
719.459997	2530.076978
719.792833	2527.183355
720.125619	2525.696215
720.458357	2525.456760
720.791046	2527.412728
721.123686	2524.652696
721.456278	2524.945083
721.788821	2526.495238
722.121315	2525.209743
722.453761	2522.492562
722.786158	2522.669002
723.118506	2523.677233
723.450805	2522.492562
723.783056	2525.839888
724.115259	2522.628673
724.447412	2523.830988
724.779518	2522.943745
725.111574	2523.601615
725.443582	2524.904754
725.775542	2523.059691
726.107453	2525.139167
726.439315	2527.188396
726.771129	2529.262831
727.102895	2526.091945
727.434612	2527.405166
727.766281	2526.870804
728.097901	2530.071936
728.429473	2532.902544
728.760996	2531.745599
729.092471	2531.914478
729.423897	2533.096629
729.755276	2532.612678
730.086606	2531.843902
730.417887	2533.386495
730.749120	2534.445137
731.080305	2537.389171
731.411442	2537.283307
731.742530	2536.726259
732.073570	2539.171219
732.404562	2540.781868
732.735506	2538.473019
733.066401	2540.363452
733.397249	2539.632485
733.728048	2536.738862
734.058798	2532.905065
734.389501	2529.177132
734.720156	2530.276103
735.050762	2527.354754
735.381320	2525.005577
735.711831	2522.782428
736.042293	2520.899557
736.372707	2522.348889
736.703073	2519.808147
737.033391	2522.850483
737.363661	2522.865607
737.693883	2522.520288
738.024056	2523.100021
738.354182	2522.210257
738.684260	2522.976512
739.014290	2524.561955
739.344272	2528.302491
739.674207	2527.049765
740.004093	2529.451874
740.333931	2527.112779
740.663722	2527.432892
740.993464	2530.870959
741.323159	2528.705784
741.652806	2527.463139
741.982405	2526.560773
742.311956	2528.627646
742.641460	2526.981709
742.970915	2525.096317
743.300323	2523.054650
743.629683	2518.338651
743.958996	2520.420647
744.288260	2515.873527
744.617477	2518.678929
744.946647	2517.426202
745.275768	2519.243538
745.604842	2517.219515
745.933869	2516.123064
746.262847	2518.313445
746.591778	2520.221522
746.920662	2514.885460
747.249498	2518.227745
747.578286	2516.428053
747.907027	2517.527025
748.235720	2516.808661
748.564365	2518.217663
748.892963	2518.414268
749.221514	2518.772190
749.550017	2517.428722
749.878473	2519.243538
750.206881	2518.880575
750.535242	2519.384690
750.863555	2516.047446
751.191821	2516.647344
751.520039	2516.566685
751.848210	2516.919566
752.176334	2515.631551
752.504411	2516.702796
752.832440	2515.946623
753.160421	2518.205060
753.488356	2513.935203
753.816243	2515.634072
754.144082	2514.787158
754.471875	2512.163237
754.799620	2514.726664
755.127318	2512.521159
755.454969	2515.316479
755.782572	2517.370749
756.110129	2513.867147
756.437638	2515.321520
756.765100	2513.794051
757.092515	2515.306397
757.419882	2513.350429
757.747203	2513.307579
758.074477	2512.995028
758.401703	2513.191633
758.728882	2516.569206
759.056014	2514.467045
759.383099	2517.227076
759.710138	2516.725482
760.037129	2512.248937
760.364073	2517.978208
760.690970	2512.334637
761.017820	2517.542148
761.344623	2518.888137
761.671379	2520.014834
761.998088	2523.389887
762.324751	2526.160001
762.651366	2534.402288
762.977935	2555.691080
763.304456	2568.205745
763.630931	2573.690520
763.957359	2574.136662
764.283740	2565.743141
764.610074	2558.536812
764.936362	2546.480892
765.262602	2539.569470
765.588796	2533.525127
765.914943	2529.136802
766.241044	2519.498116
766.567097	2517.484175
766.893104	2516.886798
767.219064	2515.293794
767.544978	2510.287928
767.870845	2509.763648
768.196665	2509.516632
768.522438	2506.227279
768.848165	2506.156702
769.173846	2505.952536
769.499479	2505.445900
769.825066	2504.631753
770.150607	2505.990344
770.476101	2502.688389
770.801548	2503.116887
771.126949	2502.287617
771.452303	2502.537154
771.777611	2500.306443
772.102872	2501.148316
772.428087	2499.237719
772.753256	2498.509272
773.078378	2500.329129
773.403453	2498.962976
773.728482	2495.275372
774.053465	2499.388953
774.378401	2498.552122
774.703291	2497.990033
775.028135	2498.345435
775.352932	2497.730414
775.677683	2492.938797
776.002388	2494.501555
776.327046	2488.182468
776.651658	2492.805207
776.976224	2489.883858
777.300743	2494.935094
777.625216	2494.015083
777.949643	2495.020794
778.274024	2493.044661
778.598359	2495.940804
778.922647	2494.693119
779.246889	2494.262100
779.571086	2492.898468
779.895236	2494.466267
780.219339	2493.589106
780.543397	2492.227994
780.867409	2492.409476
781.191374	2495.010711
781.515294	2490.962665
781.839167	2493.493324
782.162995	2495.411483
782.486776	2494.836792
782.810511	2492.976606
783.134201	2494.330156
783.457844	2490.612305
783.781441	2492.439723
784.104993	2494.413335
784.428498	2494.183962
784.751958	2493.606750
785.075372	2493.344610
785.398739	2492.149857
785.722061	2491.973416
786.045337	2492.754795
786.368568	2494.955259
786.691752	2492.031389
787.014891	2495.819817
787.337983	2495.958448
787.661030	2498.965497
787.984031	2504.919099
788.306987	2502.816938
788.629897	2502.070847
788.952760	2506.270128
789.275579	2502.486743
789.598351	2504.407422
789.921078	2501.952380
790.243759	2498.252173
790.566395	2500.119921
790.888984	2497.148161
791.211529	2496.770074
791.534027	2494.773777
791.856480	2493.982316
792.178888	2490.395535
792.501249	2489.893940
792.823566	2490.229177
793.145836	2486.387818
793.468062	2492.565752
793.790241	2491.088694
794.112375	2494.488952
794.434464	2494.660351
794.756507	2491.250011
795.078505	2490.929897
795.400457	2495.434168
795.722364	2496.853253
796.044226	2499.146978
796.366042	2499.038593
796.687812	2497.687564
797.009538	2499.114211
797.331218	2498.930208
797.652852	2498.806700
797.974442	2495.537512
798.295986	2499.081443
798.617484	2498.912564
798.938938	2495.930722
799.260346	2496.477687
799.581709	2494.700680
799.903026	2495.146822
800.224299	2494.226812
800.545526	2492.341420
800.866708	2493.049702
801.187845	2494.030207
801.508936	2492.338900
801.829983	2492.190186
802.150984	2491.615494
802.471940	2492.283447
802.792851	2489.490648
803.113717	2492.825371
803.434538	2490.597181
803.755314	2491.673467
804.076045	2490.650113
804.396731	2492.051554
804.717372	2490.088025
805.037967	2489.762870
805.358518	2489.059629
805.679024	2492.175062
805.999485	2489.256234
806.319901	2492.969044
806.640272	2488.679022
806.960598	2492.772439
807.280879	2490.090545
807.601115	2493.692450
807.921306	2493.067347
808.241453	2491.933087
808.561554	2485.245996
808.881611	2490.750936
809.201623	2486.896974
809.521590	2489.911584
809.841513	2491.628097
810.161390	2490.753457
810.481223	2489.258755
810.801011	2493.173211
811.120755	2491.401245
811.440453	2490.629949
811.760107	2492.192706
812.079716	2490.889568
812.399281	2488.986532
812.718801	2491.262613
813.038276	2487.327993
813.357707	2488.976450
813.677093	2490.181286
813.996434	2491.537356
814.315731	2490.425782
814.634983	2488.961327
814.954191	2490.634990
815.273354	2489.646924
815.592473	2490.766060
815.911547	2493.140443
816.230577	2491.655823
816.549562	2494.849394
816.868502	2493.541215
817.187399	2494.927532
817.506250	2496.124806
817.825058	2494.798983
818.143821	2496.386946
818.462539	2498.738645
818.781213	2499.613285
819.099843	2503.973883
819.418429	2505.584532
819.736970	2514.998886
820.055466	2520.060205
820.373919	2526.046575
820.692327	2536.212062
821.010691	2558.889692
821.329011	2597.467122
821.647286	2666.281393
821.965517	2752.812798
822.283704	2817.100113
822.601847	2854.986905
822.919945	2831.227947
823.237999	2795.186217
823.556010	2755.076277
823.873976	2712.319730
824.191897	2674.926972
824.509775	2644.478402
824.827609	2621.508385
825.145398	2598.853439
825.463144	2592.990577
825.780845	2589.328179
826.098502	2593.608119
826.416116	2612.305758
826.733685	2633.362658
827.051210	2643.475213
827.368692	2637.904738
827.686129	2621.037037
828.003522	2600.753954
828.320872	2577.423494
828.638177	2562.163922
828.955439	2547.995759
829.272656	2539.566950
829.589830	2529.898017
829.906960	2520.556758
830.224046	2515.278670
830.541088	2508.316837
830.858086	2506.756600
831.175041	2506.393637
831.491952	2503.961280
831.808819	2501.395333
832.125642	2503.293327
832.442421	2506.892711
832.759157	2514.262878
833.075849	2534.039324
833.392497	2548.562889
833.709101	2560.936401
834.025662	2565.654921
834.342179	2561.284240
834.658653	2547.839483
834.975083	2536.126362
835.291469	2532.854653
835.607811	2520.226563
835.924110	2512.684997
836.240366	2507.921106
836.556578	2504.735097
836.872746	2503.099243
837.188871	2495.214878
837.504952	2492.724548
837.820990	2489.409989
838.136984	2489.485607
838.452935	2488.419403
838.768842	2487.685915
839.084706	2490.662716
839.400526	2496.265959
839.716303	2505.415653
840.032037	2512.778258
840.347727	2512.284225
840.663373	2506.953205
840.978977	2500.908861
841.294537	2499.502379
841.610054	2495.280413
841.925527	2493.609271
842.240957	2491.129023
842.556344	2487.958137
842.871687	2486.660040
843.186987	2486.614670
843.502244	2481.266005
843.817458	2482.065028
844.132629	2479.720892
844.447756	2480.340954
844.762840	2479.972949
845.077881	2480.547641
845.392879	2475.907259
845.707833	2478.725264
846.022745	2478.052270
846.337613	2477.734677
846.652438	2476.043370
846.967221	2477.217959
847.281960	2476.398771
847.596656	2475.942547
847.911309	2472.567494
848.225919	2474.311734
848.540485	2476.529841
848.855009	2475.680407
849.169490	2475.009933
849.483928	2473.953812
849.798323	2475.254429
850.112675	2476.444142
850.426984	2476.333236
850.741251	2475.491364
851.055474	2478.193422
851.369654	2478.344657
851.683792	2475.685448
851.997887	2474.747793
852.311938	2476.237454
852.625947	2475.788792
852.939914	2476.088740
853.253837	2476.313072
853.567718	2474.536065
853.881555	2474.120170
854.195350	2474.495736
854.509103	2476.582773
854.822812	2476.383648
855.136479	2475.070427
855.450103	2474.377269
855.763685	2472.602782
856.077224	2473.777371
856.390720	2474.062197
856.704173	2473.873153
857.017584	2476.640747
857.330953	2474.001703
857.644278	2474.752835
857.957561	2481.699545
858.270802	2474.979687
858.584000	2473.883236
858.897155	2475.647639
859.210268	2476.834831
859.523339	2475.748462
859.836367	2475.629995
860.149352	2473.769810
860.462295	2474.059676
860.775195	2476.368524
861.088054	2475.138483
861.400869	2475.377938
861.713642	2472.146558
862.026373	2475.589666
862.339062	2478.137969
862.651708	2474.823411
862.964312	2475.924903
863.276873	2476.993628
863.589392	2476.139152
863.901869	2475.569502
864.214303	2477.283494
864.526696	2475.299800
864.839045	2478.258957
865.151353	2476.234934
865.463619	2477.810294
865.775842	2476.292907
866.088023	2479.042857
866.400162	2478.291725
866.712258	2477.205356
867.024313	2478.997486
867.336325	2480.282980
867.648296	2477.815336
867.960224	2476.222331
868.272110	2477.966570
868.583954	2480.073773
868.895755	2479.443628
869.207515	2478.899184
869.519233	2476.532362
869.830909	2479.438587
870.142542	2480.323310
870.454134	2479.466313
870.765684	2476.600417
871.077191	2480.426653
871.388657	2479.811632
871.700081	2474.604121
872.011463	2476.335757
872.322803	2474.848617
872.634101	2478.281642
872.945357	2485.233393
873.256571	2482.604432
873.567744	2480.348515
873.878874	2478.679893
874.189963	2482.848928
874.501010	2483.070738
874.812015	2479.181488
875.122979	2483.506798
875.433900	2483.025368
875.744780	2481.941520
876.055618	2482.153248
876.366415	2488.149701
876.677169	2485.036788
876.987882	2484.918321
877.298554	2488.071563
877.609183	2486.977633
877.919771	2484.162148
878.230317	2488.905874
878.540822	2489.105000
878.851285	2492.137254
879.161707	2494.698160
879.472087	2500.954232
879.782425	2513.010151
880.092722	2527.208561
880.402977	2554.574465
880.713191	2585.451532
881.023363	2624.507871
881.333494	2651.213384
881.643583	2663.223933
881.953631	2664.801814
882.263637	2655.861328
882.573602	2645.116108
882.883526	2631.711680
883.193408	2619.754063
883.503248	2603.952567
883.813048	2591.483272
884.122806	2581.869792
884.432522	2568.019222
884.742197	2550.990204
885.051831	2545.230686
885.361424	2533.240302
885.670975	2525.033303
885.980485	2517.804288
886.289954	2514.807323
886.599382	2507.643843
886.908768	2501.375168
887.218113	2496.402070
887.527417	2495.098932
887.836680	2488.379073
888.145901	2494.584734
888.455082	2490.584578
888.764221	2489.447798
889.073319	2488.177427
889.382376	2485.868579
889.691392	2485.934114
890.000366	2487.857314
890.309300	2485.442601
890.618193	2488.439567
890.927044	2486.609628
891.235855	2487.501913
891.544625	2487.242293
891.853353	2486.831439
892.162041	2488.736995
892.470687	2491.313025
892.779293	2489.651965
893.087858	2494.647748
893.396381	2498.806700
893.704864	2506.290293
894.013306	2514.305728
894.321707	2525.121523
894.630068	2531.576721
894.938387	2536.832124
895.246665	2535.450848
895.554903	2531.067564
895.863100	2525.577748
896.171256	2521.935514
896.479371	2516.604494
896.787446	2516.218846
897.095480	2510.093844
897.403473	2506.648215
897.711425	2501.922133
898.019336	2501.816269
898.327207	2500.752586
898.635038	2498.431134
898.942827	2491.973416
899.250576	2490.690442
899.558284	2490.791266
899.865952	2488.245483
900.173579	2488.724392
900.481165	2483.965543
900.788711	2482.947230
901.096216	2485.606439
901.403681	2483.957982
901.711105	2484.525111
902.018489	2485.888743
902.325832	2481.760038
902.633135	2481.777683
902.940397	2486.297077
903.247619	2489.951913
903.554800	2506.938081
903.861941	2521.459125
904.169041	2545.051725
904.476101	2548.898125
904.783121	2548.141952
905.090100	2543.748587
905.397039	2535.949922
905.703938	2528.998171
906.010796	2521.333096
906.317614	2516.662467
906.624391	2508.702485
906.931129	2503.184942
907.237826	2501.808707
907.544483	2497.432986
907.851099	2493.689929
908.157675	2489.999804
908.464211	2483.514360
908.770707	2487.264978
909.077163	2478.725264
909.383578	2481.502940
909.689954	2477.565798
909.996289	2475.186374
910.302584	2477.364152
910.608839	2475.761065
910.915054	2477.137300
911.221229	2476.484471
911.527363	2476.718885
911.833458	2476.630664
912.139513	2478.707620
912.445527	2476.484471
912.751502	2477.366673
913.057436	2479.098309
913.363331	2480.766931
913.669186	2482.632158
913.975000	2483.819350
914.280775	2491.486945
914.586510	2493.533653
914.892205	2500.324087
915.197859	2511.124760
915.503475	2523.770494
915.809050	2536.348173
916.114585	2545.308824
916.420081	2547.098433
916.725536	2547.587425
917.030952	2547.118598
917.336328	2539.259439
917.641665	2535.135775
917.946961	2528.342821
918.252218	2527.689991
918.557435	2517.247241
918.862612	2519.528363
919.167750	2512.659791
919.472848	2511.230624
919.777906	2505.405571
920.082925	2506.877588
920.387904	2496.170177
920.692843	2494.436020
920.997743	2490.725731
921.302603	2490.524084
921.607423	2486.670122
921.912204	2487.151553
922.216946	2484.003352
922.521647	2485.208188
922.826310	2483.363125
923.130932	2480.552682
923.435516	2478.697538
923.740059	2479.350367
924.044564	2479.083186
924.349028	2474.707464
924.653454	2475.219141
924.957840	2473.442135
925.262186	2474.679738
925.566493	2473.434573
925.870761	2471.680251
926.174989	2473.641260
926.479178	2470.823255
926.783328	2473.941209
927.087438	2470.868626
927.391509	2472.282669
927.695541	2472.998513
927.999533	2473.220324
928.303486	2470.893831
928.607400	2469.459623
928.911275	2471.488687
929.215110	2469.767133
929.518906	2470.838379
929.822663	2470.571198
930.126381	2469.038687
930.430060	2470.886270
930.733699	2469.794860
931.037299	2470.011629
931.340861	2471.140848
931.644383	2471.289562
931.947866	2471.589511
932.251309	2467.695219
932.554714	2471.211424
932.858080	2468.537092
933.161407	2468.305199
933.464694	2466.603809
933.767943	2463.722790
934.071153	2470.243522
934.374323	2470.528348
934.677455	2467.879221
934.980548	2466.528192
935.283602	2470.256125
935.586617	2468.695888
935.889593	2467.995168
936.192530	2468.544654
936.495428	2468.269911
936.798287	2468.206896
937.101108	2469.527679
937.403890	2468.002730
937.706632	2471.481126
938.009336	2473.308544
938.312002	2471.720581
938.614628	2472.438945
938.917216	2475.274594
939.219765	2473.565643
939.522275	2473.293421
939.824747	2472.751497
940.127179	2477.162506
940.429573	2472.806949
940.731929	2472.547330
941.034246	2474.281487
941.336524	2476.413895
941.638763	2473.900880
941.940964	2472.519603
942.243126	2471.178657
942.545250	2474.465489
942.847335	2473.696713
943.149381	2472.360807
943.451389	2469.978862
943.753359	2474.042032
944.055290	2472.247381
944.357182	2470.939202
944.659036	2469.202524
944.960851	2471.725622
945.262628	2471.430714
945.564367	2472.610344
945.866067	2473.679069
946.167729	2470.520786
946.469352	2469.744448
946.770937	2469.663790
947.072484	2471.186218
947.373992	2471.876856
947.675462	2471.529017
947.976893	2469.517596
948.278286	2467.087760
948.579641	2470.707309
948.880958	2463.649693
949.182236	2470.291413
949.483476	2471.004737
949.784678	2469.941053
950.085841	2473.018678
950.386967	2466.739921
950.688054	2468.181691
950.989103	2469.925930
951.290114	2471.753348
951.591087	2472.386013
951.892021	2471.065231
952.192917	2469.237812
952.493776	2473.157309
952.794596	2471.574387
953.095378	2471.397947
953.396122	2470.732514
953.696828	2473.013637
953.997496	2471.289562
954.298126	2472.025570
954.598718	2470.629171
954.899272	2472.938019
955.199788	2471.118163
955.500266	2466.878552
955.800706	2469.724284
956.101108	2468.476598
956.401472	2471.108080
956.701798	2467.791001
957.002087	2467.438120
957.302337	2468.774026
957.602550	2466.719756
957.902724	2468.453913
958.202861	2468.642956
958.502960	2464.070630
958.803022	2465.572893
959.103045	2463.591720
959.403031	2465.855198
959.702979	2464.662965
960.002889	2464.766309
960.302762	2465.580455
960.602596	2465.943418
960.902393	2464.375619
961.202153	2467.145733
961.501875	2462.971658
961.801559	2463.637090
962.101205	2464.993161
962.400814	2462.384364
962.700385	2466.122379
962.999918	2460.405711
963.299414	2459.490741
963.598873	2459.014352
963.898293	2458.923612
964.197677	2462.989302
964.497022	2463.745475
964.796331	2464.468881
965.095601	2463.987451
965.394835	2463.926957
965.694030	2462.069292
965.993189	2460.249435
966.292309	2462.989302
966.591393	2464.000053
966.890439	2463.805969
967.189447	2464.141206
967.488419	2462.933849
967.787353	2462.863273
968.086249	2464.042903
968.385108	2464.078191
968.683930	2463.284210
968.982714	2462.313787
969.281462	2463.279168
969.580172	2465.572893
969.878844	2462.724642
970.177480	2465.739252
970.476078	2463.995012
970.774639	2463.899230
971.073162	2462.918726
971.371649	2460.798921
971.670098	2464.489045
971.968510	2466.631536
972.266885	2465.346042
972.565223	2464.970476
972.863524	2464.176494
973.161788	2464.105918
973.460014	2461.436627
973.758204	2466.225723
974.056356	2462.858232
974.354471	2462.860753
974.652550	2465.998871
974.950591	2466.591207
975.248595	2465.953501
975.546563	2467.140692
975.844493	2465.272945
976.142386	2465.945939
976.440243	2464.476442
976.738062	2463.334621
977.035845	2463.178345
977.333590	2464.862091
977.631299	2465.756896
977.928971	2462.800259
978.226606	2460.037707
978.524204	2461.945783
978.821765	2460.234312
979.119290	2463.226236
979.416777	2464.216823
979.714228	2463.853860
980.011642	2463.294292
980.309020	2465.842595
980.606360	2461.774384
980.903664	2464.254632
981.200931	2464.791515
981.498162	2465.822431
981.795356	2467.112966
982.092513	2467.622122
982.389633	2470.036835
982.686717	2471.014819
982.983764	2470.298975
983.280775	2474.568832
983.577749	2474.677217
983.874686	2474.987248
984.171587	2473.283338
984.468451	2474.036991
984.765279	2468.758903
985.062070	2473.921044
985.358824	2472.287710
985.655543	2471.009778
985.952224	2467.596917
986.248869	2468.658080
986.545478	2467.349900
986.842050	2466.901237
987.138586	2464.325208
987.435086	2467.168419
987.731549	2463.896710
988.027975	2464.131123
988.324366	2462.754888
988.620719	2459.581482
988.917037	2462.860753
989.213318	2462.669189
989.509563	2460.103242
989.805772	2462.008798
990.101944	2464.294961
990.398080	2463.158181
990.694180	2461.287913
990.990244	2464.307564
991.286271	2463.508541
991.582262	2461.189610
991.878217	2462.008798
992.174136	2461.850001
992.470019	2461.537450
992.765865	2461.681123
993.061676	2459.578962
993.357450	2461.237501
993.653188	2455.735082
993.948890	2462.160032
994.244556	2460.985443
994.540186	2468.509366
994.835780	2464.441154
995.131337	2465.083902
995.426859	2464.307564
995.722345	2465.648511
996.017795	2466.376958
996.313208	2466.686988
996.608586	2468.297637
996.903928	2467.271762
997.199234	2467.357462
997.494504	2468.332925
997.789738	2469.512555
998.084936	2466.134982
998.380099	2463.959724
998.675225	2467.256639
998.970316	2467.060034
999.265371	2464.942749
999.560390	2460.166256
999.855373	2463.064919
1000.150320	2461.996195
1000.445232	2464.247070
1000.740108	2460.541822
1001.034948	2462.870835
1001.329752	2462.066771
1001.624521	2459.906637
1001.919254	2462.495269
1002.213951	2463.221195
1002.508613	2461.113993
1002.803239	2458.651389
1003.097829	2460.816565
1003.392384	2460.630042
1003.686903	2457.154167
1003.981386	2461.338324
1004.275834	2459.193313
1004.570246	2460.589713
1004.864623	2460.761112
1005.158964	2463.004426
1005.453270	2456.990329
1005.747540	2460.047789
1006.041775	2461.124075
1006.335974	2462.873356
1006.630138	2456.581996
1006.924266	2461.461832
1007.218359	2459.314301
1007.512416	2460.912347
1007.806438	2457.580144
1008.100425	2459.578962
1008.394376	2454.736933
1008.688292	2460.647686
1008.982172	2458.628704
1009.276017	2460.589713
1009.569827	2461.933180
1009.863602	2461.262707
1010.157341	2458.192644
1010.451045	2459.717593
1010.744714	2459.624332
1011.038347	2460.745989
1011.331945	2461.043417
1011.625508	2458.142233
1011.919036	2461.091308
1012.212528	2462.192800
1012.505986	2460.531740
1012.799408	2459.392439
1013.092795	2461.169446
1013.386147	2460.420834
1013.679464	2458.343879
1013.972745	2460.037707
1014.265992	2460.965279
1014.559204	2463.357306
1014.852380	2458.298508
1015.145521	2459.989816
1015.438628	2459.606688
1015.731699	2462.376802
1016.024736	2460.950155
1016.317737	2458.790021
1016.610703	2462.162553
1016.903635	2460.715742
1017.196531	2459.155505
1017.489393	2460.448561
1017.782219	2461.025773
1018.075011	2461.781946
1018.367768	2460.907306
1018.660490	2460.173818
1018.953177	2460.173818
1019.245829	2460.173818
