Dividing Wavelength (nm)	Counts (n)	Slit_number_9_of_a_total_of_40	
326.493990	1939.130238
326.888308	1939.130238
327.282561	1939.130238
327.676750	1920.755233
328.070874	1916.797927
328.464933	1922.771694
328.858929	1932.400298
329.252859	1954.052054
329.646726	1971.746504
330.040528	1987.222846
330.434265	2009.731598
330.827938	2022.435306
331.221547	2041.642102
331.615091	2072.645198
332.008571	2089.407035
332.401986	2115.041302
332.795338	2125.879783
333.188625	2149.598412
333.581847	2166.284631
333.975006	2183.172496
334.368100	2205.882894
334.761129	2220.603063
335.154095	2236.885990
335.546996	2251.228073
335.939833	2269.149375
336.332606	2284.575306
336.725315	2299.144240
337.117960	2296.674075
337.510540	2303.958542
337.903056	2312.982208
338.295508	2323.644248
338.687896	2324.602067
339.080220	2330.601040
339.472480	2337.356187
339.864676	2342.044460
340.256807	2338.540858
340.648875	2350.110306
341.040879	2346.405058
341.432818	2348.018227
341.824694	2345.951354
342.216506	2348.850017
342.608253	2343.103102
342.999937	2344.111333
343.391557	2340.733760
343.783113	2345.472444
344.174605	2333.726556
344.566033	2338.893738
344.957397	2335.818635
345.348697	2332.768737
345.739934	2339.145796
346.131106	2326.920998
346.522215	2328.130875
346.913260	2323.619042
347.304241	2326.769763
347.695159	2324.803713
348.086012	2325.585092
348.476802	2328.004846
348.867528	2323.745071
349.258191	2322.207519
349.648789	2317.998156
350.039324	2316.712662
350.429796	2325.862356
350.820203	2317.897333
351.210548	2315.527990
351.600828	2321.073260
351.991045	2313.889615
352.381198	2314.847435
352.771288	2311.116981
353.161314	2313.209060
353.551276	2323.089721
353.941175	2313.990438
354.331010	2314.897846
354.720782	2316.334575
355.110490	2328.206492
355.500135	2314.444142
355.889717	2314.948258
356.279235	2312.276446
356.668689	2315.502785
357.058080	2318.351037
357.447408	2319.888588
357.836672	2314.897846
358.225873	2320.720379
358.615010	2305.848975
359.004084	2319.056798
359.393095	2320.594350
359.782043	2318.401448
360.170927	2324.929742
360.559748	2326.215237
360.948505	2329.038283
361.337199	2321.174083
361.725830	2319.157621
362.114398	2330.449806
362.502903	2326.442088
362.891344	2335.289313
363.279722	2327.248673
363.668037	2328.105669
364.056289	2327.198262
364.444478	2330.197748
364.832603	2332.592296
365.220665	2322.711635
365.608665	2323.442602
365.996601	2334.306288
366.384474	2334.457523
366.772284	2331.281596
367.160031	2334.835610
367.547715	2321.829433
367.935336	2331.357213
368.322893	2327.248673
368.710388	2337.255363
369.097820	2326.316060
369.485189	2332.541885
369.872495	2333.071206
370.259738	2337.633450
370.646918	2329.970896
371.034035	2331.155567
371.421090	2333.348469
371.808081	2331.810917
372.195010	2334.104642
372.581875	2331.155567
372.968678	2332.113387
373.355418	2332.289827
373.742096	2343.481188
374.128710	2335.163285
374.515262	2326.643735
374.901751	2336.423573
375.288177	2337.658656
375.674540	2334.734787
376.060841	2337.860302
376.447079	2326.416883
376.833254	2333.928202
377.219367	2329.618015
377.605417	2343.985304
377.991404	2337.179746
378.377329	2339.246619
378.763191	2325.711121
379.148991	2339.801146
379.534727	2345.346415
379.920402	2339.851558
380.306013	2339.675117
380.691563	2337.557833
381.077049	2339.675117
381.462474	2340.859788
381.847835	2330.273365
382.233134	2338.061948
382.618371	2338.717298
383.003545	2341.615962
383.388657	2338.591269
383.773706	2348.799606
384.158693	2335.289313
384.543618	2341.288287
384.928480	2339.801146
385.313280	2341.868019
385.698017	2343.002279
386.082692	2333.776967
386.467305	2342.901456
386.851856	2336.322750
387.236344	2353.286233
387.620770	2344.086127
388.005133	2334.457523
388.389435	2339.322237
388.773674	2343.355160
389.157851	2350.211129
389.541965	2344.917917
389.926018	2342.800633
390.310008	2346.883967
390.693936	2332.693119
391.077802	2342.044460
391.461606	2346.001765
391.845348	2342.649398
392.229027	2342.573781
392.612645	2343.254337
392.996200	2346.833556
393.379694	2342.296517
393.763125	2344.010510
394.146494	2349.933865
394.529801	2341.187463
394.913047	2345.976560
395.296230	2348.245079
395.679351	2342.573781
396.062410	2349.253310
396.445408	2354.622138
396.828343	2352.303208
397.211217	2344.867506
397.594028	2346.228617
397.976778	2339.448265
398.359466	2348.623165
398.742092	2339.801146
399.124656	2343.254337
399.507158	2342.422546
399.889598	2340.128821
400.271977	2346.984790
400.654294	2353.286233
401.036549	2349.051663
401.418742	2351.547035
401.800874	2345.169975
402.182944	2348.219873
402.564952	2345.472444
402.946898	2351.799092
403.328783	2348.673577
403.710606	2341.137052
404.092367	2347.488906
404.474067	2337.532627
404.855705	2348.850017
405.237282	2352.303208
405.618797	2345.094358
406.000250	2356.562983
406.381642	2347.463700
406.762972	2354.092817
407.144240	2350.160717
407.525447	2354.092817
407.906593	2359.461646
408.287677	2358.075329
408.668700	2347.715758
409.049661	2352.580471
409.430560	2347.211642
409.811399	2356.008456
410.192176	2349.429750
410.572891	2352.580471
410.953545	2346.077383
411.334138	2350.866479
411.714669	2352.605677
412.095139	2350.135512
412.475547	2346.783144
412.855894	2350.135512
413.236180	2345.951354
413.616405	2352.076356
413.996568	2358.150946
414.376670	2359.713704
414.756711	2355.781604
415.136691	2359.083560
415.516609	2349.631396
415.896466	2354.244052
416.276262	2347.841787
416.655997	2353.361850
417.035670	2352.882940
417.415283	2355.504340
417.794834	2354.697756
418.174324	2363.267717
418.553753	2359.133971
418.933121	2359.537263
419.312428	2349.984277
419.691674	2353.790348
420.070859	2358.024917
420.449983	2364.376771
420.829045	2344.842300
421.208047	2358.251769
421.586988	2357.596419
421.965867	2352.404031
422.344686	2352.656088
422.723444	2357.142715
423.102141	2361.805783
423.480777	2360.595906
423.859352	2356.436954
424.237866	2356.562983
424.616319	2356.739423
424.994712	2352.605677
425.373044	2347.866992
425.751314	2364.452388
426.129524	2353.034175
426.507673	2361.578931
426.885762	2360.671523
427.263789	2358.907119
427.641756	2359.335617
428.019662	2363.948273
428.397508	2363.343335
428.775292	2352.530060
429.153016	2359.738910
429.530679	2355.756398
429.908282	2363.166894
430.285824	2362.940042
430.663305	2359.612881
431.040726	2365.662265
431.418086	2355.151460
431.795385	2361.604137
432.172624	2353.765142
432.549802	2358.503827
432.926920	2360.091790
433.303977	2363.847450
433.680974	2352.025944
434.057910	2356.386542
434.434786	2362.259487
434.811601	2360.873169
435.188355	2356.941069
435.565050	2362.662779
435.941683	2356.159690
436.318257	2358.100535
436.694770	2362.183869
437.071222	2363.040865
437.447614	2357.873683
437.823946	2367.855167
438.200218	2362.435927
438.576429	2358.529033
438.952580	2371.837679
439.328670	2366.544467
439.704700	2361.150433
440.080670	2358.377798
440.456580	2362.435927
440.832429	2363.166894
441.208218	2369.140662
441.583947	2352.151973
441.959616	2359.587675
442.335224	2364.175125
442.710773	2374.711137
443.086261	2361.856194
443.461689	2367.124200
443.837057	2358.655062
444.212365	2365.788294
444.587612	2367.376258
444.962800	2365.737883
445.337927	2373.652494
445.712995	2366.191587
446.088002	2366.040352
446.462949	2369.191073
446.837837	2364.603623
447.212664	2374.837165
447.587431	2371.888090
447.962139	2366.368027
448.336786	2367.023377
448.711374	2363.519775
449.085901	2368.132431
449.460369	2366.846937
449.834776	2373.425642
450.209124	2365.006915
450.583412	2363.217306
450.957640	2367.351052
451.331808	2368.283665
451.705917	2372.997144
452.079965	2359.688498
452.453954	2369.543954
452.827883	2378.214738
453.201752	2370.174098
453.575562	2365.309385
453.949311	2363.368540
454.323001	2375.442104
454.696632	2368.661752
455.070202	2370.829448
455.443713	2377.181302
455.817164	2372.543440
456.190556	2374.282638
456.563888	2360.217819
456.937160	2368.636546
457.310373	2372.014119
457.683526	2373.652494
458.056619	2371.888090
458.429653	2370.300127
458.802628	2371.913296
459.175542	2374.005375
459.548398	2367.275435
459.921194	2377.307331
460.293930	2385.423588
460.666607	2372.367000
461.039224	2382.776983
461.411782	2376.551158
461.784280	2377.609800
462.156719	2376.173071
462.529099	2380.256406
462.901419	2370.980683
463.273680	2365.359796
463.645882	2378.693648
464.018024	2374.534696
464.390106	2375.568133
464.762130	2383.936448
465.134094	2376.173071
465.505999	2380.079965
465.877845	2386.204967
466.249631	2376.425129
466.621358	2377.559388
466.993026	2394.270813
467.364634	2384.566592
467.736184	2381.037785
468.107674	2379.676673
468.479105	2392.304763
468.850477	2385.877292
469.221790	2379.500233
469.593043	2375.341281
469.964238	2383.608773
470.335373	2374.685931
470.706449	2383.432333
471.077467	2382.524925
471.448425	2386.356202
471.819324	2390.515154
472.190164	2379.953937
472.560945	2376.576363
472.931667	2384.112888
473.302330	2378.189533
473.672934	2379.248175
474.043479	2384.667415
474.413965	2379.626262
474.784393	2383.255892
475.154761	2387.339227
475.525070	2388.372663
475.895321	2383.558362
476.265513	2388.775956
476.635645	2392.355175
477.005719	2393.892727
477.375734	2401.076371
477.745691	2392.002294
478.115588	2401.454458
478.485427	2397.497152
478.855207	2399.614437
479.224928	2409.343863
479.594591	2407.932340
479.964194	2409.495098
480.333739	2403.924623
480.703226	2414.258988
481.072653	2403.924623
481.442022	2409.772362
481.811333	2410.780592
482.180584	2414.914338
482.549777	2415.897363
482.918912	2403.244067
483.287988	2415.821746
483.657005	2411.965263
484.025964	2415.620100
484.394864	2406.772875
484.763706	2417.636562
485.132489	2411.587177
485.501213	2419.048085
485.869879	2420.207550
486.238487	2416.225038
486.607036	2416.426685
486.975527	2422.224012
487.343959	2421.795513
487.712333	2415.821746
488.080648	2412.343350
488.448905	2424.215267
488.817104	2423.711152
489.185244	2431.474529
489.553326	2427.819692
489.921350	2427.819692
490.289315	2443.648915
490.657222	2439.338729
491.025070	2436.162802
491.392861	2438.910231
491.760593	2437.448296
492.128267	2439.994079
492.495883	2435.406629
492.863440	2430.365475
493.230939	2436.087185
493.598380	2436.616506
493.965763	2423.786769
494.333088	2439.363935
494.700354	2440.472988
495.067563	2436.540888
495.434713	2431.524940
495.801805	2442.338215
496.168839	2442.943154
496.535815	2441.834100
496.902733	2441.909717
497.269593	2442.413833
497.636395	2454.008487
498.003139	2448.916921
498.369825	2452.143260
498.736453	2453.000256
499.103023	2448.715275
499.469535	2455.697273
499.835989	2458.142233
500.202385	2466.888635
500.568723	2456.680298
500.935003	2457.940587
501.301226	2452.445729
501.667390	2467.846454
502.033497	2476.945737
502.399546	2470.316619
502.765537	2469.736887
503.131470	2476.063535
503.497345	2491.716317
503.863163	2492.195227
504.228923	2483.877323
504.594625	2495.396360
504.960269	2501.546567
505.325856	2510.519821
505.691385	2508.402537
506.056856	2519.165400
506.422270	2518.005935
506.787625	2532.171577
507.152924	2537.767258
507.518164	2546.967363
507.883347	2548.908208
508.248472	2555.184444
508.613540	2568.593913
508.978550	2579.659246
509.343503	2593.749271
509.708398	2595.816144
510.073236	2610.763165
510.438016	2623.391256
510.802738	2635.237967
511.167403	2647.437560
511.532010	2662.107317
511.896561	2680.658763
512.261053	2694.698377
512.625488	2701.352700
512.989866	2706.872763
513.354186	2742.564133
513.718449	2752.268354
514.082655	2780.322375
514.446803	2780.876902
514.810894	2813.593990
515.174927	2834.640808
515.538904	2850.091944
515.902822	2874.919627
516.266684	2897.277144
516.630488	2923.062646
516.994235	2948.974177
517.357925	2983.455669
517.721558	3019.449508
518.085133	3039.563712
518.448651	3084.480392
518.812112	3111.954681
519.175516	3139.756644
519.538863	3180.060669
519.902152	3211.265412
520.265385	3254.846187
520.628560	3293.108544
520.991678	3329.278823
521.354739	3377.699106
521.717743	3423.951692
522.080690	3459.290181
522.443580	3531.076212
522.806413	3569.061306
523.169189	3626.127167
523.531908	3676.412677
523.894569	3715.809294
524.257174	3777.765075
524.619722	3827.722910
524.982213	3888.241962
525.344647	3943.871094
525.707025	4009.733769
526.069345	4077.184408
526.431608	4140.753358
526.793815	4207.195765
527.155964	4263.177779
527.518057	4332.619673
527.880093	4382.224627
528.242072	4479.821365
528.603995	4540.290006
528.965860	4602.875931
529.327669	4687.063200
529.689421	4759.529787
530.051117	4833.307073
530.412755	4930.072021
530.774337	5007.050440
531.135862	5078.281944
531.497331	5172.828785
531.858743	5230.650819
532.220098	5356.730077
532.581396	5417.097894
532.942638	5465.946675
533.303824	5598.150935
533.664953	5678.078429
534.026025	5743.033696
534.387040	5873.322317
534.747999	5974.271423
535.108902	6073.607360
535.469748	6116.583196
535.830537	6229.656277
536.191270	6334.386248
536.551947	6407.029275
536.912567	6529.302462
537.273131	6654.071019
537.633638	6693.442431
537.994089	6812.917777
538.354483	6879.990329
538.714821	7046.222377
539.075103	7185.232194
539.435328	7262.563494
539.795497	7350.985333
540.155609	7452.010056
540.515665	7621.191179
540.875665	7640.750856
541.235609	7790.800800
541.595496	7911.889315
541.955328	8068.039056
542.315102	8100.151206
542.674821	8170.122421
543.034483	8280.574102
543.394090	8372.474337
543.753640	8472.717681
544.113134	8727.447185
544.472571	8686.034106
544.831953	8992.359819
545.191278	8952.005383
545.550548	9012.045525
545.909761	9192.291981
546.268918	9313.657760
546.628019	9475.655238
546.987064	9490.148556
547.346053	9469.555442
547.704986	9688.770017
548.063863	9762.093600
548.422684	9878.594665
548.781449	9951.439338
549.140158	10112.882290
549.498811	10182.853506
549.857408	10152.329319
550.215949	10402.143698
550.574434	10514.057313
550.932864	10560.914838
551.291237	10769.265727
551.649555	10822.223048
552.007817	10957.477206
552.366022	10991.328554
552.724173	11102.990112
553.082267	11269.020513
553.440305	11433.588981
553.798288	11396.990204
554.156215	11551.904862
554.514086	11699.282994
554.871902	11729.983621
555.229661	11821.026860
555.587365	11882.428113
555.945014	11984.914771
556.302606	12100.331988
556.660143	12223.159702
557.017625	12339.963237
557.375050	12382.258517
557.732421	12571.226169
558.089735	12686.769415
558.446994	12749.027665
558.804197	13005.773631
559.161345	13050.665106
559.518437	12990.902227
559.875474	13154.008760
560.232455	13315.048419
560.589381	13450.882310
560.946251	13474.096823
561.303065	13749.797527
561.659825	13802.830465
562.016528	13852.359802
562.373177	13860.022356
562.729770	14101.291979
563.086307	14107.643833
563.442789	14324.741123
563.799216	14416.994238
564.155587	14491.326052
564.511904	14607.247385
564.868164	14742.098250
565.224370	14959.044306
565.580520	14943.416729
565.936615	15143.197656
566.292654	15166.588610
566.648638	15366.798035
567.004567	15450.052690
567.360441	15597.934938
567.716260	15647.867567
568.072023	15862.620721
568.427732	15955.932479
568.783385	15910.511683
569.138982	16148.126469
569.494525	16273.071467
569.850013	16272.617763
570.205445	16426.977894
570.560823	16497.150756
570.916145	16584.589569
571.271412	16714.071606
571.626625	16720.625106
571.981782	16847.737800
572.336884	16856.358173
572.691931	17056.038277
573.046923	17061.734781
573.401860	17083.890652
573.756743	17166.968867
574.111570	17342.627873
574.466342	17371.438067
574.821059	17539.837812
575.175722	17474.277606
575.530330	17584.477229
575.884882	17595.895442
576.239380	17651.827044
576.593823	17750.356396
576.948211	17831.392944
577.302544	17721.571408
577.656823	17808.228842
578.011047	17991.147110
578.365216	18007.102362
578.719330	17981.014390
579.073389	18040.777269
579.427394	18135.147669
579.781344	18216.360658
580.135239	18116.268548
580.489080	18258.177029
580.842866	18107.471735
581.196597	18381.382829
581.550273	18438.700748
581.903895	18435.045912
582.257463	18647.530546
582.610975	18510.688425
582.964434	18636.969329
583.317837	18521.904992
583.671186	18507.840173
584.024481	18663.813473
584.377721	18558.327329
584.730906	18681.936421
585.084037	18779.835629
585.437113	18677.626235
585.790135	18741.900946
586.143103	18608.663250
586.496016	18750.496113
586.848874	18739.960102
587.201679	18790.548081
587.554428	18574.358198
587.907124	18730.533144
588.259765	18654.512544
588.612352	18779.507954
588.964884	18542.069608
589.317362	18672.484258
589.669786	18668.048042
590.022155	18582.978571
590.374470	18781.474004
590.726731	18591.498121
591.078937	18371.476962
591.431090	18467.737794
591.783188	18343.019648
592.135232	18196.725363
592.487222	18316.351944
592.839157	18358.596813
593.191038	18224.451710
593.542866	18114.100852
593.894639	17862.799333
594.246358	17946.079194
594.598022	17975.922825
594.949633	17790.483981
595.301190	17767.445908
595.652692	17703.876958
596.004141	17856.901183
596.355535	17427.344463
596.706876	17366.396913
597.058162	17275.202440
597.409395	17490.182446
597.760573	17511.935025
598.111698	17295.644319
598.462768	17261.540913
598.813785	17244.300167
599.164748	17007.063467
599.515657	17118.548585
599.866511	16890.259933
600.217312	17080.689519
600.568060	16630.363246
600.918753	16875.464146
601.269392	16824.548492
601.619978	16667.566962
601.970510	16706.283023
602.320988	16713.239815
602.671412	16770.230060
603.021783	16629.228987
603.372100	16421.634271
603.722363	16404.897640
604.072572	16408.980975
604.422728	16348.487129
604.772830	16201.562700
605.122878	16162.418140
605.472872	16075.735500
605.822813	16126.424302
606.172701	15988.095040
606.522534	15999.059550
606.872314	16032.608429
607.222041	15863.628952
607.571714	15940.178873
607.921333	15655.278063
608.270899	15693.565627
608.620411	15735.785290
608.969870	15572.477112
609.319276	15474.729138
609.668627	15434.601554
610.017926	15495.297046
610.367171	15452.573267
610.716362	15434.223467
611.065500	15301.288240
611.414585	15277.317554
611.763616	15275.301092
612.112594	15140.752696
612.461518	15135.635925
612.810389	15133.190965
613.159207	14988.182175
613.507971	14904.549433
613.856682	14967.992354
614.205340	14838.132231
614.553945	14925.596250
614.902496	14667.690819
615.250994	14688.914077
615.599439	14612.641419
615.947830	14578.487602
616.296169	14503.979348
616.644454	14411.726233
616.992686	14390.175300
617.340864	14421.102779
617.688990	14230.975662
618.037063	14282.118167
618.385082	14142.831087
618.733048	14130.429848
619.080961	14024.616029
619.428821	13925.759002
619.776628	13842.025437
620.124382	13690.337117
620.472083	13598.361265
620.819731	13543.437894
621.167326	13340.254188
621.514868	13260.906427
621.862357	13014.822502
622.209793	12917.326587
622.557176	12724.426835
622.904506	12561.395919
623.251783	12355.263138
623.599007	12219.731717
623.946179	12075.554717
624.293297	11988.292344
624.640363	11767.489806
624.987376	11635.789662
625.334336	11528.740760
625.681243	11366.869310
626.028097	11250.040569
626.374899	11137.345575
626.721647	11054.947915
627.068343	10924.936558
627.414987	10807.023969
627.761577	10667.131950
628.108115	10671.290902
628.454600	10458.831473
628.801032	10431.735271
629.147412	10330.181227
629.493739	10245.237785
629.840014	10060.958406
630.186236	10078.930119
630.532405	9906.295806
630.878521	9859.765956
631.224585	9775.326629
631.570597	9667.395525
631.916556	9609.775137
632.262462	9511.497842
632.608316	9475.125917
632.954117	9349.575981
633.299866	9276.731308
633.645562	9174.446296
633.991206	9017.313531
634.336797	8883.244044
634.682336	8815.919435
635.027823	8705.190490
635.373257	8612.307231
635.718639	8520.129733
636.063968	8422.659023
636.409245	8284.758260
636.754470	8210.552475
637.099642	8121.450081
637.444762	7960.939742
637.789829	7935.129035
638.134845	7836.851740
638.479808	7763.326512
638.824719	7705.832152
639.169577	7573.627892
639.514383	7525.686519
639.859137	7447.624252
640.203839	7403.640185
640.548489	7320.637587
640.893086	7263.143227
641.237632	7168.193094
641.582125	7151.431258
641.926566	7078.763025
642.270955	7035.635954
642.615292	6981.418344
642.959576	6949.810310
643.303809	6885.081894
643.647990	6878.276337
643.992118	6821.260887
644.336195	6769.362208
644.680219	6735.183185
645.024192	6738.787610
645.368112	6769.790706
645.711981	6719.681637
646.055797	6787.611185
646.399562	6733.292752
646.743274	6790.358613
647.086935	6804.297404
647.430544	6729.436269
647.774101	6696.164654
648.117606	6677.940883
648.461059	6672.597260
648.804460	6566.783440
649.147810	6456.331760
649.491108	6367.304983
649.834354	6295.166071
650.177548	6166.919117
650.520690	6087.495738
650.863781	6030.102202
651.206820	5990.352704
651.549807	5908.988481
651.892742	5817.063040
652.235626	5755.611375
652.578458	5724.986365
652.921238	5613.652483
653.263967	5607.048571
653.606644	5555.679213
653.949269	5524.600500
654.291843	5455.335046
654.634365	5458.460562
654.976836	5373.491913
655.319255	5340.119475
655.661622	5312.292306
656.003938	5256.537144
656.346203	5222.711002
656.688416	5198.941962
657.030577	5170.560265
657.372687	5115.813335
657.714746	5113.998519
658.056753	5088.061783
658.398708	5008.688815
658.740612	4984.415660
659.082465	4977.988188
659.424266	4941.036531
659.766016	4918.426956
660.107715	4879.534454
660.449362	4869.905850
660.790958	4845.809135
661.132503	4825.266433
661.473996	4779.795225
661.815438	4777.677940
662.156829	4764.016413
662.498168	4722.477306
662.839456	4685.727294
663.180693	4673.930994
663.521879	4666.999408
663.863013	4641.591992
664.204097	4618.226244
664.545129	4622.208756
664.886110	4601.489613
665.227040	4573.586827
665.567918	4571.343513
665.908746	4544.600192
666.249522	4532.677863
666.590248	4498.750898
666.930922	4485.870750
667.271545	4470.142350
667.612118	4447.406746
667.952639	4409.497269
668.293109	4385.526583
668.633528	4361.530690
668.973896	4338.038913
669.314213	4309.707629
669.654480	4284.275008
669.994695	4239.862442
670.334859	4218.891242
670.674973	4189.098023
671.015035	4182.267260
671.355047	4153.583094
671.695008	4135.510558
672.034918	4115.976087
672.374777	4099.239456
672.714585	4071.412287
673.054342	4063.220412
673.394049	4043.484294
673.733705	4025.890667
674.073310	3996.173065
674.412864	3972.378819
674.752368	3937.771298
675.091820	3917.203390
675.431223	3891.569123
675.770574	3837.351513
676.109875	3828.731140
676.449125	3781.596352
676.788324	3771.438427
677.127473	3719.590160
677.466571	3699.576779
677.805619	3677.345290
678.144616	3660.533042
678.483562	3645.132317
678.822458	3615.389510
679.161303	3594.745985
679.500098	3569.489804
679.838842	3566.515523
680.177535	3552.173440
680.516179	3549.400806
680.854771	3553.811815
681.193314	3589.150304
681.531805	3642.536123
681.870247	3637.570587
682.208638	3649.039212
682.546978	3623.253710
682.885268	3620.707927
683.223508	3593.233638
683.561697	3565.960996
683.899836	3537.049979
684.237925	3505.895648
684.575963	3504.408508
684.913951	3479.303562
685.251889	3476.505721
685.589776	3472.976913
685.927614	3461.709935
686.265401	3457.223308
686.603137	3460.600881
686.940824	3478.068479
687.278460	3483.714571
687.616046	3484.218687
687.953582	3502.820544
688.291068	3486.260354
688.628504	3492.637413
688.965889	3469.548929
689.303224	3444.897687
689.640510	3409.281935
689.977745	3377.497460
690.314930	3326.884275
690.652065	3300.090542
690.989150	3254.846187
691.326185	3205.896583
691.663170	3175.649660
692.000105	3146.184115
692.336990	3121.759725
692.673825	3095.621342
693.010610	3070.743248
693.347345	3047.427912
693.684030	3024.263810
694.020665	3010.451048
694.357251	2977.481902
694.693786	2971.331694
695.030272	2959.484983
695.366707	2943.983435
695.703093	2928.784356
696.039429	2923.314704
696.375716	2915.904208
696.711952	2917.693817
697.048139	2912.098137
697.384276	2900.730335
697.720363	2894.378481
698.056400	2886.211812
698.392388	2875.877446
698.728326	2865.996785
699.064214	2851.150587
699.400053	2851.453056
699.735842	2833.027638
700.071581	2817.576502
700.407270	2814.703044
700.742910	2796.806948
701.078501	2788.035340
701.414042	2786.749846
701.749533	2765.955087
702.084974	2754.637696
702.420366	2754.083169
702.755709	2748.159813
703.091002	2733.868142
703.426246	2735.909810
703.761440	2722.172665
704.096584	2723.886658
704.431679	2702.638194
704.766725	2709.216900
705.101721	2702.587783
705.436668	2702.134079
705.771565	2697.017308
706.106413	2695.504962
706.441212	2688.825433
706.775961	2698.857329
707.110661	2695.101669
707.445311	2700.949408
707.779913	2694.194262
708.114465	2688.825433
708.448967	2697.017308
708.783421	2701.882021
709.117825	2706.645912
709.452180	2707.225644
709.786485	2710.275542
710.120742	2730.389746
710.454949	2725.651062
710.789107	2736.716394
711.123216	2758.544590
711.457275	2758.670619
711.791286	2767.190169
712.125247	2759.073912
712.459159	2756.124837
712.793023	2761.342431
713.126837	2747.227200
713.460602	2734.145406
713.794318	2730.843450
714.127985	2721.391287
714.461602	2692.228212
714.795171	2692.303829
715.128691	2664.224602
715.462162	2653.638179
715.795584	2645.093423
716.128957	2642.648463
716.462281	2631.961217
716.795556	2630.348048
717.128782	2618.854217
717.461960	2609.906169
717.795088	2596.370671
718.128167	2594.202975
718.461198	2591.077460
718.794180	2577.340315
719.127113	2588.506471
719.459997	2582.154617
719.792833	2573.030129
720.125619	2561.208623
720.458357	2565.695250
720.791046	2556.621173
721.123686	2552.890719
721.456278	2551.958106
721.788821	2558.309960
722.121315	2555.486913
722.453761	2543.362938
722.786158	2547.421067
723.118506	2544.144317
723.450805	2550.067673
723.783056	2543.413350
724.115259	2541.774975
724.447412	2537.918492
724.779518	2551.353167
725.111574	2542.253885
725.443582	2541.699358
725.775542	2538.548637
726.107453	2560.628890
726.439315	2549.714792
726.771129	2548.656150
727.102895	2550.949875
727.434612	2561.637121
727.766281	2551.655637
728.097901	2558.007490
728.429473	2555.713765
728.760996	2549.739998
729.092471	2543.438556
729.423897	2544.749256
729.755276	2547.723537
730.086606	2544.119112
730.417887	2551.932900
730.749120	2558.839281
731.080305	2565.417987
731.411442	2560.704508
731.742530	2555.915412
732.073570	2563.351113
732.404562	2560.074363
732.735506	2553.898950
733.066401	2547.395862
733.397249	2543.085675
733.728048	2528.541946
734.058798	2528.163860
734.389501	2519.114988
734.720156	2508.402537
735.050762	2510.267763
735.381320	2512.309431
735.711831	2502.252329
736.042293	2494.514158
736.372707	2499.857781
736.703073	2488.187510
737.033391	2490.884527
737.363661	2488.338744
737.693883	2488.641213
738.024056	2492.724548
738.354182	2484.809937
738.684260	2494.211688
739.014290	2501.218892
739.344272	2503.739469
739.674207	2513.242044
740.004093	2506.058400
740.333931	2499.025990
740.663722	2499.756958
740.993464	2497.488438
741.323159	2493.178252
741.652806	2484.204998
741.982405	2489.901502
742.311956	2475.206538
742.641460	2492.749754
742.970915	2478.130408
743.300323	2469.384006
743.629683	2474.652012
743.958996	2467.493573
744.288260	2466.586165
744.617477	2463.989971
744.946647	2459.377315
745.275768	2467.065075
745.604842	2454.336162
745.933869	2450.882971
746.262847	2447.757456
746.591778	2448.564040
746.920662	2457.890175
747.249498	2451.361881
747.578286	2447.606221
747.907027	2461.318160
748.235720	2452.924638
748.564365	2448.286777
748.892963	2459.150463
749.221514	2445.488937
749.550017	2451.891202
749.878473	2454.008487
750.206881	2446.900460
750.535242	2443.674121
750.863555	2447.278546
751.191821	2447.833073
751.520039	2446.194698
751.848210	2440.498194
752.176334	2446.673608
752.504411	2441.052721
752.832440	2431.575352
753.160421	2438.330498
753.488356	2435.683892
753.816243	2444.732763
754.144082	2433.566608
754.471875	2432.331525
754.799620	2433.112904
755.127318	2435.734304
755.454969	2439.464758
755.782572	2434.146340
756.110129	2443.497681
756.437638	2433.037287
756.765100	2429.710125
757.092515	2431.852615
757.419882	2432.659200
757.747203	2426.408169
758.074477	2430.667944
758.401703	2426.382963
758.728882	2438.557350
759.056014	2436.818152
759.383099	2429.130392
759.710138	2434.322781
760.037129	2430.189035
760.364073	2432.281113
760.690970	2427.492017
761.017820	2429.483273
761.344623	2435.305806
761.671379	2434.549633
761.998088	2440.296548
762.324751	2456.604681
762.651366	2473.820221
762.977935	2499.782163
763.304456	2487.254896
763.630931	2493.279075
763.957359	2483.978146
764.283740	2473.290900
764.610074	2458.797583
764.936362	2447.202929
765.262602	2437.473502
765.588796	2429.710125
765.914943	2432.205496
766.241044	2432.558377
766.567097	2419.779052
766.893104	2416.930800
767.219064	2412.872671
767.544978	2408.587690
767.870845	2415.494071
768.196665	2410.780592
768.522438	2406.747669
768.848165	2396.816596
769.173846	2410.704975
769.499479	2396.388098
769.825066	2406.646846
770.150607	2406.193142
770.476101	2401.353635
770.801548	2402.865981
771.126949	2407.680283
771.452303	2404.327915
771.777611	2394.396842
772.102872	2392.859290
772.428087	2389.330483
772.753256	2390.464742
773.078378	2390.489948
773.403453	2398.606206
773.728482	2393.136554
774.053465	2393.691081
774.378401	2389.632952
774.703291	2392.380381
775.028135	2390.086656
775.352932	2396.438510
775.677683	2394.422048
776.002388	2396.841802
776.327046	2388.725544
776.651658	2394.169990
776.976224	2395.909188
777.300743	2392.657644
777.625216	2383.129863
777.949643	2380.432846
778.274024	2399.513613
778.598359	2389.809392
778.922647	2389.557335
779.246889	2386.734288
779.571086	2385.045502
779.895236	2388.649927
780.219339	2388.347458
780.543397	2394.195196
780.867409	2384.062477
781.191374	2383.684390
781.515294	2390.615977
781.839167	2396.010012
782.162995	2386.860317
782.486776	2388.952396
782.810511	2390.288302
783.134201	2387.893754
783.457844	2384.012065
783.781441	2389.758981
784.104993	2376.122660
784.428498	2379.928731
784.751958	2382.046015
785.075372	2384.415358
785.398739	2383.205481
785.722061	2384.087683
786.045337	2381.189019
786.368568	2389.733775
786.691752	2385.499206
787.014891	2385.121119
787.337983	2387.591285
787.661030	2389.733775
787.984031	2388.044988
788.306987	2384.188506
788.629897	2392.077912
788.952760	2407.251785
789.275579	2392.733262
789.598351	2395.606719
789.921078	2378.744060
790.243759	2382.323279
790.566395	2388.196223
790.888984	2380.760521
791.211529	2381.617517
791.534027	2381.844369
791.856480	2385.121119
792.178888	2388.523898
792.501249	2384.062477
792.823566	2374.610313
793.145836	2382.398896
793.468062	2382.575337
793.790241	2380.483258
794.112375	2377.912269
794.434464	2376.021837
794.756507	2375.996631
795.078505	2379.424615
795.400457	2382.121633
795.722364	2381.466283
796.044226	2379.777496
796.366042	2383.684390
796.687812	2379.727085
797.009538	2379.147352
797.331218	2386.910729
797.652852	2379.374204
797.974442	2373.223996
798.295986	2382.398896
798.617484	2380.079965
798.938938	2374.811960
799.260346	2379.575850
799.581709	2378.365973
799.903026	2387.818137
800.224299	2377.786240
800.545526	2374.207021
800.866708	2378.492002
801.187845	2374.383462
801.508936	2378.265150
801.829983	2382.903012
802.150984	2379.222969
802.471940	2375.946219
802.792851	2383.432333
803.113717	2381.037785
803.434538	2370.350538
803.755314	2377.937475
804.076045	2375.265663
804.396731	2374.786754
804.717372	2379.374204
805.037967	2377.080479
805.358518	2375.416898
805.679024	2372.820704
805.999485	2371.938502
806.319901	2376.097454
806.640272	2373.929758
806.960598	2375.593338
807.280879	2383.079452
807.601115	2376.727598
807.921306	2379.827908
808.241453	2382.928217
808.561554	2374.660725
808.881611	2378.290356
809.201623	2376.651981
809.521590	2373.274408
809.841513	2383.936448
810.161390	2377.256919
810.481223	2371.157123
810.801011	2375.290869
811.120755	2373.551671
811.440453	2378.013092
811.760107	2368.056813
812.079716	2370.703419
812.399281	2378.945706
812.718801	2374.937988
813.038276	2367.124200
813.357707	2380.609287
813.677093	2377.206508
813.996434	2373.047556
814.315731	2381.163813
814.634983	2377.080479
814.954191	2379.777496
815.273354	2375.996631
815.592473	2383.306304
815.911547	2384.289329
816.230577	2375.769779
816.549562	2384.591798
816.868502	2378.214738
817.187399	2385.524412
817.506250	2367.729138
817.825058	2370.678213
818.143821	2379.853113
818.462539	2382.650954
818.781213	2382.272867
819.099843	2375.769779
819.418429	2382.323279
819.736970	2390.893240
820.055466	2383.054246
820.373919	2397.976062
820.692327	2407.705488
821.010691	2422.450863
821.329011	2456.201388
821.647286	2497.564056
821.965517	2524.231760
822.283704	2531.541433
822.601847	2526.550690
822.919945	2501.596979
823.237999	2478.911787
823.556010	2470.493060
823.873976	2447.404575
824.191897	2426.887079
824.509775	2433.642225
824.827609	2423.711152
825.145398	2414.334606
825.463144	2418.745615
825.780845	2410.276477
826.098502	2417.082035
826.416116	2416.451890
826.733685	2439.111877
827.051210	2430.264652
827.368692	2428.903540
827.686129	2417.157652
828.003522	2408.033163
828.320872	2396.413304
828.638177	2391.094887
828.955439	2383.306304
829.272656	2388.322252
829.589830	2381.088196
829.906960	2388.246635
830.224046	2383.810419
830.541088	2377.206508
830.858086	2388.448281
831.175041	2377.861858
831.491952	2384.213712
831.808819	2378.920500
832.125642	2378.819677
832.442421	2382.424102
832.759157	2397.698798
833.075849	2392.556821
833.392497	2393.312994
833.709101	2394.094373
834.025662	2393.665875
834.342179	2392.380381
834.658653	2386.507437
834.975083	2394.396842
835.291469	2392.657644
835.607811	2387.540873
835.924110	2380.205994
836.240366	2386.104144
836.556578	2378.945706
836.872746	2378.517208
837.188871	2379.046529
837.504952	2375.492515
837.820990	2375.946219
838.136984	2372.215765
838.452935	2372.770292
838.768842	2383.306304
839.084706	2381.793958
839.400526	2388.372663
839.716303	2389.733775
840.032037	2381.415871
840.347727	2383.709596
840.663373	2377.937475
840.978977	2373.425642
841.294537	2378.592825
841.610054	2376.072248
841.925527	2372.896321
842.240957	2371.636033
842.556344	2381.264637
842.871687	2375.517721
843.186987	2374.585108
843.502244	2374.257433
843.817458	2379.601056
844.132629	2371.409181
844.447756	2374.660725
844.762840	2364.704446
845.077881	2373.803729
845.392879	2367.325846
845.707833	2363.645804
846.022745	2363.494569
846.337613	2369.770806
846.652438	2376.475540
846.967221	2367.401463
847.281960	2376.425129
847.596656	2373.173585
847.911309	2371.383975
848.225919	2368.762575
848.540485	2366.670496
848.855009	2376.324306
849.169490	2368.989427
849.483928	2370.300127
849.798323	2365.410208
850.112675	2365.889117
850.426984	2375.190046
850.741251	2372.165354
851.055474	2370.653008
851.369654	2370.199304
851.683792	2367.754344
851.997887	2370.728625
852.311938	2372.240971
852.625947	2366.418438
852.939914	2367.250229
853.253837	2375.114429
853.567718	2372.341794
853.881555	2369.115456
854.195350	2373.526465
854.509103	2369.720394
854.822812	2363.746627
855.136479	2368.686958
855.450103	2364.502800
855.763685	2363.343335
856.077224	2369.922040
856.390720	2370.350538
856.704173	2370.728625
857.017584	2374.963194
857.330953	2370.199304
857.644278	2375.341281
857.957561	2374.912783
858.270802	2370.098481
858.584000	2372.997144
858.897155	2372.997144
859.210268	2369.922040
859.523339	2369.972452
859.836367	2371.005888
860.149352	2373.223996
860.462295	2375.316075
860.775195	2359.965762
861.088054	2358.529033
861.400869	2365.712677
861.713642	2372.946733
862.026373	2369.039838
862.339062	2374.963194
862.651708	2374.131404
862.964312	2365.132944
863.276873	2364.654035
863.589392	2377.685417
863.901869	2378.416385
864.214303	2371.308358
864.526696	2363.418952
864.839045	2367.829962
865.151353	2364.855681
865.463619	2371.837679
865.775842	2369.997658
866.088023	2373.047556
866.400162	2368.989427
866.712258	2364.679240
867.024313	2373.702906
867.336325	2372.316588
867.648296	2367.829962
867.960224	2371.787267
868.272110	2371.787267
868.583954	2365.485825
868.895755	2371.736856
869.207515	2376.979656
869.519233	2369.468337
869.830909	2361.654548
870.142542	2371.484798
870.454134	2368.460106
870.765684	2373.854140
871.077191	2373.425642
871.388657	2369.796012
871.700081	2367.880373
872.011463	2359.612881
872.322803	2365.611854
872.634101	2368.334077
872.945357	2365.838706
873.256571	2366.292410
873.567744	2372.543440
873.878874	2374.786754
874.189963	2377.307331
874.501010	2368.208048
874.812015	2378.618031
875.122979	2371.988913
875.433900	2366.342821
875.744780	2373.324819
876.055618	2373.072762
876.366415	2373.778523
876.677169	2369.090250
876.987882	2372.719881
877.298554	2368.737369
877.609183	2371.157123
877.919771	2368.661752
878.230317	2362.158663
878.540822	2378.189533
878.851285	2372.165354
879.161707	2377.357742
879.472087	2372.064531
879.782425	2380.558875
880.092722	2392.960113
880.402977	2394.119579
880.713191	2411.209090
881.023363	2408.890160
881.333494	2417.031623
881.643583	2420.005904
881.953631	2414.788310
882.263637	2409.822773
882.573602	2412.998700
882.883526	2410.100037
883.193408	2402.437483
883.503248	2395.959600
883.813048	2399.286762
884.122806	2390.767212
884.432522	2388.397869
884.742197	2390.842829
885.051831	2381.516694
885.361424	2375.668956
885.670975	2381.869575
885.980485	2381.466283
886.289954	2376.173071
886.599382	2376.122660
886.908768	2373.803729
887.218113	2376.021837
887.527417	2378.567619
887.836680	2375.190046
888.145901	2374.207021
888.455082	2368.258460
888.764221	2373.576877
889.073319	2372.215765
889.382376	2375.290869
889.691392	2375.139635
890.000366	2367.351052
890.309300	2372.417412
890.618193	2370.426156
890.927044	2377.937475
891.235855	2375.895808
891.544625	2375.164840
891.853353	2374.963194
892.162041	2373.299613
892.470687	2371.157123
892.779293	2378.013092
893.087858	2370.905065
893.396381	2370.854654
893.704864	2373.022350
894.013306	2377.962681
894.321707	2385.751263
894.630068	2383.886037
894.938387	2389.557335
895.246665	2374.106198
895.554903	2378.970912
895.863100	2379.853113
896.171256	2373.299613
896.479371	2379.374204
896.787446	2382.323279
897.095480	2377.408154
897.403473	2372.493029
897.711425	2378.265150
898.019336	2380.886550
898.327207	2378.870088
898.635038	2369.695188
898.942827	2371.182329
899.250576	2378.391179
899.558284	2372.896321
899.865952	2368.308871
900.173579	2368.989427
900.481165	2369.846423
900.788711	2367.880373
901.096216	2367.754344
901.403681	2370.274921
901.711105	2372.064531
902.018489	2371.207535
902.325832	2367.955990
902.633135	2364.981710
902.940397	2383.255892
903.247619	2375.492515
903.554800	2388.801162
903.861941	2388.977602
904.169041	2386.255379
904.476101	2390.137067
904.783121	2377.660212
905.090100	2381.163813
905.397039	2389.607746
905.703938	2374.761548
906.010796	2378.340767
906.317614	2374.207021
906.624391	2369.947246
906.931129	2375.971425
907.237826	2376.778010
907.544483	2367.048583
907.851099	2370.627802
908.157675	2364.981710
908.464211	2366.015146
908.770707	2365.082533
909.077163	2366.569673
909.383578	2361.553725
909.689954	2368.686958
909.996289	2363.519775
910.302584	2370.526979
910.608839	2366.040352
910.915054	2371.888090
911.221229	2367.351052
911.527363	2367.300640
911.833458	2368.888604
912.139513	2372.140148
912.445527	2370.728625
912.751502	2370.048069
913.057436	2375.064017
913.363331	2370.022863
913.669186	2365.057327
913.975000	2366.418438
914.280775	2368.661752
914.586510	2374.534696
914.892205	2382.953423
915.197859	2379.298587
915.503475	2383.507950
915.809050	2382.877806
916.114585	2393.060937
916.420081	2385.600029
916.725536	2377.635006
917.030952	2386.028527
917.336328	2389.532129
917.641665	2384.717827
917.946961	2380.029554
918.252218	2369.493542
918.557435	2380.810933
918.862612	2375.139635
919.167750	2376.097454
919.472848	2369.039838
919.777906	2374.131404
920.082925	2372.014119
920.387904	2368.787781
920.692843	2363.822244
920.997743	2371.257946
921.302603	2372.770292
921.607423	2375.845396
921.912204	2372.114942
922.216946	2373.778523
922.521647	2368.762575
922.826310	2362.234281
923.130932	2367.754344
923.435516	2373.526465
923.740059	2369.669983
924.044564	2366.267204
924.349028	2368.812987
924.653454	2362.839219
924.957840	2369.972452
925.262186	2357.924094
925.566493	2363.494569
925.870761	2360.822758
926.174989	2364.376771
926.479178	2365.460619
926.783328	2367.073788
927.087438	2368.334077
927.391509	2368.560929
927.695541	2366.821731
927.999533	2365.561442
928.303486	2366.494056
928.607400	2369.846423
928.911275	2367.275435
929.215110	2366.695702
929.518906	2364.452388
929.822663	2363.620598
930.126381	2367.300640
930.430060	2368.812987
930.733699	2368.913810
931.037299	2362.410721
931.340861	2368.006402
931.644383	2362.259487
931.947866	2369.997658
932.251309	2372.871115
932.554714	2369.922040
932.858080	2365.712677
933.161407	2367.829962
933.464694	2369.493542
933.767943	2368.510517
934.071153	2372.845910
934.374323	2368.838192
934.677455	2367.880373
934.980548	2369.191073
935.283602	2365.712677
935.586617	2366.317615
935.889593	2367.275435
936.192530	2367.779550
936.495428	2370.325333
936.798287	2365.511031
937.101108	2368.308871
937.403890	2366.620085
937.706632	2366.821731
938.009336	2365.662265
938.312002	2368.485312
938.614628	2366.342821
938.917216	2353.437467
939.219765	2366.670496
939.522275	2365.158150
939.824747	2365.763088
940.127179	2362.309898
940.429573	2364.074302
940.731929	2370.174098
941.034246	2363.746627
941.336524	2365.637060
941.638763	2363.418952
941.940964	2369.191073
942.243126	2363.897862
942.545250	2363.645804
942.847335	2366.771319
943.149381	2357.319156
943.451389	2365.309385
943.753359	2360.999198
944.055290	2355.302694
944.357182	2369.392719
944.659036	2364.326360
944.960851	2367.124200
945.262628	2367.754344
945.564367	2372.946733
945.866067	2363.696215
946.167729	2365.737883
946.469352	2359.234794
946.770937	2369.972452
947.072484	2357.823271
947.373992	2363.267717
947.675462	2363.015660
947.976893	2363.091277
948.278286	2367.073788
948.579641	2368.535723
948.880958	2362.511544
949.182236	2361.906606
949.483476	2365.662265
949.784678	2370.073275
950.085841	2369.896835
950.386967	2360.898375
950.688054	2366.922554
950.989103	2368.182842
951.290114	2371.560415
951.591087	2370.224510
951.892021	2362.461133
952.192917	2367.023377
952.493776	2362.940042
952.794596	2359.007942
953.095378	2358.403004
953.396122	2366.947760
953.696828	2369.594365
953.997496	2363.948273
954.298126	2371.510004
954.598718	2364.578417
954.899272	2368.157637
955.199788	2367.351052
955.500266	2368.006402
955.800706	2360.696729
956.101108	2368.888604
956.401472	2354.017200
956.701798	2359.738910
957.002087	2367.855167
957.302337	2364.124713
957.602550	2369.443131
957.902724	2366.594879
958.202861	2363.166894
958.502960	2361.604137
958.803022	2361.982223
959.103045	2361.856194
959.403031	2369.669983
959.702979	2358.352592
960.002889	2367.502287
960.302762	2359.310412
960.602596	2358.201358
960.902393	2362.007429
961.202153	2366.141175
961.501875	2363.822244
961.801559	2365.132944
962.101205	2366.115969
962.400814	2370.703419
962.700385	2363.519775
962.999918	2358.377798
963.299414	2357.898888
963.598873	2367.502287
963.898293	2367.451875
964.197677	2371.736856
964.497022	2371.913296
964.796331	2372.619058
965.095601	2367.300640
965.394835	2359.184383
965.694030	2363.091277
965.993189	2361.578931
966.292309	2358.705473
966.591393	2365.611854
966.890439	2353.689525
967.189447	2358.302181
967.488419	2361.478108
967.787353	2372.240971
968.086249	2364.275948
968.385108	2365.964735
968.683930	2363.822244
968.982714	2357.016687
969.281462	2358.403004
969.580172	2359.688498
969.878844	2369.997658
970.177480	2359.864938
970.476078	2364.401977
970.774639	2365.939529
971.073162	2362.511544
971.371649	2365.284179
971.670098	2357.344362
971.968510	2365.889117
972.266885	2358.403004
972.565223	2365.838706
972.863524	2368.308871
973.161788	2362.587162
973.460014	2362.007429
973.758204	2363.948273
974.056356	2360.419465
974.354471	2353.664319
974.652550	2369.871629
974.950591	2359.612881
975.248595	2363.091277
975.546563	2363.948273
975.844493	2364.200331
976.142386	2362.738396
976.440243	2367.451875
976.738062	2365.309385
977.035845	2362.814013
977.333590	2365.082533
977.631299	2368.409694
977.928971	2364.679240
978.226606	2365.687471
978.524204	2360.369054
978.821765	2362.007429
979.119290	2364.628829
979.416777	2361.931812
979.714228	2360.822758
980.011642	2359.209588
980.309020	2370.728625
980.606360	2360.116996
980.903664	2359.537263
981.200931	2373.652494
981.498162	2366.468850
981.795356	2361.528519
982.092513	2359.184383
982.389633	2370.602596
982.686717	2355.630369
982.983764	2360.747140
983.280775	2363.292923
983.577749	2358.176152
983.874686	2369.191073
984.171587	2363.519775
984.468451	2355.731192
984.765279	2365.914323
985.062070	2359.083560
985.358824	2361.528519
985.655543	2365.662265
985.952224	2356.890658
986.248869	2362.309898
986.545478	2369.115456
986.842050	2365.485825
987.138586	2361.427696
987.435086	2354.748167
987.731549	2355.529546
988.027975	2363.897862
988.324366	2362.763602
988.620719	2360.318642
988.917037	2363.595392
989.213318	2355.479135
989.509563	2355.882427
989.805772	2358.806296
990.101944	2351.068125
990.398080	2364.477594
990.694180	2357.974506
990.990244	2357.419979
991.286271	2357.949300
991.582262	2357.646831
991.878217	2364.149919
992.174136	2373.123173
992.470019	2350.412775
992.765865	2365.385002
993.061676	2358.680267
993.357450	2366.393233
993.653188	2353.084587
993.948890	2362.083046
994.244556	2361.402490
994.540186	2362.788808
994.835780	2364.855681
995.131337	2362.788808
995.426859	2364.603623
995.722345	2360.192613
996.017795	2358.705473
996.313208	2367.829962
996.608586	2355.705987
996.903928	2360.444671
997.199234	2365.939529
997.494504	2364.250742
997.789738	2362.713190
998.084936	2364.074302
998.380099	2357.218333
998.675225	2357.394773
998.970316	2355.302694
999.265371	2367.502287
999.560390	2358.932325
999.855373	2361.377285
1000.150320	2358.201358
1000.445232	2366.594879
1000.740108	2364.906092
1001.034948	2362.713190
1001.329752	2364.250742
1001.624521	2358.075329
1001.919254	2367.577904
1002.213951	2363.116483
1002.508613	2359.864938
1002.803239	2354.017200
1003.097829	2359.310412
1003.392384	2362.108252
1003.686903	2358.629856
1003.981386	2361.352079
1004.275834	2362.083046
1004.570246	2362.435927
1004.864623	2357.621625
1005.158964	2361.301667
1005.453270	2354.319669
1005.747540	2355.680781
1006.041775	2359.940556
1006.335974	2358.377798
1006.630138	2351.521829
1006.924266	2356.689012
1007.218359	2360.469877
1007.512416	2357.873683
1007.806438	2358.377798
1008.100425	2357.672037
1008.394376	2353.991994
1008.688292	2360.797552
1008.982172	2359.335617
1009.276017	2345.699296
1009.569827	2356.058867
1009.863602	2367.098994
1010.157341	2361.503313
1010.451045	2361.805783
1010.744714	2351.622652
1011.038347	2357.167921
1011.331945	2363.746627
1011.625508	2361.856194
1011.919036	2365.813500
1012.212528	2357.268744
1012.505986	2357.546008
1012.799408	2361.049610
1013.092795	2356.865452
1013.386147	2357.974506
1013.679464	2351.622652
1013.972745	2353.966788
1014.265992	2364.931298
1014.559204	2351.975533
1014.852380	2363.141688
1015.145521	2358.352592
1015.438628	2368.082019
1015.731699	2361.049610
1016.024736	2360.621112
1016.317737	2358.554238
1016.610703	2362.561956
1016.903635	2357.999712
1017.196531	2355.579958
1017.489393	2350.236335
1017.782219	2348.799606
1018.075011	2357.243538
1018.367768	2348.900429
1018.660490	2363.166894
1018.953177	2363.166894
1019.245829	2363.166894
