Dividing Wavelength (nm)	Counts (n)	Slit_number_8_of_a_total_of_40	
326.493990	1934.719229
326.888308	1934.719229
327.282561	1934.719229
327.676750	1923.401838
328.070874	1921.587023
328.464933	1925.745975
328.858929	1940.365321
329.252859	1952.993412
329.646726	1959.572117
330.040528	1985.307208
330.434265	2001.615340
330.827938	2024.603002
331.221547	2050.363298
331.615091	2064.050031
332.008571	2085.575758
332.401986	2100.018663
332.795338	2131.273817
333.188625	2141.482154
333.581847	2172.107163
333.975006	2183.298525
334.368100	2198.497604
334.761129	2228.996585
335.154095	2238.978069
335.546996	2253.773856
335.939833	2264.209044
336.332606	2284.172013
336.725315	2291.179217
337.117960	2304.487863
337.510540	2306.353090
337.903056	2311.268215
338.295508	2319.586119
338.687896	2327.223467
339.080220	2329.290340
339.472480	2344.035715
339.864676	2348.396313
340.256807	2345.774913
340.648875	2347.690552
341.040879	2355.327900
341.432818	2354.848990
341.824694	2351.748681
342.216506	2347.866992
342.608253	2350.185923
342.999937	2352.202385
343.391557	2351.269771
343.783113	2344.413802
344.174605	2344.262567
344.566033	2348.698783
344.957397	2343.002279
345.348697	2343.682835
345.739934	2343.128308
346.131106	2337.330981
346.522215	2339.019767
346.913260	2330.147337
347.304241	2331.281596
347.695159	2326.618529
348.086012	2331.231185
348.476802	2332.743531
348.867528	2328.004846
349.258191	2320.266675
349.648789	2320.770790
350.039324	2328.508962
350.429796	2325.358240
350.820203	2322.358754
351.210548	2323.190544
351.600828	2321.048054
351.991045	2316.586633
352.381198	2329.945690
352.771288	2323.291367
353.161314	2320.291881
353.551276	2319.334062
353.941175	2325.106183
354.331010	2317.746098
354.720782	2321.678198
355.110490	2320.317087
355.500135	2324.702890
355.889717	2321.652992
356.279235	2315.704431
356.668689	2326.870587
357.058080	2312.629327
357.447408	2324.501244
357.836672	2318.199802
358.225873	2319.460090
358.615010	2320.493527
359.004084	2328.508962
359.393095	2324.753302
359.782043	2321.375729
360.170927	2335.138079
360.559748	2332.466267
360.948505	2323.719865
361.337199	2325.459063
361.725830	2332.617502
362.114398	2330.449806
362.502903	2325.030565
362.891344	2330.500217
363.279722	2331.810917
363.668037	2337.028512
364.056289	2329.668427
364.444478	2333.474498
364.832603	2331.911740
365.220665	2333.701350
365.608665	2330.928715
365.996601	2332.214210
366.384474	2334.911227
366.772284	2335.339725
367.160031	2333.071206
367.547715	2328.887048
367.935336	2339.397854
368.322893	2334.331494
368.710388	2335.390137
369.097820	2340.658142
369.485189	2332.163798
369.872495	2341.767196
370.259738	2336.675631
370.646918	2332.970383
371.034035	2339.927175
371.421090	2336.272338
371.808081	2338.540858
372.195010	2335.616988
372.581875	2338.112360
372.968678	2339.297031
373.355418	2340.027998
373.742096	2335.415342
374.128710	2343.455983
374.515262	2342.624192
374.901751	2342.069665
375.288177	2342.649398
375.674540	2339.700323
376.060841	2343.203925
376.447079	2342.598987
376.833254	2336.826865
377.219367	2341.111846
377.605417	2340.506908
377.991404	2339.044973
378.377329	2346.026971
378.763191	2335.415342
379.148991	2345.296004
379.534727	2334.684375
379.920402	2338.339212
380.306013	2344.010510
380.691563	2342.548575
381.077049	2337.658656
381.462474	2342.422546
381.847835	2337.658656
382.233134	2334.936433
382.618371	2342.548575
383.003545	2341.792402
383.388657	2344.136538
383.773706	2347.866992
384.158693	2341.565550
384.543618	2343.153513
384.928480	2345.548062
385.313280	2341.212669
385.698017	2343.455983
386.082692	2343.708040
386.467305	2343.380365
386.851856	2341.590756
387.236344	2353.160204
387.620770	2352.303208
388.005133	2347.362877
388.389435	2335.364931
388.773674	2342.447752
389.157851	2340.758965
389.541965	2344.262567
389.926018	2339.927175
390.310008	2342.170488
390.693936	2342.170488
391.077802	2355.353106
391.461606	2346.455469
391.845348	2348.597960
392.229027	2339.221413
392.612645	2341.237875
392.996200	2343.002279
393.379694	2358.201358
393.763125	2347.413288
394.146494	2363.948273
394.529801	2356.008456
394.913047	2348.068638
395.296230	2352.857735
395.679351	2350.614421
396.062410	2349.984277
396.445408	2349.606190
396.828343	2350.740450
397.211217	2346.430263
397.594028	2342.825838
397.976778	2349.505367
398.359466	2359.965762
398.742092	2340.355673
399.124656	2355.958044
399.507158	2359.360823
399.889598	2349.631396
400.271977	2348.597960
400.654294	2352.202385
401.036549	2348.850017
401.418742	2348.219873
401.800874	2347.186437
402.182944	2354.445698
402.564952	2355.705987
402.946898	2354.748167
403.328783	2355.227077
403.710606	2350.185923
404.092367	2357.243538
404.474067	2350.185923
404.855705	2356.361337
405.237282	2352.530060
405.618797	2360.847963
406.000250	2355.504340
406.381642	2354.798579
406.762972	2355.554752
407.144240	2353.513085
407.525447	2357.293950
407.906593	2353.160204
408.287677	2355.025431
408.668700	2356.033662
409.049661	2355.680781
409.430560	2360.948787
409.811399	2354.344875
410.192176	2358.781090
410.572891	2345.699296
410.953545	2355.050637
411.334138	2354.319669
411.714669	2358.730679
412.095139	2363.620598
412.475547	2355.958044
412.855894	2359.562469
413.236180	2360.847963
413.616405	2360.444671
413.996568	2354.496110
414.376670	2360.066585
414.756711	2364.250742
415.136691	2362.839219
415.516609	2364.880887
415.896466	2357.772860
416.276262	2365.687471
416.655997	2357.999712
417.035670	2356.386542
417.415283	2357.898888
417.794834	2359.386029
418.174324	2355.806810
418.553753	2361.150433
418.933121	2358.024917
419.312428	2369.695188
419.691674	2366.695702
420.070859	2366.141175
420.449983	2365.914323
420.829045	2357.470390
421.208047	2368.812987
421.586988	2360.973992
421.965867	2345.144769
422.344686	2356.714217
422.723444	2360.747140
423.102141	2350.463187
423.480777	2354.848990
423.859352	2361.957017
424.237866	2355.252283
424.616319	2360.495083
424.994712	2364.376771
425.373044	2364.830475
425.751314	2366.443644
426.129524	2368.964221
426.507673	2364.679240
426.885762	2369.922040
427.263789	2372.518235
427.641756	2365.737883
428.019662	2367.023377
428.397508	2360.369054
428.775292	2360.369054
429.153016	2363.242512
429.530679	2369.443131
429.908282	2366.670496
430.285824	2374.912783
430.663305	2360.369054
431.040726	2360.747140
431.418086	2357.319156
431.795385	2367.124200
432.172624	2368.132431
432.549802	2370.451362
432.926920	2356.487365
433.303977	2369.846423
433.680974	2366.872142
434.057910	2368.636546
434.434786	2372.971938
434.811601	2370.300127
435.188355	2368.233254
435.565050	2364.931298
435.941683	2367.376258
436.318257	2365.233767
436.694770	2356.084073
437.071222	2367.905579
437.447614	2357.041892
437.823946	2368.535723
438.200218	2372.014119
438.576429	2362.511544
438.952580	2367.426669
439.328670	2370.728625
439.704700	2372.064531
440.080670	2372.114942
440.456580	2366.846937
440.832429	2366.040352
441.208218	2373.929758
441.583947	2369.392719
441.959616	2371.862885
442.335224	2371.056300
442.710773	2376.853627
443.086261	2373.425642
443.461689	2370.703419
443.837057	2367.502287
444.212365	2368.838192
444.587612	2378.239944
444.962800	2375.769779
445.337927	2372.291383
445.712995	2366.897348
446.088002	2380.684904
446.462949	2363.066071
446.837837	2364.880887
447.212664	2366.569673
447.587431	2377.534183
447.962139	2370.022863
448.336786	2376.853627
448.711374	2368.182842
449.085901	2370.022863
449.460369	2369.241485
449.834776	2375.316075
450.209124	2374.005375
450.583412	2377.105685
450.957640	2382.852600
451.331808	2373.274408
451.705917	2371.157123
452.079965	2373.350025
452.453954	2381.491488
452.827883	2377.231713
453.201752	2378.265150
453.575562	2375.265663
453.949311	2375.744573
454.323001	2375.215252
454.696632	2374.181815
455.070202	2383.507950
455.443713	2375.593338
455.817164	2373.425642
456.190556	2380.634492
456.563888	2375.694162
456.937160	2372.593852
457.310373	2374.685931
457.683526	2375.391692
458.056619	2375.971425
458.429653	2376.803215
458.802628	2375.643750
459.175542	2374.811960
459.548398	2374.610313
459.921194	2373.324819
460.293930	2376.273894
460.666607	2378.365973
461.039224	2377.231713
461.411782	2382.827394
461.784280	2389.229660
462.156719	2377.685417
462.529099	2379.046529
462.901419	2375.921013
463.273680	2378.819677
463.645882	2384.793444
464.018024	2384.919473
464.390106	2384.617004
464.762130	2392.682850
465.134094	2381.567106
465.505999	2392.834085
465.877845	2381.844369
466.249631	2395.556308
466.621358	2387.036758
466.993026	2383.306304
467.364634	2382.449308
467.736184	2382.978629
468.107674	2382.197250
468.479105	2380.079965
468.850477	2378.592825
469.221790	2386.204967
469.593043	2381.995604
469.964238	2377.987887
470.335373	2386.482231
470.706449	2387.339227
471.077467	2387.792931
471.448425	2393.363406
471.819324	2393.993550
472.190164	2387.213198
472.560945	2390.716800
472.931667	2390.540360
473.302330	2379.500233
473.672934	2390.263096
474.043479	2388.649927
474.413965	2390.489948
474.784393	2379.323792
475.154761	2383.205481
475.525070	2383.961654
475.895321	2391.699825
476.265513	2391.876265
476.635645	2389.254865
477.005719	2391.876265
477.375734	2392.708056
477.745691	2389.456512
478.115588	2399.337173
478.485427	2404.806825
478.855207	2389.859804
479.224928	2404.101063
479.594591	2411.209090
479.964194	2410.276477
480.333739	2404.453944
480.703226	2410.049625
481.072653	2406.369583
481.442022	2409.822773
481.811333	2412.444173
482.180584	2419.577406
482.549777	2419.854669
482.918912	2415.771335
483.287988	2420.157138
483.657005	2415.746129
484.025964	2425.324321
484.394864	2422.072777
484.763706	2424.795000
485.132489	2428.802717
485.501213	2420.888106
485.869879	2419.552200
486.238487	2421.820719
486.607036	2431.146854
486.975527	2426.055288
487.343959	2428.701894
487.712333	2430.340269
488.080648	2442.539862
488.448905	2429.130392
488.817104	2429.029569
489.185244	2438.935437
489.553326	2434.448810
489.921350	2444.581529
490.289315	2450.605708
490.657222	2456.100565
491.025070	2458.671554
491.392861	2457.688529
491.760593	2450.076387
492.128267	2444.934410
492.495883	2446.068669
492.863440	2444.127825
493.230939	2450.051181
493.598380	2444.178237
493.965763	2440.926692
494.333088	2443.724533
494.700354	2444.531117
495.067563	2442.086158
495.434713	2441.556837
495.801805	2450.555296
496.168839	2450.504885
496.535815	2449.874740
496.902733	2440.472988
497.269593	2448.211160
497.636395	2446.345933
498.003139	2454.865483
498.369825	2451.487910
498.736453	2450.479679
499.103023	2453.706017
499.469535	2463.889148
499.835989	2451.588733
500.202385	2448.412806
500.568723	2457.335648
500.935003	2461.343365
501.301226	2462.326390
501.667390	2457.335648
502.033497	2455.117540
502.399546	2466.611371
502.765537	2465.678758
503.131470	2464.670527
503.497345	2475.962712
503.863163	2458.192644
504.228923	2470.971969
504.594625	2462.654065
504.960269	2456.907150
505.325856	2470.341825
505.691385	2475.156127
506.056856	2470.039356
506.422270	2467.039869
506.787625	2475.660242
507.152924	2463.863942
507.518164	2483.776500
507.883347	2470.568677
508.248472	2473.391723
508.613540	2478.432877
508.978550	2479.667960
509.343503	2485.540904
509.708398	2481.911273
510.073236	2486.927221
510.438016	2493.001812
510.802738	2495.799652
511.167403	2489.094917
511.532010	2490.002325
511.896561	2497.967348
512.261053	2501.975065
512.625488	2496.833088
512.989866	2492.825371
513.354186	2503.663852
513.718449	2494.766215
514.082655	2509.209121
514.446803	2508.906652
514.810894	2523.551204
515.174927	2522.114475
515.538904	2523.904085
515.902822	2524.912315
516.266684	2529.903058
516.630488	2540.943185
516.994235	2537.439583
517.357925	2549.261088
517.721558	2554.554300
518.085133	2566.048131
518.448651	2562.821792
518.812112	2566.174160
519.175516	2586.918508
519.538863	2588.405648
519.902152	2591.304312
520.265385	2600.353183
520.628560	2607.360387
520.991678	2619.131481
521.354739	2634.128913
521.717743	2637.682927
522.080690	2650.386635
522.443580	2656.536842
522.806413	2675.491581
523.169189	2680.885615
523.531908	2689.984898
523.894569	2695.605785
524.257174	2718.265771
524.619722	2720.408262
524.982213	2745.840883
525.344647	2747.630492
525.707025	2767.190169
526.069345	2785.111471
526.431608	2803.637712
526.793815	2818.131029
527.155964	2830.759119
527.518057	2848.730833
527.880093	2871.718494
528.242072	2897.529202
528.603995	2906.023546
528.965860	2938.690223
529.327669	2959.459777
529.689421	2980.355360
530.051117	3006.392919
530.412755	3031.825540
530.774337	3053.326062
531.135862	3084.782862
531.497331	3106.031325
531.858743	3141.243785
532.220098	3176.809125
532.581396	3190.420240
532.942638	3215.676421
533.303824	3262.407917
533.664953	3305.988692
534.026025	3327.615242
534.387040	3371.725338
534.747999	3413.793767
535.108902	3455.887402
535.469748	3489.864779
535.830537	3530.824154
536.191270	3581.664190
536.551947	3612.868933
536.912567	3678.303110
537.273131	3717.019171
537.633638	3759.919390
537.994089	3818.321158
538.354483	3862.809340
538.714821	3944.173563
539.075103	4005.146319
539.435328	4052.230696
539.795497	4106.927215
540.155609	4171.126310
540.515665	4254.683435
540.875665	4282.838279
541.235609	4366.244169
541.595496	4437.601702
541.955328	4526.930948
542.315102	4560.454621
542.674821	4627.300321
543.034483	4713.554463
543.394090	4775.459833
543.753640	4857.731463
544.113134	4987.768027
544.472571	5009.949104
544.831953	5162.368390
545.191278	5210.183735
545.550548	5261.099388
545.909761	5385.288213
546.268918	5478.020238
546.628019	5594.975008
546.987064	5664.442108
547.346053	5701.166913
547.704986	5846.856260
548.063863	5925.347025
548.422684	6041.016300
548.781449	6110.861487
549.140158	6251.005563
549.498811	6342.653740
549.857408	6397.173819
550.215949	6584.125010
550.574434	6679.024731
550.932864	6757.515496
551.291237	6946.609177
551.649555	7035.182250
552.007817	7160.631363
552.366022	7258.580983
552.724173	7383.778038
553.082267	7544.742081
553.440305	7708.629992
553.798288	7739.280208
554.156215	7910.981908
554.514086	8068.719612
554.871902	8147.386817
555.229661	8268.273687
555.587365	8374.490798
555.945014	8513.727467
556.302606	8650.141090
556.660143	8796.964696
557.017625	8943.258981
557.375050	9034.024956
557.732421	9209.507521
558.089735	9346.500877
558.446994	9464.287437
558.804197	9656.632662
559.161345	9792.516963
559.518437	9783.216035
559.875474	9972.082863
560.232455	10157.798971
560.589381	10286.424012
560.946251	10387.221883
561.303065	10648.706533
561.659825	10729.440612
562.016528	10827.289408
562.373177	10880.574404
562.729770	11123.532813
563.086307	11156.854840
563.442789	11376.850794
563.799216	11513.239212
564.155587	11612.701177
564.511904	11750.652352
564.868164	11884.696633
565.224370	12099.374169
565.580520	12159.792398
565.936615	12339.030623
566.292654	12385.862942
566.648638	12606.993156
567.004567	12749.960279
567.360441	12914.150660
567.716260	12993.044717
568.072023	13195.270604
568.427732	13336.775792
568.783385	13363.443496
569.138982	13572.701792
569.494525	13684.413762
569.850013	13748.411210
570.205445	13905.493563
570.560823	14006.417463
570.916145	14109.307413
571.271412	14254.341410
571.626625	14302.282783
571.981782	14468.792094
572.336884	14473.404750
572.691931	14718.278798
573.046923	14736.502569
573.401860	14792.610612
573.756743	14920.731537
574.111570	15106.069558
574.466342	15170.142623
574.821059	15337.836606
575.175722	15329.972406
575.530330	15459.404031
575.884882	15513.319171
576.239380	15636.524971
576.593823	15762.402583
576.948211	15853.723085
577.302544	15844.548185
577.656823	15915.653660
578.011047	16174.718556
578.365216	16224.474744
578.719330	16284.187212
579.073389	16355.771596
579.427394	16508.619381
579.781344	16642.512427
580.135239	16644.654917
580.489080	16788.806712
580.842866	16761.357629
581.196597	17065.515646
581.550273	17178.336669
581.903895	17269.430319
582.257463	17534.494188
582.610975	17443.703008
582.964434	17677.637752
583.317837	17664.102254
583.671186	17731.300835
584.024481	17930.023119
584.377721	17857.909413
584.730906	18120.906410
585.084037	18268.763452
585.437113	18280.282488
585.790135	18419.342717
586.143103	18405.378721
586.496016	18574.156552
586.848874	18701.395275
587.201679	18855.856229
587.554428	18754.251773
587.907124	18952.898440
588.259765	18979.692173
588.612352	19151.167021
588.964884	19020.349079
589.317362	19263.710781
589.669786	19346.259675
590.022155	19392.512262
590.374470	19665.037038
590.726731	19583.546787
591.078937	19491.520523
591.431090	19685.151242
591.783188	19602.803994
592.135232	19574.775179
592.487222	19778.689852
592.839157	19908.600387
593.191038	19906.029398
593.542866	19885.940400
593.894639	19726.287058
594.246358	19948.778383
594.598022	20005.012454
594.949633	19960.297419
595.301190	20034.276352
595.652692	20087.384908
596.004141	20305.137548
596.355535	19953.265010
596.706876	19998.156485
597.058162	20004.861219
597.409395	20327.091773
597.760573	20484.148921
598.111698	20353.457008
598.462768	20439.156623
598.813785	20514.622696
599.164748	20376.646315
599.515657	20576.276008
599.866511	20394.365971
600.217312	20822.712813
600.568060	20374.629854
600.918753	20779.535331
601.269392	20831.484421
601.619978	20716.999817
601.970510	20870.477746
602.320988	21024.837877
602.671412	21233.541646
603.021783	21186.759738
603.372100	21022.771004
603.722363	21115.906321
604.072572	21225.627035
604.422728	21255.168196
604.772830	21203.067871
605.122878	21325.618321
605.472872	21321.484575
605.822813	21480.507773
606.172701	21377.315354
606.522534	21576.516548
606.872314	21722.634392
607.222041	21644.899800
607.571714	21852.166840
607.921333	21561.796379
608.270899	21748.999627
608.620411	21937.362340
608.969870	21855.015092
609.319276	21821.718271
609.668627	21855.519208
610.017926	22118.642233
610.367171	22197.889171
610.716362	22241.016242
611.065500	22183.295031
611.414585	22275.422117
611.763616	22409.743662
612.112594	22342.494669
612.461518	22448.308488
612.810389	22577.639290
613.159207	22480.042552
613.507971	22489.671156
613.856682	22685.368748
614.205340	22573.631573
614.553945	22945.719138
614.902496	22572.522519
615.250994	22793.627527
615.599439	22804.692860
615.947830	22814.649138
616.296169	22791.661477
616.644454	22829.394513
616.992686	22857.524152
617.340864	23043.895610
617.688990	22838.014887
618.037063	23045.433162
618.385082	22951.768523
618.733048	23031.494371
619.080961	22960.086427
619.428821	22891.022619
619.776628	22896.315831
620.124382	22743.392429
620.472083	22719.295713
620.819731	22742.283375
621.167326	22521.783306
621.514868	22447.199435
621.862357	22188.966329
622.209793	22165.827433
622.557176	21973.608237
622.904506	21767.702308
623.251783	21546.168802
623.599007	21400.303015
623.946179	21223.711396
624.293297	21183.634223
624.640363	20823.973102
624.987376	20745.079044
625.334336	20567.554812
625.681243	20340.778506
626.028097	20272.874163
626.374899	20140.821138
626.721647	20047.106088
627.068343	19922.035062
627.414987	19715.927487
627.761577	19542.108502
628.108115	19626.799887
628.454600	19281.228790
628.801032	19280.749881
629.147412	19196.839875
629.493739	19095.437065
629.840014	18845.042954
630.186236	18891.245129
630.532405	18635.961098
630.878521	18676.920473
631.224585	18476.711048
631.570597	18275.291746
631.916556	18267.200694
632.262462	18137.693452
632.608316	18023.309671
632.954117	17906.783400
633.299866	17781.460315
633.645562	17699.844035
633.991206	17402.063077
634.336797	17149.274417
634.682336	17039.780556
635.027823	16875.237294
635.373257	16761.307217
635.718639	16549.982048
636.063968	16438.244873
636.409245	16123.550844
636.754470	16049.269442
637.099642	15890.447890
637.444762	15599.396873
637.789829	15628.131450
638.134845	15437.752275
638.479808	15276.309323
638.824719	15207.850454
639.169577	14946.643067
639.514383	14912.312810
639.859137	14708.221696
640.203839	14731.032917
640.548489	14515.170710
640.893086	14462.541063
641.237632	14291.998829
641.582125	14249.527108
641.926566	14121.910298
642.270955	14052.140729
642.615292	13967.146875
642.959576	13866.349004
643.303809	13803.838696
643.647990	13768.979117
643.992118	13694.697715
644.336195	13576.407040
644.680219	13538.598387
645.024192	13567.433787
645.368112	13676.045446
645.711981	13598.764558
646.055797	13776.666877
646.399562	13667.828365
646.743274	13865.945712
647.086935	13907.862906
647.430544	13785.035192
647.774101	13698.176112
648.117606	13710.426115
648.461059	13659.636490
648.804460	13460.435296
649.147810	13195.194987
649.491108	13004.815812
649.834354	12793.389819
650.177548	12488.526040
650.520690	12257.842840
650.863781	12204.356198
651.206820	12093.274373
651.549807	11922.480081
651.892742	11720.102960
652.235626	11591.931623
652.578458	11491.184163
652.921238	11250.418656
653.263967	11266.852817
653.606644	11129.481375
653.949269	11050.360465
654.291843	10847.958138
654.634365	10897.739533
654.976836	10734.431354
655.319255	10647.975565
655.661622	10571.929760
656.003938	10454.521287
656.346203	10347.724442
656.688416	10361.461587
657.030577	10246.876160
657.372687	10124.300504
657.714746	10126.064908
658.056753	10108.496487
658.398708	9909.925437
658.740612	9853.212456
659.082465	9855.128094
659.424266	9771.621381
659.766016	9724.032888
660.107715	9639.820413
660.449362	9610.455692
660.790958	9560.775121
661.132503	9484.830138
661.473996	9457.935583
661.815438	9411.506556
662.156829	9400.894927
662.498168	9277.185012
662.839456	9220.925735
663.180693	9205.298158
663.521879	9173.564094
663.863013	9129.378381
664.204097	9055.374242
664.545129	9113.750804
664.886110	9042.821769
665.227040	8996.619594
665.567918	8976.732242
665.908746	8912.180267
666.249522	8916.364425
666.590248	8825.598450
666.930922	8808.130852
667.271545	8729.186383
667.612118	8713.331954
667.952639	8604.896735
668.293109	8560.660610
668.633528	8491.697625
668.973896	8431.607071
669.314213	8388.328765
669.654480	8312.459400
669.994695	8254.057633
670.334859	8174.407402
670.674973	8117.165100
671.015035	8080.440294
671.355047	8049.664050
671.695008	7993.606419
672.034918	7926.685102
672.374777	7887.893423
672.714585	7824.853794
673.054342	7821.753485
673.394049	7720.199440
673.733705	7744.875888
674.073310	7631.601162
674.412864	7599.085719
674.752368	7482.534242
675.091820	7485.458112
675.431223	7379.064560
675.770574	7290.163812
676.109875	7228.686940
676.449125	7137.996583
676.788324	7078.763025
677.127473	6983.384394
677.466571	6910.161635
677.805619	6851.608633
678.144616	6798.449665
678.483562	6750.256235
678.822458	6684.242325
679.161303	6628.310723
679.500098	6581.075112
679.838842	6545.182096
680.177535	6532.150713
680.516179	6549.240225
680.854771	6580.898671
681.193314	6698.458379
681.531805	6838.022723
681.870247	6884.073663
682.208638	6923.571104
682.546978	6896.550519
682.885268	6864.362752
683.223508	6747.786069
683.561697	6668.009810
683.899836	6616.413600
684.237925	6520.152767
684.575963	6482.268496
684.913951	6402.189767
685.251889	6416.683085
685.589776	6381.974740
685.927614	6372.270519
686.265401	6365.011258
686.603137	6367.078131
686.940824	6415.926912
687.278460	6446.703156
687.616046	6424.925371
687.953582	6480.882179
688.291068	6454.416121
688.628504	6445.820954
688.965889	6406.273102
689.303224	6332.798285
689.640510	6235.529221
689.977745	6112.499862
690.314930	5968.675742
690.652065	5888.319750
690.989150	5751.477629
691.326185	5630.741994
691.663170	5501.789279
692.000105	5407.217233
692.336990	5289.002175
692.673825	5218.678079
693.010610	5141.044310
693.347345	5073.442437
693.684030	4961.806085
694.020665	4909.856994
694.357251	4828.215508
694.693786	4799.254079
695.030272	4754.992748
695.366707	4689.861040
695.703093	4644.465450
696.039429	4629.266371
696.375716	4583.316254
696.711952	4575.678906
697.048139	4548.305440
697.384276	4523.200494
697.720363	4521.058004
698.056400	4483.728260
698.392388	4444.961787
698.728326	4415.319802
699.064214	4389.307448
699.400053	4355.254454
699.735842	4317.193742
700.071581	4266.630969
700.407270	4216.572312
700.742910	4185.720450
701.078501	4142.038852
701.414042	4085.905604
701.749533	4069.093356
702.084974	4017.976056
702.420366	4022.588712
702.755709	3960.002787
703.091002	3918.312444
703.426246	3911.632915
703.761440	3893.661202
704.096584	3862.053167
704.431679	3837.981658
704.766725	3831.604598
705.101721	3811.792863
705.436668	3807.684323
705.771565	3767.758385
706.106413	3789.057260
706.441212	3777.336577
706.775961	3771.614867
707.110661	3767.581944
707.445311	3794.501706
707.779913	3780.411681
708.114465	3797.148312
708.448967	3804.735248
708.783421	3850.231662
709.117825	3873.244529
709.452180	3895.551635
709.786485	3929.075308
710.120742	3979.335612
710.454949	3994.408662
710.789107	4035.242008
711.123216	4085.250254
711.457275	4088.375769
711.791286	4126.436481
712.125247	4115.295531
712.459159	4087.216304
712.793023	4127.495123
713.126837	4016.564533
713.460602	4015.833565
713.794318	3973.185404
714.127985	3908.078902
714.461602	3827.042354
714.795171	3795.459525
715.128691	3708.146740
715.462162	3658.793844
715.795584	3610.524796
716.128957	3576.497008
716.462281	3537.503683
716.795556	3513.709437
717.128782	3472.145123
717.461960	3420.851383
717.795088	3412.104981
718.128167	3381.807646
718.461198	3349.443438
718.794180	3325.447546
719.127113	3302.913588
719.459997	3277.606996
719.792833	3254.115219
720.125619	3248.872419
720.458357	3210.937737
720.791046	3195.587423
721.123686	3191.403265
721.456278	3168.566838
721.788821	3167.609019
722.121315	3142.882160
722.453761	3137.462919
722.786158	3130.581744
723.118506	3122.919190
723.450805	3124.431537
723.783056	3124.910446
724.115259	3126.195940
724.447412	3122.843573
724.779518	3129.800365
725.111574	3128.010756
725.443582	3122.793162
725.775542	3125.490179
726.107453	3146.587408
726.439315	3152.485558
726.771129	3176.431038
727.102895	3184.648119
727.434612	3197.553473
727.766281	3201.863660
728.097901	3199.821992
728.429473	3194.780838
728.760996	3195.259748
729.092471	3188.076104
729.423897	3178.976821
729.755276	3167.104904
730.086606	3165.768998
730.417887	3185.051412
730.749120	3201.006663
731.080305	3197.074563
731.411442	3199.217054
731.742530	3196.318390
732.073570	3208.593600
732.404562	3209.047304
732.735506	3186.664581
733.066401	3157.199037
733.397249	3109.459310
733.728048	3092.596650
734.058798	3028.447967
734.389501	2996.411435
734.720156	2970.802373
735.050762	2945.420163
735.381320	2931.330138
735.711831	2915.702562
736.042293	2902.141858
736.372707	2901.083215
736.703073	2886.589898
737.033391	2894.202040
737.363661	2891.933521
737.693883	2899.747310
738.024056	2917.744229
738.354182	2917.466965
738.684260	2932.691250
739.014290	2940.454627
739.344272	2955.603294
739.674207	2958.602781
740.004093	2967.248360
740.333931	2956.107410
740.663722	2955.351237
740.993464	2945.394958
741.323159	2938.942281
741.652806	2921.676329
741.982405	2902.091446
742.311956	2880.313662
742.641460	2860.753985
742.970915	2861.913450
743.300323	2836.783298
743.629683	2822.037923
743.958996	2811.023002
744.288260	2799.176290
744.617477	2777.852210
744.946647	2768.702515
745.275768	2764.115065
745.604842	2756.477717
745.933869	2742.463310
746.262847	2732.985940
746.591778	2737.321333
746.920662	2732.002915
747.249498	2733.036352
747.578286	2738.203535
747.907027	2745.437590
748.235720	2751.486975
748.564365	2746.294587
748.892963	2740.925758
749.221514	2733.313615
749.550017	2721.567727
749.878473	2715.493137
750.206881	2715.820812
750.535242	2712.518856
750.863555	2708.964842
751.191821	2707.326467
751.520039	2703.469985
751.848210	2694.673171
752.176334	2702.486960
752.504411	2692.757533
752.832440	2688.346523
753.160421	2694.723583
753.488356	2676.172137
753.816243	2682.145904
754.144082	2678.843948
754.471875	2673.878412
754.799620	2666.644356
755.127318	2666.039417
755.454969	2657.242604
755.782572	2659.435506
756.110129	2660.292502
756.437638	2665.081598
756.765100	2650.613487
757.092515	2659.082625
757.419882	2665.157215
757.747203	2659.737975
758.074477	2657.066163
758.401703	2669.215344
758.728882	2667.400529
759.056014	2668.862463
759.383099	2669.744665
759.710138	2672.038390
760.037129	2668.912875
760.364073	2674.836231
760.690970	2670.248781
761.017820	2672.013185
761.344623	2678.768331
761.671379	2679.398475
761.998088	2704.100129
762.324751	2773.239554
762.651366	2857.023531
762.977935	2939.093515
763.304456	2960.921712
763.630931	2940.429421
763.957359	2898.058523
764.283740	2851.730319
764.610074	2802.150571
764.936362	2744.252919
765.262602	2706.595500
765.588796	2677.583660
765.914943	2651.344454
766.241044	2639.699388
766.567097	2612.149483
766.893104	2603.251846
767.219064	2585.254927
767.544978	2574.718915
767.870845	2570.862433
768.196665	2563.502348
768.522438	2555.663354
768.848165	2547.874771
769.173846	2558.259548
769.499479	2539.481250
769.825066	2539.254398
770.150607	2524.231760
770.476101	2524.156142
770.801548	2532.196783
771.126949	2525.970958
771.452303	2521.938035
771.777611	2516.947292
772.102872	2516.997704
772.428087	2507.066631
772.753256	2505.856754
773.078378	2495.522388
773.403453	2494.110865
773.728482	2491.035762
774.053465	2498.799138
774.378401	2482.768269
774.703291	2490.657675
775.028135	2478.306848
775.352932	2489.750267
775.677683	2479.189050
776.002388	2475.408185
776.327046	2478.130408
776.651658	2475.962712
776.976224	2471.123204
777.300743	2469.661269
777.625216	2479.289873
777.949643	2465.174642
778.274024	2475.282156
778.598359	2470.367031
778.922647	2473.467340
779.246889	2462.452419
779.571086	2464.116000
779.895236	2476.718885
780.219339	2466.737400
780.543397	2464.015177
780.867409	2460.940073
781.191374	2464.771350
781.515294	2462.906123
781.839167	2462.124744
782.162995	2473.467340
782.486776	2454.462190
782.810511	2456.176183
783.134201	2456.629887
783.457844	2461.318160
783.781441	2454.134515
784.104993	2453.277519
784.428498	2457.814558
784.751958	2461.645835
785.075372	2457.512088
785.398739	2457.083590
785.722061	2451.412292
786.045337	2456.377829
786.368568	2464.594910
786.691752	2453.428754
787.014891	2465.804787
787.337983	2475.004892
787.661030	2477.979173
787.984031	2485.389669
788.306987	2485.641727
788.629897	2496.328973
788.952760	2486.977633
789.275579	2484.658702
789.598351	2470.190590
789.921078	2473.240488
790.243759	2465.124231
790.566395	2455.747685
790.888984	2458.646348
791.211529	2457.638117
791.534027	2439.994079
791.856480	2437.448296
792.178888	2449.093362
792.501249	2452.042437
792.823566	2439.464758
793.145836	2439.641198
793.468062	2439.968873
793.790241	2446.774431
794.112375	2440.019285
794.434464	2446.799637
794.756507	2434.675662
795.078505	2447.707044
795.400457	2456.302212
795.722364	2451.865996
796.044226	2444.531117
796.366042	2455.621656
796.687812	2451.084617
797.009538	2464.292440
797.331218	2453.000256
797.652852	2451.538321
797.974442	2458.091821
798.295986	2451.286263
798.617484	2444.732763
798.938938	2438.380910
799.260346	2450.882971
799.581709	2440.372165
799.903026	2446.119081
800.224299	2438.834613
800.545526	2437.876794
800.866708	2437.952412
801.187845	2430.063006
801.508936	2430.869590
801.829983	2428.021338
802.150984	2427.693663
802.471940	2427.744075
802.792851	2423.081008
803.113717	2425.500762
803.434538	2419.224525
803.755314	2424.719383
804.076045	2432.911258
804.396731	2427.668458
804.717372	2418.846438
805.037967	2418.947262
805.358518	2421.316604
805.679024	2435.331012
805.999485	2421.266192
806.319901	2425.500762
806.640272	2427.895310
806.960598	2429.054775
807.280879	2425.500762
807.601115	2421.593867
807.921306	2412.141704
808.241453	2428.323808
808.561554	2430.037800
808.881611	2432.608788
809.201623	2421.417427
809.521590	2422.375246
809.841513	2426.660227
810.161390	2426.685433
810.481223	2430.844385
810.801011	2419.073290
811.120755	2424.895823
811.440453	2410.200860
811.760107	2409.595921
812.079716	2409.772362
812.399281	2414.460635
812.718801	2416.376273
813.038276	2415.519277
813.357707	2415.216808
813.677093	2414.737898
813.996434	2421.845925
814.315731	2417.686973
814.634983	2413.502815
814.954191	2415.090779
815.273354	2425.147881
815.592473	2422.854156
815.911547	2427.870104
816.230577	2425.601585
816.549562	2412.141704
816.868502	2425.853642
817.187399	2429.105187
817.506250	2426.912285
817.825058	2426.534198
818.143821	2431.726587
818.462539	2431.524940
818.781213	2438.910231
819.099843	2441.077927
819.418429	2456.730710
819.736970	2466.913840
820.055466	2483.221973
820.373919	2501.067658
820.692327	2553.218394
821.010691	2609.628906
821.329011	2765.224119
821.647286	2957.518933
821.965517	3093.201588
822.283704	3108.375462
822.601847	3063.181517
822.919945	2965.836837
823.237999	2882.178888
823.556010	2812.837817
823.873976	2743.446335
824.191897	2680.759587
824.509775	2642.673669
824.827609	2603.075406
825.145398	2582.280646
825.463144	2577.768813
825.780845	2579.129925
826.098502	2611.695779
826.416116	2648.168527
826.733685	2662.460198
827.051210	2650.537869
827.368692	2615.728702
827.686129	2580.062538
828.003522	2541.321271
828.320872	2507.621158
828.638177	2494.564569
828.955439	2467.670013
829.272656	2470.316619
829.589830	2446.119081
829.906960	2448.664863
830.224046	2431.650969
830.541088	2439.464758
830.858086	2421.240987
831.175041	2421.493044
831.491952	2419.779052
831.808819	2421.845925
832.125642	2436.767740
832.442421	2447.959102
832.759157	2470.114973
833.075849	2495.093890
833.392497	2508.705006
833.709101	2510.696262
834.025662	2496.908706
834.342179	2479.163844
834.658653	2463.586679
834.975083	2462.528037
835.291469	2450.278033
835.607811	2438.355704
835.924110	2423.484300
836.240366	2425.450350
836.556578	2418.090265
836.872746	2404.176681
837.188871	2409.873185
837.504952	2399.740465
837.820990	2395.959600
838.136984	2404.000240
838.452935	2402.437483
838.768842	2397.471946
839.084706	2412.595408
839.400526	2420.762077
839.716303	2434.751279
840.032037	2430.390681
840.347727	2417.888619
840.663373	2416.577919
840.978977	2420.157138
841.294537	2401.958573
841.610054	2410.200860
841.925527	2403.319685
842.240957	2396.362892
842.556344	2398.303737
842.871687	2390.842829
843.186987	2390.086656
843.502244	2385.877292
843.817458	2385.726058
844.132629	2380.231200
844.447756	2383.104658
844.762840	2380.584081
845.077881	2381.113402
845.392879	2370.426156
845.707833	2383.407127
846.022745	2381.819163
846.337613	2386.154556
846.652438	2390.994063
846.967221	2381.441077
847.281960	2383.457538
847.596656	2383.129863
847.911309	2377.408154
848.225919	2379.525438
848.540485	2384.339740
848.855009	2381.844369
849.169490	2381.743546
849.483928	2382.650954
849.798323	2380.810933
850.112675	2384.793444
850.426984	2386.255379
850.741251	2379.046529
851.055474	2387.717313
851.369654	2383.054246
851.683792	2378.920500
851.997887	2384.743033
852.311938	2391.901471
852.625947	2383.306304
852.939914	2381.541900
853.253837	2379.979142
853.567718	2381.113402
853.881555	2382.272867
854.195350	2375.316075
854.509103	2381.793958
854.822812	2378.920500
855.136479	2382.298073
855.450103	2377.811446
855.763685	2384.415358
856.077224	2375.038812
856.390720	2379.651467
856.704173	2375.921013
857.017584	2386.255379
857.330953	2382.222456
857.644278	2391.019269
857.957561	2383.709596
858.270802	2384.541387
858.584000	2383.936448
858.897155	2377.609800
859.210268	2383.079452
859.523339	2375.946219
859.836367	2378.693648
860.149352	2390.691594
860.462295	2381.264637
860.775195	2380.155583
861.088054	2371.484798
861.400869	2379.651467
861.713642	2373.249202
862.026373	2385.398383
862.339062	2383.659185
862.651708	2389.758981
862.964312	2380.483258
863.276873	2376.979656
863.589392	2376.021837
863.901869	2382.877806
864.214303	2374.131404
864.526696	2378.492002
864.839045	2388.070194
865.151353	2388.549104
865.463619	2386.658671
865.775842	2392.128323
866.088023	2384.818650
866.400162	2383.886037
866.712258	2384.138094
867.024313	2374.887577
867.336325	2387.465256
867.648296	2380.130377
867.960224	2382.197250
868.272110	2385.121119
868.583954	2376.097454
868.895755	2384.062477
869.207515	2382.424102
869.519233	2382.222456
869.830909	2376.475540
870.142542	2375.971425
870.454134	2386.003321
870.765684	2384.390152
871.077191	2384.944679
871.388657	2382.701365
871.700081	2378.013092
872.011463	2384.869062
872.322803	2383.860831
872.634101	2380.004348
872.945357	2386.986346
873.256571	2386.532642
873.567744	2385.196737
873.878874	2391.372150
874.189963	2383.407127
874.501010	2383.129863
874.812015	2381.995604
875.122979	2380.911756
875.433900	2386.129350
875.744780	2378.769265
876.055618	2381.516694
876.366415	2377.282125
876.677169	2385.448794
876.987882	2385.877292
877.298554	2382.802188
877.609183	2377.861858
877.919771	2384.667415
878.230317	2383.331510
878.540822	2389.078425
878.851285	2402.135013
879.161707	2400.899931
879.472087	2395.984806
879.782425	2404.680796
880.092722	2434.625250
880.402977	2464.166412
880.713191	2490.178765
881.023363	2526.021369
881.333494	2512.561488
881.643583	2513.317662
881.953631	2517.325379
882.263637	2498.219406
882.573602	2483.524442
882.883526	2479.088227
883.193408	2460.561987
883.503248	2463.586679
883.813048	2442.413833
884.122806	2446.497167
884.432522	2434.095929
884.742197	2416.729154
885.051831	2417.964237
885.361424	2407.327402
885.670975	2410.957033
885.980485	2397.043448
886.289954	2403.370096
886.599382	2404.302710
886.908768	2389.910215
887.218113	2389.229660
887.527417	2387.036758
887.836680	2386.935935
888.145901	2397.976062
888.455082	2389.254865
888.764221	2381.163813
889.073319	2379.550644
889.382376	2382.499719
889.691392	2388.019783
890.000366	2387.087169
890.309300	2373.249202
890.618193	2381.869575
890.927044	2384.415358
891.235855	2387.087169
891.544625	2391.649413
891.853353	2383.760008
892.162041	2389.708569
892.470687	2387.515667
892.779293	2388.297046
893.087858	2389.784187
893.396381	2395.253838
893.704864	2400.269787
894.013306	2404.000240
894.321707	2405.260529
894.630068	2412.141704
894.938387	2408.587690
895.246665	2409.117012
895.554903	2408.990983
895.863100	2403.193656
896.171256	2402.613923
896.479371	2403.420508
896.787446	2400.471433
897.095480	2400.572256
897.403473	2390.716800
897.711425	2385.524412
898.019336	2394.018756
898.327207	2393.791904
898.635038	2385.927704
898.942827	2383.810419
899.250576	2390.968858
899.558284	2390.414331
899.865952	2371.988913
900.173579	2387.918960
900.481165	2385.095913
900.788711	2379.374204
901.096216	2386.658671
901.403681	2381.718340
901.711105	2380.584081
902.018489	2374.207021
902.325832	2384.339740
902.633135	2383.255892
902.940397	2387.137581
903.247619	2394.220402
903.554800	2403.924623
903.861941	2417.258475
904.169041	2412.343350
904.476101	2409.948802
904.783121	2408.864954
905.090100	2414.813515
905.397039	2401.051165
905.703938	2397.245094
906.010796	2398.933881
906.317614	2401.151988
906.624391	2389.179248
906.931129	2384.087683
907.237826	2385.700852
907.544483	2386.709083
907.851099	2379.122146
908.157675	2379.928731
908.464211	2376.500746
908.770707	2370.854654
909.077163	2378.013092
909.383578	2368.686958
909.689954	2367.855167
909.996289	2378.214738
910.302584	2370.048069
910.608839	2376.324306
910.915054	2379.348998
911.221229	2380.810933
911.527363	2372.291383
911.833458	2374.383462
912.139513	2378.492002
912.445527	2377.584594
912.751502	2381.642723
913.057436	2378.315562
913.363331	2381.592312
913.669186	2380.609287
913.975000	2380.306817
914.280775	2380.785727
914.586510	2396.388098
914.892205	2391.699825
915.197859	2403.143244
915.503475	2399.185938
915.809050	2402.916392
916.114585	2408.915365
916.420081	2418.871644
916.725536	2410.831004
917.030952	2406.041908
917.336328	2403.823800
917.641665	2397.245094
917.946961	2399.664848
918.252218	2402.261042
918.557435	2382.978629
918.862612	2398.177708
919.167750	2392.582027
919.472848	2392.178735
919.777906	2383.684390
920.082925	2388.070194
920.387904	2384.289329
920.692843	2375.618544
920.997743	2380.987373
921.302603	2378.920500
921.607423	2373.677700
921.912204	2380.105171
922.216946	2376.425129
922.521647	2386.255379
922.826310	2380.659698
923.130932	2375.517721
923.435516	2383.558362
923.740059	2377.206508
924.044564	2376.626775
924.349028	2372.644263
924.653454	2373.299613
924.957840	2373.929758
925.262186	2369.191073
925.566493	2373.602083
925.870761	2376.954450
926.174989	2377.735829
926.479178	2381.113402
926.783328	2377.836652
927.087438	2378.996117
927.391509	2372.719881
927.695541	2372.493029
927.999533	2372.039325
928.303486	2376.929244
928.607400	2373.501260
928.911275	2372.039325
929.215110	2372.694675
929.518906	2372.921527
929.822663	2369.140662
930.126381	2371.787267
930.430060	2375.416898
930.733699	2367.880373
931.037299	2378.492002
931.340861	2370.829448
931.644383	2375.416898
931.947866	2369.317102
932.251309	2374.685931
932.554714	2374.786754
932.858080	2370.325333
933.161407	2380.231200
933.464694	2368.913810
933.767943	2370.249715
934.071153	2373.249202
934.374323	2376.299100
934.677455	2366.821731
934.980548	2379.802702
935.283602	2374.383462
935.586617	2379.827908
935.889593	2363.595392
936.192530	2370.174098
936.495428	2375.467310
936.798287	2383.306304
937.101108	2371.484798
937.403890	2373.324819
937.706632	2369.947246
938.009336	2371.308358
938.312002	2379.853113
938.614628	2373.677700
938.917216	2378.794471
939.219765	2374.559902
939.522275	2375.794985
939.824747	2372.921527
940.127179	2376.475540
940.429573	2370.174098
940.731929	2366.796525
941.034246	2373.702906
941.336524	2383.205481
941.638763	2372.518235
941.940964	2376.752804
942.243126	2368.838192
942.545250	2373.602083
942.847335	2366.998171
943.149381	2369.922040
943.451389	2368.132431
943.753359	2371.459592
944.055290	2364.326360
944.357182	2373.980169
944.659036	2374.156610
944.960851	2374.106198
945.262628	2374.786754
945.564367	2373.400437
945.866067	2378.567619
946.167729	2364.452388
946.469352	2366.796525
946.770937	2370.199304
947.072484	2366.141175
947.373992	2367.855167
947.675462	2361.881400
947.976893	2374.055787
948.278286	2371.888090
948.579641	2370.123687
948.880958	2371.459592
949.182236	2370.375744
949.483476	2366.594879
949.784678	2373.299613
950.085841	2370.829448
950.386967	2374.610313
950.688054	2376.904038
950.989103	2375.240458
951.290114	2376.929244
951.591087	2376.803215
951.892021	2369.443131
952.192917	2366.972965
952.493776	2369.619571
952.794596	2368.737369
953.095378	2377.660212
953.396122	2371.510004
953.696828	2377.635006
953.997496	2369.191073
954.298126	2362.687985
954.598718	2366.267204
954.899272	2366.418438
955.199788	2371.837679
955.500266	2376.173071
955.800706	2366.317615
956.101108	2366.972965
956.401472	2367.603110
956.701798	2374.131404
957.002087	2367.023377
957.302337	2372.845910
957.602550	2373.299613
957.902724	2374.635519
958.202861	2378.265150
958.502960	2367.577904
958.803022	2368.308871
959.103045	2371.333563
959.403031	2373.526465
959.702979	2371.812473
960.002889	2367.149406
960.302762	2376.374717
960.602596	2369.039838
960.902393	2371.005888
961.202153	2377.030067
961.501875	2372.266177
961.801559	2373.652494
962.101205	2368.208048
962.400814	2374.585108
962.700385	2376.021837
962.999918	2367.124200
963.299414	2368.434900
963.598873	2374.786754
963.898293	2372.518235
964.197677	2369.468337
964.497022	2368.132431
964.796331	2363.368540
965.095601	2371.232740
965.394835	2370.073275
965.694030	2367.098994
965.993189	2371.913296
966.292309	2369.972452
966.591393	2360.116996
966.890439	2363.217306
967.189447	2373.476054
967.488419	2374.055787
967.787353	2366.872142
968.086249	2375.240458
968.385108	2372.845910
968.683930	2374.080992
968.982714	2373.778523
969.281462	2369.796012
969.580172	2361.906606
969.878844	2375.996631
970.177480	2366.897348
970.476078	2371.358769
970.774639	2371.888090
971.073162	2363.847450
971.371649	2368.006402
971.670098	2355.378312
971.968510	2366.342821
972.266885	2352.504854
972.565223	2366.191587
972.863524	2366.166381
973.161788	2368.359283
973.460014	2366.191587
973.758204	2375.769779
974.056356	2362.814013
974.354471	2360.444671
974.652550	2372.820704
974.950591	2367.779550
975.248595	2361.276462
975.546563	2361.074815
975.844493	2369.518748
976.142386	2361.100021
976.440243	2366.418438
976.738062	2367.502287
977.035845	2369.317102
977.333590	2358.730679
977.631299	2361.553725
977.928971	2371.938502
978.226606	2368.712163
978.524204	2370.526979
978.821765	2364.477594
979.119290	2361.049610
979.416777	2367.603110
979.714228	2365.082533
980.011642	2360.570700
980.309020	2360.495083
980.606360	2367.829962
980.903664	2368.939015
981.200931	2369.871629
981.498162	2369.518748
981.795356	2371.938502
982.092513	2369.594365
982.389633	2369.317102
982.686717	2365.889117
982.983764	2372.467823
983.280775	2368.384488
983.577749	2359.814527
983.874686	2365.889117
984.171587	2368.485312
984.468451	2362.385515
984.765279	2368.182842
985.062070	2364.956504
985.358824	2366.115969
985.655543	2366.267204
985.952224	2372.619058
986.248869	2365.712677
986.545478	2354.092817
986.842050	2363.847450
987.138586	2366.494056
987.435086	2365.208562
987.731549	2360.973992
988.027975	2374.106198
988.324366	2367.451875
988.620719	2362.108252
988.917037	2361.074815
989.213318	2370.451362
989.509563	2365.863912
989.805772	2362.461133
990.101944	2361.251256
990.398080	2362.965248
990.694180	2363.746627
990.990244	2361.226050
991.286271	2368.359283
991.582262	2366.115969
991.878217	2367.376258
992.174136	2367.225023
992.470019	2365.511031
992.765865	2366.216792
993.061676	2360.343848
993.357450	2364.956504
993.653188	2370.577390
993.948890	2365.989940
994.244556	2367.678727
994.540186	2369.191073
994.835780	2359.638087
995.131337	2369.367513
995.426859	2361.654548
995.722345	2370.375744
996.017795	2368.560929
996.313208	2364.780063
996.608586	2359.940556
996.903928	2370.627802
997.199234	2370.274921
997.494504	2368.913810
997.789738	2367.527492
998.084936	2362.335104
998.380099	2368.838192
998.675225	2371.031094
998.970316	2367.023377
999.265371	2364.401977
999.560390	2356.159690
999.855373	2365.158150
1000.150320	2369.972452
1000.445232	2363.393746
1000.740108	2354.521315
1001.034948	2362.914837
1001.329752	2361.679754
1001.624521	2360.495083
1001.919254	2358.226563
1002.213951	2368.082019
1002.508613	2367.729138
1002.803239	2363.242512
1003.097829	2366.166381
1003.392384	2362.435927
1003.686903	2368.636546
1003.981386	2370.753831
1004.275834	2360.293437
1004.570246	2354.244052
1004.864623	2359.184383
1005.158964	2365.889117
1005.453270	2363.242512
1005.747540	2368.132431
1006.041775	2366.468850
1006.335974	2363.242512
1006.630138	2361.301667
1006.924266	2361.352079
1007.218359	2362.687985
1007.512416	2361.226050
1007.806438	2363.998685
1008.100425	2352.782117
1008.394376	2361.679754
1008.688292	2367.023377
1008.982172	2363.973479
1009.276017	2366.393233
1009.569827	2359.965762
1009.863602	2359.310412
1010.157341	2364.805269
1010.451045	2361.326873
1010.744714	2362.360310
1011.038347	2362.561956
1011.331945	2353.235821
1011.625508	2365.763088
1011.919036	2356.613394
1012.212528	2363.318129
1012.505986	2362.561956
1012.799408	2361.074815
1013.092795	2361.957017
1013.386147	2364.376771
1013.679464	2365.309385
1013.972745	2365.536237
1014.265992	2360.948787
1014.559204	2360.747140
1014.852380	2359.360823
1015.145521	2358.907119
1015.438628	2356.487365
1015.731699	2367.603110
1016.024736	2362.335104
1016.317737	2363.116483
1016.610703	2367.401463
1016.903635	2360.822758
1017.196531	2348.900429
1017.489393	2359.033148
1017.782219	2366.191587
1018.075011	2359.184383
1018.367768	2369.140662
1018.660490	2365.359796
1018.953177	2365.359796
1019.245829	2365.359796
