Dividing Wavelength (nm)	Counts (n)	Slit_number_4_of_a_total_of_40	
326.493990	1935.727460
326.888308	1935.727460
327.282561	1935.727460
327.676750	1913.193502
328.070874	1929.829310
328.464933	1927.485173
328.858929	1942.406988
329.252859	1950.472835
329.646726	1969.150310
330.040528	1985.660088
330.434265	2006.101967
330.827938	2025.006294
331.221547	2049.985212
331.615091	2063.445092
332.008571	2088.776890
332.401986	2105.362287
332.795338	2122.124123
333.188625	2155.219298
333.581847	2161.041831
333.975006	2185.062929
334.368100	2198.926102
334.761129	2212.814481
335.154095	2228.542881
335.546996	2253.597415
335.939833	2290.044958
336.332606	2302.345373
336.725315	2305.067596
337.117960	2318.426654
337.510540	2323.694660
337.903056	2332.718325
338.295508	2335.843840
338.687896	2345.346415
339.080220	2350.715244
339.472480	2354.067612
339.864676	2360.570700
340.256807	2356.764629
340.648875	2362.032635
341.040879	2365.032121
341.432818	2369.796012
341.824694	2365.914323
342.216506	2361.402490
342.608253	2365.838706
342.999937	2369.241485
343.391557	2354.118023
343.783113	2367.754344
344.174605	2367.098994
344.566033	2354.773373
344.957397	2354.722962
345.348697	2355.832015
345.739934	2357.546008
346.131106	2346.631910
346.522215	2359.738910
346.913260	2344.766683
347.304241	2349.404544
347.695159	2339.801146
348.086012	2347.589729
348.476802	2342.472958
348.867528	2340.456496
349.258191	2341.968842
349.648789	2344.111333
350.039324	2341.439521
350.429796	2340.708554
350.820203	2331.836123
351.210548	2336.499190
351.600828	2343.279542
351.991045	2341.237875
352.381198	2344.489419
352.771288	2331.256390
353.161314	2330.273365
353.551276	2326.265648
353.941175	2336.600013
354.331010	2338.137565
354.720782	2333.373675
355.110490	2339.473471
355.500135	2338.868533
355.889717	2336.776454
356.279235	2344.363390
356.668689	2345.497650
357.058080	2339.423060
357.447408	2339.498677
357.836672	2332.516679
358.225873	2335.087667
358.615010	2329.542398
359.004084	2335.364931
359.393095	2339.523883
359.782043	2342.069665
360.170927	2337.330981
360.559748	2336.902483
360.948505	2348.850017
361.337199	2338.364417
361.725830	2341.691579
362.114398	2344.514625
362.502903	2343.632423
362.891344	2343.783658
363.279722	2343.077896
363.668037	2346.808350
364.056289	2344.010510
364.444478	2340.582525
364.832603	2345.699296
365.220665	2340.078410
365.608665	2348.648371
365.996601	2342.346929
366.384474	2345.069152
366.772284	2340.254850
367.160031	2346.077383
367.547715	2358.529033
367.935336	2345.900942
368.322893	2340.884994
368.710388	2345.144769
369.097820	2351.950327
369.485189	2347.186437
369.872495	2343.103102
370.259738	2350.236335
370.646918	2345.900942
371.034035	2351.219360
371.421090	2350.664833
371.808081	2347.085613
372.195010	2351.194154
372.581875	2344.716271
372.968678	2358.075329
373.355418	2350.589215
373.742096	2349.228104
374.128710	2348.976046
374.515262	2350.160717
374.901751	2346.052177
375.288177	2344.060921
375.674540	2352.051150
376.060841	2354.722962
376.447079	2359.965762
376.833254	2351.093331
377.219367	2345.220387
377.605417	2346.001765
377.991404	2351.395800
378.377329	2353.689525
378.763191	2344.691065
379.148991	2355.302694
379.534727	2351.899915
379.920402	2359.083560
380.306013	2349.152487
380.691563	2354.647344
381.077049	2352.000738
381.462474	2351.547035
381.847835	2351.093331
382.233134	2356.210102
382.618371	2361.402490
383.003545	2346.682321
383.388657	2350.891685
383.773706	2360.394260
384.158693	2349.707013
384.543618	2347.917404
384.928480	2358.529033
385.313280	2353.261027
385.698017	2359.486852
386.082692	2357.445185
386.467305	2364.200331
386.851856	2366.368027
387.236344	2356.487365
387.620770	2354.748167
388.005133	2359.184383
388.389435	2359.738910
388.773674	2360.873169
389.157851	2368.107225
389.541965	2366.241998
389.926018	2367.855167
390.310008	2358.529033
390.693936	2363.822244
391.077802	2366.141175
391.461606	2357.924094
391.845348	2362.965248
392.229027	2364.502800
392.612645	2355.075842
392.996200	2366.015146
393.379694	2358.150946
393.763125	2359.789321
394.146494	2364.326360
394.529801	2358.781090
394.913047	2361.679754
395.296230	2362.309898
395.679351	2358.806296
396.062410	2364.376771
396.445408	2365.435413
396.828343	2363.217306
397.211217	2357.672037
397.594028	2354.521315
397.976778	2356.840246
398.359466	2366.695702
398.742092	2361.830988
399.124656	2362.486338
399.507158	2359.814527
399.889598	2368.334077
400.271977	2372.820704
400.654294	2361.200844
401.036549	2366.544467
401.418742	2360.495083
401.800874	2364.401977
402.182944	2369.669983
402.564952	2368.308871
402.946898	2364.023890
403.328783	2361.352079
403.710606	2361.528519
404.092367	2363.671010
404.474067	2367.451875
404.855705	2361.982223
405.237282	2371.383975
405.618797	2367.930785
406.000250	2359.890144
406.381642	2362.763602
406.762972	2366.368027
407.144240	2366.065558
407.525447	2370.350538
407.906593	2364.679240
408.287677	2365.309385
408.668700	2360.772346
409.049661	2365.435413
409.430560	2376.979656
409.811399	2365.788294
410.192176	2367.552698
410.572891	2367.930785
410.953545	2372.669469
411.334138	2368.107225
411.714669	2365.460619
412.095139	2362.309898
412.475547	2375.794985
412.855894	2369.846423
413.236180	2371.358769
413.616405	2367.779550
413.996568	2373.652494
414.376670	2364.427183
414.756711	2370.501773
415.136691	2371.257946
415.516609	2363.418952
415.896466	2366.191587
416.276262	2376.173071
416.655997	2371.610827
417.035670	2366.771319
417.415283	2368.485312
417.794834	2367.098994
418.174324	2374.761548
418.553753	2370.148892
418.933121	2378.340767
419.312428	2375.366487
419.691674	2370.350538
420.070859	2373.022350
420.449983	2375.114429
420.829045	2367.300640
421.208047	2375.593338
421.586988	2368.258460
421.965867	2372.367000
422.344686	2373.097967
422.723444	2368.006402
423.102141	2368.838192
423.480777	2369.770806
423.859352	2367.325846
424.237866	2376.677187
424.616319	2375.668956
424.994712	2372.845910
425.373044	2371.938502
425.751314	2360.898375
426.129524	2371.585621
426.507673	2370.879860
426.885762	2368.334077
427.263789	2366.720908
427.641756	2378.517208
428.019662	2376.904038
428.397508	2373.702906
428.775292	2375.038812
429.153016	2374.912783
429.530679	2380.332023
429.908282	2373.022350
430.285824	2385.146325
430.663305	2380.609287
431.040726	2384.717827
431.418086	2373.879346
431.795385	2377.357742
432.172624	2374.559902
432.549802	2367.905579
432.926920	2376.198277
433.303977	2378.945706
433.680974	2373.677700
434.057910	2370.300127
434.434786	2370.905065
434.811601	2375.996631
435.188355	2370.779037
435.565050	2381.163813
435.941683	2373.602083
436.318257	2376.047042
436.694770	2370.224510
437.071222	2376.097454
437.447614	2383.029040
437.823946	2365.334590
438.200218	2383.507950
438.576429	2370.703419
438.952580	2376.122660
439.328670	2376.349512
439.704700	2381.113402
440.080670	2373.753317
440.456580	2380.861344
440.832429	2378.038298
441.208218	2364.855681
441.583947	2381.441077
441.959616	2384.743033
442.335224	2378.164327
442.710773	2372.745087
443.086261	2376.248688
443.461689	2378.239944
443.837057	2377.382948
444.212365	2383.180275
444.587612	2385.448794
444.962800	2376.752804
445.337927	2379.197763
445.712995	2370.627802
446.088002	2384.465769
446.462949	2374.131404
446.837837	2373.400437
447.212664	2382.600542
447.587431	2373.677700
447.962139	2375.013606
448.336786	2369.947246
448.711374	2375.618544
449.085901	2374.383462
449.460369	2376.677187
449.834776	2375.618544
450.209124	2371.510004
450.583412	2375.391692
450.957640	2382.474513
451.331808	2384.037271
451.705917	2379.701879
452.079965	2377.408154
452.453954	2378.290356
452.827883	2387.591285
453.201752	2380.205994
453.575562	2382.751777
453.949311	2376.752804
454.323001	2372.367000
454.696632	2383.129863
455.070202	2390.615977
455.443713	2373.728112
455.817164	2374.433873
456.190556	2389.406100
456.563888	2381.441077
456.937160	2380.105171
457.310373	2384.490975
457.683526	2383.230687
458.056619	2379.575850
458.429653	2381.945192
458.802628	2389.229660
459.175542	2379.827908
459.548398	2376.425129
459.921194	2378.492002
460.293930	2378.643237
460.666607	2381.289842
461.039224	2381.970398
461.411782	2380.205994
461.784280	2379.348998
462.156719	2385.675646
462.529099	2382.726571
462.901419	2380.710110
463.273680	2383.810419
463.645882	2373.173585
464.018024	2380.004348
464.390106	2377.559388
464.762130	2388.952396
465.134094	2385.045502
465.505999	2385.196737
465.877845	2383.331510
466.249631	2384.440563
466.621358	2382.424102
466.993026	2384.566592
467.364634	2385.826881
467.736184	2387.767725
468.107674	2379.122146
468.479105	2383.684390
468.850477	2380.962167
469.221790	2380.483258
469.593043	2381.390665
469.964238	2385.700852
470.335373	2382.978629
470.706449	2383.003835
471.077467	2386.583054
471.448425	2384.314535
471.819324	2388.876779
472.190164	2394.598488
472.560945	2386.179762
472.931667	2387.036758
473.302330	2388.649927
473.672934	2386.608260
474.043479	2391.246121
474.413965	2390.515154
474.784393	2376.399923
475.154761	2391.548590
475.525070	2379.903525
475.895321	2384.364946
476.265513	2389.305277
476.635645	2384.087683
477.005719	2389.103631
477.375734	2392.783673
477.745691	2385.247148
478.115588	2394.346431
478.485427	2393.766698
478.855207	2386.734288
479.224928	2391.397356
479.594591	2387.515667
479.964194	2386.608260
480.333739	2391.523385
480.703226	2398.530588
481.072653	2390.389125
481.442022	2399.387585
481.811333	2394.724517
482.180584	2392.355175
482.549777	2389.758981
482.918912	2388.019783
483.287988	2386.482231
483.657005	2397.900444
484.025964	2382.197250
484.394864	2392.808879
484.763706	2383.709596
485.132489	2396.161246
485.501213	2396.967831
485.869879	2389.910215
486.238487	2395.153015
486.607036	2387.263610
486.975527	2386.507437
487.343959	2388.423075
487.712333	2399.034704
488.080648	2401.025960
488.448905	2388.574310
488.817104	2391.599002
489.185244	2392.783673
489.553326	2388.901985
489.921350	2389.834598
490.289315	2391.775442
490.657222	2396.110835
491.025070	2396.211658
491.392861	2396.841802
491.760593	2394.220402
492.128267	2385.902498
492.495883	2390.338713
492.863440	2397.245094
493.230939	2390.817623
493.598380	2402.235837
493.965763	2389.002808
494.333088	2389.254865
494.700354	2386.053733
495.067563	2393.665875
495.434713	2392.506410
495.801805	2392.455998
496.168839	2395.505896
496.535815	2391.825854
496.902733	2389.733775
497.269593	2396.740979
497.636395	2392.808879
498.003139	2388.246635
498.369825	2392.531615
498.736453	2392.380381
499.103023	2393.665875
499.469535	2395.379867
499.835989	2398.454971
500.202385	2396.488921
500.568723	2397.119065
500.935003	2395.858777
501.301226	2395.379867
501.667390	2396.010012
502.033497	2395.127810
502.399546	2394.900958
502.765537	2395.757954
503.131470	2390.842829
503.497345	2395.984806
503.863163	2397.824827
504.228923	2395.077398
504.594625	2399.059910
504.960269	2396.312481
505.325856	2391.044475
505.691385	2392.355175
506.056856	2402.437483
506.422270	2397.597975
506.787625	2394.321225
507.152924	2389.885010
507.518164	2397.345917
507.883347	2386.961140
508.248472	2393.640669
508.613540	2404.655590
508.978550	2396.287275
509.343503	2402.765158
509.708398	2391.876265
510.073236	2404.403533
510.438016	2401.076371
510.802738	2407.050138
511.167403	2403.571742
511.532010	2402.941598
511.896561	2397.673592
512.261053	2413.149935
512.625488	2402.462688
512.989866	2404.882442
513.354186	2413.704462
513.718449	2405.033677
514.082655	2408.638102
514.446803	2420.560431
514.810894	2405.588204
515.174927	2416.023392
515.538904	2413.301169
515.902822	2418.140677
516.266684	2415.695717
516.630488	2417.686973
516.994235	2417.636562
517.357925	2419.148908
517.721558	2429.407656
518.085133	2427.365988
518.448651	2420.888106
518.812112	2418.140677
519.175516	2431.575352
519.538863	2432.507965
519.902152	2431.096442
520.265385	2435.633481
520.628560	2438.532144
520.991678	2433.667431
521.354739	2434.675662
521.717743	2432.860846
522.080690	2437.675148
522.443580	2442.086158
522.806413	2427.668458
523.169189	2427.441606
523.531908	2439.817638
523.894569	2440.321754
524.257174	2443.069183
524.619722	2452.269288
524.982213	2451.765173
525.344647	2447.202929
525.707025	2452.143260
526.069345	2456.403035
526.431608	2445.035233
526.793815	2454.260544
527.155964	2451.387087
527.518057	2450.278033
527.880093	2450.807354
528.242072	2454.512602
528.603995	2459.452933
528.965860	2453.428754
529.327669	2461.797069
529.689421	2462.175156
530.051117	2461.368571
530.412755	2471.627319
530.774337	2467.896865
531.135862	2462.351596
531.497331	2471.375262
531.858743	2464.065588
532.220098	2472.232258
532.581396	2466.838223
532.942638	2484.784731
533.303824	2473.190077
533.664953	2471.854171
534.026025	2470.064562
534.387040	2473.895838
534.747999	2475.861888
535.108902	2474.021867
535.469748	2468.451392
535.830537	2473.568163
536.191270	2474.500777
536.551947	2475.660242
536.912567	2481.961685
537.273131	2481.533187
537.633638	2478.785758
537.994089	2488.893271
538.354483	2478.029585
538.714821	2486.473517
539.075103	2485.767756
539.435328	2484.583085
539.795497	2487.103662
540.155609	2492.598519
540.515665	2495.371154
540.875665	2490.430823
541.235609	2486.045019
541.595496	2495.295537
541.955328	2499.807369
542.315102	2490.481235
542.674821	2486.070225
543.034483	2496.606237
543.394090	2490.128354
543.753640	2494.337717
544.113134	2498.421052
544.472571	2497.740496
544.831953	2502.706033
545.191278	2503.714263
545.550548	2497.891731
545.909761	2505.478667
546.268918	2497.967348
546.628019	2504.772906
546.987064	2508.629388
547.346053	2497.740496
547.704986	2500.941629
548.063863	2501.748213
548.422684	2505.907165
548.781449	2506.864985
549.140158	2502.025477
549.498811	2502.655621
549.857408	2497.690085
550.215949	2508.074862
550.574434	2507.419512
550.932864	2497.967348
551.291237	2505.302227
551.649555	2499.152019
552.007817	2502.277535
552.366022	2510.091323
552.724173	2504.041938
553.082267	2508.982269
553.440305	2507.873215
553.798288	2508.982269
554.156215	2513.771365
554.514086	2503.663852
554.871902	2505.680313
555.229661	2508.150479
555.587365	2501.924654
555.945014	2497.311998
556.302606	2510.141735
556.660143	2504.924140
557.017625	2513.998217
557.375050	2508.100067
557.732421	2510.645850
558.089735	2502.731238
558.446994	2502.403563
558.804197	2507.747187
559.161345	2509.839265
559.518437	2496.026504
559.875474	2505.982783
560.232455	2502.428769
560.589381	2506.209635
560.946251	2509.183915
561.303065	2497.236381
561.659825	2506.864985
562.016528	2503.033708
562.373177	2500.639160
562.729770	2503.613440
563.086307	2500.034221
563.442789	2502.756444
563.799216	2500.916423
564.155587	2499.630929
564.511904	2493.127840
564.868164	2495.572800
565.224370	2494.488952
565.580520	2493.531133
565.936615	2503.966321
566.292654	2509.839265
566.648638	2499.630929
567.004567	2494.715804
567.360441	2497.311998
567.716260	2502.176712
568.072023	2502.680827
568.427732	2499.303254
568.783385	2505.226610
569.138982	2485.893785
569.494525	2490.027531
569.850013	2485.742550
570.205445	2496.202944
570.560823	2499.580517
570.916145	2497.009529
571.271412	2496.581031
571.626625	2499.278048
571.981782	2496.228150
572.336884	2497.488438
572.691931	2497.135558
573.046923	2499.656135
573.401860	2496.631442
573.756743	2499.882987
574.111570	2498.370640
574.466342	2488.111892
574.821059	2488.540390
575.175722	2495.245125
575.530330	2487.179279
575.884882	2502.126300
576.239380	2494.035248
576.593823	2497.059940
576.948211	2495.925681
577.302544	2501.319715
577.656823	2495.497183
578.011047	2500.387102
578.365216	2502.655621
578.719330	2494.287306
579.073389	2495.144302
579.427394	2503.638646
579.781344	2498.673110
580.135239	2496.581031
580.489080	2506.285252
580.842866	2502.680827
581.196597	2511.402023
581.550273	2507.192660
581.903895	2511.528052
582.257463	2516.392765
582.610975	2506.663338
582.964434	2512.662312
583.317837	2509.662825
583.671186	2521.660771
584.024481	2513.166427
584.377721	2527.483304
584.730906	2522.996677
585.084037	2530.180321
585.437113	2527.130423
585.790135	2528.869621
586.143103	2529.172090
586.496016	2535.599562
586.848874	2539.985365
587.201679	2530.281144
587.554428	2537.363965
587.907124	2550.092879
588.259765	2553.067160
588.612352	2552.058929
588.964884	2556.822819
589.317362	2560.402038
589.669786	2559.419013
590.022155	2564.384550
590.374470	2571.316137
590.726731	2570.106260
591.078937	2579.432394
591.431090	2574.189594
591.783188	2575.928792
592.135232	2580.440625
592.487222	2588.153590
592.839157	2596.118613
593.191038	2609.250819
593.542866	2601.613471
593.894639	2602.495673
594.246358	2612.678804
594.598022	2621.223560
594.949633	2614.544031
595.301190	2624.374281
595.652692	2622.887140
596.004141	2632.591362
596.355535	2633.019860
596.706876	2639.371713
597.058162	2641.388175
597.409395	2634.154119
597.760573	2650.033754
598.111698	2655.856287
598.462768	2660.620177
598.813785	2666.291475
599.164748	2664.602688
599.515657	2682.725637
599.866511	2690.867100
600.217312	2694.295085
600.568060	2695.429344
600.918753	2714.686552
601.269392	2708.410315
601.619978	2712.670090
601.970510	2730.238512
602.320988	2741.530696
602.671412	2746.773496
603.021783	2751.461769
603.372100	2754.637696
603.722363	2768.652104
604.072572	2766.560025
604.422728	2777.978238
604.772830	2785.111471
605.122878	2794.992133
605.472872	2803.158802
605.822813	2823.197388
606.172701	2824.003973
606.522534	2834.514779
606.872314	2847.722602
607.222041	2864.106352
607.571714	2879.078579
607.921333	2873.356869
608.270899	2897.957700
608.620411	2905.595048
608.969870	2916.962850
609.319276	2924.927873
609.668627	2943.000410
610.017926	2962.282823
610.367171	2973.297744
610.716362	2993.386742
611.065500	3010.577077
611.414585	3021.314735
611.763616	3039.236037
612.112594	3048.486554
612.461518	3076.691810
612.810389	3091.487596
613.159207	3115.861575
613.507971	3120.549848
613.856682	3156.392452
614.205340	3165.995850
614.553945	3204.233002
614.902496	3211.693910
615.250994	3244.083323
615.599439	3260.240221
615.947830	3285.093110
616.296169	3309.819969
616.644454	3341.125535
616.992686	3377.623488
617.340864	3410.491812
617.688990	3431.009308
618.037063	3473.632263
618.385082	3500.148733
618.733048	3548.014488
619.080961	3558.525294
619.428821	3594.166252
619.776628	3617.330354
620.124382	3619.976960
620.472083	3647.451248
620.819731	3658.995490
621.167326	3658.919873
621.514868	3686.671425
621.862357	3677.446113
622.209793	3703.836554
622.557176	3707.113304
622.904506	3712.910631
623.251783	3704.441492
623.599007	3720.774831
623.946179	3717.296435
624.293297	3753.164244
624.640363	3754.575767
624.987376	3778.092750
625.334336	3782.629788
625.681243	3789.712610
626.028097	3812.498625
626.374899	3841.308819
626.721647	3854.466231
627.068343	3882.797515
627.414987	3886.477558
627.761577	3921.059873
628.108115	3949.239923
628.454600	3955.012044
628.801032	4002.247656
629.147412	4016.690562
629.493739	4033.477604
629.840014	4061.909712
630.186236	4107.103656
630.532405	4124.999752
630.878521	4159.708096
631.224585	4197.315104
631.570597	4197.970454
631.916556	4250.070779
632.262462	4272.251856
632.608316	4303.229746
632.954117	4326.645906
633.299866	4341.643338
633.645562	4364.404148
633.991206	4355.859392
634.336797	4348.121221
634.682336	4380.384606
635.027823	4375.923185
635.373257	4394.525042
635.718639	4390.290473
636.063968	4404.078029
636.409245	4392.029671
636.754470	4424.519908
637.099642	4423.889763
637.444762	4417.638733
637.789829	4441.483390
638.134845	4453.178867
638.479808	4466.865600
638.824719	4500.112010
639.169577	4484.887725
639.514383	4508.429913
639.859137	4520.478271
640.203839	4559.068304
640.548489	4556.346081
640.893086	4583.895987
641.237632	4598.817802
641.582125	4624.023571
641.926566	4646.658352
642.270955	4674.409904
642.615292	4705.917115
642.959576	4722.326071
643.303809	4740.171756
643.647990	4791.087410
643.992118	4803.891940
644.336195	4836.634235
644.680219	4872.678485
645.024192	4927.022123
645.368112	4993.086444
645.711981	5033.944996
646.055797	5140.590606
646.399562	5181.096277
646.743274	5287.313388
647.086935	5369.358167
647.430544	5382.540785
647.774101	5430.961067
648.117606	5459.443587
648.461059	5504.889588
648.804460	5479.557790
649.147810	5461.359225
649.491108	5439.505823
649.834354	5427.734729
650.177548	5373.340679
650.520690	5357.133369
650.863781	5373.643148
651.206820	5381.154467
651.549807	5367.820615
651.892742	5339.161656
652.235626	5364.669894
652.578458	5378.482656
652.921238	5344.202810
653.263967	5388.086054
653.606644	5405.805710
653.949269	5418.811887
654.291843	5415.711577
654.634365	5473.886492
654.976836	5448.579900
655.319255	5477.138037
655.661622	5506.049054
656.003938	5501.864896
656.346203	5509.174569
656.688416	5562.963681
657.030577	5556.561415
657.372687	5573.600515
657.714746	5604.906081
658.056753	5643.168438
658.398708	5623.810408
658.740612	5633.439012
659.082465	5698.974012
659.424266	5701.494588
659.766016	5726.095419
660.107715	5752.183390
660.449362	5787.143792
660.790958	5824.624771
661.132503	5855.653073
661.473996	5877.128388
661.815438	5919.423669
662.156829	5944.957113
662.498168	5946.217402
662.839456	5975.052802
663.180693	6001.594477
663.521879	6061.029681
663.863013	6076.178348
664.204097	6102.367142
664.545129	6191.595565
664.886110	6195.124373
665.227040	6251.434062
665.567918	6289.393950
665.908746	6316.666592
666.249522	6358.155288
666.590248	6386.032869
666.930922	6422.329177
667.271545	6438.964985
667.612118	6481.991233
667.952639	6485.545246
668.293109	6498.727863
668.633528	6522.572521
668.973896	6532.932092
669.314213	6552.769033
669.654480	6543.543721
669.994695	6577.521098
670.334859	6581.856490
670.674973	6587.250525
671.015035	6646.080790
671.355047	6671.412588
671.695008	6697.576177
672.034918	6707.507250
672.374777	6731.225879
672.714585	6743.450677
673.054342	6801.423946
673.394049	6790.938346
673.733705	6863.329315
674.073310	6823.907492
674.412864	6872.000100
674.752368	6842.408527
675.091820	6898.592187
675.431223	6851.079312
675.770574	6844.651840
676.109875	6846.693508
676.449125	6828.999058
676.788324	6837.871488
677.127473	6789.879704
677.466571	6793.232071
677.805619	6775.663650
678.144616	6786.754188
678.483562	6823.605023
678.822458	6797.567463
679.161303	6799.583925
679.500098	6814.102448
679.838842	6831.746487
680.177535	6897.861219
680.516179	6960.220292
680.854771	7076.948210
681.193314	7269.142200
681.531805	7485.609346
681.870247	7618.645396
682.208638	7720.930408
682.546978	7741.019406
682.885268	7781.373842
683.223508	7727.206644
683.561697	7689.297167
683.899836	7695.573404
684.237925	7656.025552
684.575963	7660.386150
684.913951	7638.079044
685.251889	7710.192750
685.589776	7746.136177
685.927614	7783.768390
686.265401	7842.850713
686.603137	7902.336329
686.940824	8033.860033
687.278460	8144.135273
687.616046	8217.307621
687.953582	8323.776790
688.291068	8327.532450
688.628504	8385.959423
688.965889	8413.584946
689.303224	8352.662602
689.640510	8315.635327
689.977745	8192.656379
690.314930	8065.089981
690.652065	7982.944379
690.989150	7862.586831
691.326185	7733.936585
691.663170	7627.316181
692.000105	7528.484360
692.336990	7415.562513
692.673825	7357.135540
693.010610	7277.107223
693.347345	7194.886004
693.684030	7097.667352
694.020665	7057.086063
694.357251	6970.504246
694.693786	6987.921433
695.030272	6961.430169
695.366707	6901.390027
695.703093	6848.205854
696.039429	6882.158025
696.375716	6858.565425
696.711952	6871.823660
697.048139	6860.455858
697.384276	6859.976948
697.720363	6901.818525
698.056400	6878.175513
698.392388	6862.245467
698.728326	6876.184258
699.064214	6854.734148
699.400053	6859.119952
699.735842	6794.744417
700.071581	6778.461490
700.407270	6721.496452
700.742910	6712.976902
701.078501	6669.345715
701.414042	6633.578729
701.749533	6601.844665
702.084974	6526.479415
702.420366	6602.222752
702.755709	6523.253077
703.091002	6469.640406
703.426246	6513.044740
703.761440	6508.558113
704.096584	6464.246371
704.431679	6460.062213
704.766725	6484.385781
705.101721	6494.115208
705.436668	6523.731987
705.771565	6472.589481
706.106413	6579.739206
706.441212	6598.164623
706.775961	6649.281923
707.110661	6697.450148
707.445311	6800.214069
707.779913	6784.536081
708.114465	6869.076231
708.448967	6985.300033
708.783421	7160.454923
709.117825	7255.052175
709.452180	7355.446754
709.786485	7465.041438
710.120742	7681.357350
710.454949	7695.649021
710.789107	7843.884150
711.123216	8021.156325
711.457275	8069.173315
711.791286	8205.586938
712.125247	8238.127587
712.459159	8169.265425
712.793023	8346.940892
713.126837	8080.616735
713.460602	8144.967063
713.794318	8089.716017
714.127985	8026.121862
714.461602	7803.000392
714.795171	7812.679408
715.128691	7591.725635
715.462162	7467.788867
715.795584	7401.094402
716.128957	7360.487908
716.462281	7277.132429
716.795556	7224.553194
717.128782	7121.486804
717.461960	6981.166287
717.795088	6982.527398
718.128167	6916.110196
718.461198	6806.742363
718.794180	6779.268075
719.127113	6684.822058
719.459997	6664.304562
719.792833	6586.343117
720.125619	6605.726354
720.458357	6530.940837
720.791046	6501.576115
721.123686	6476.244317
721.456278	6436.091527
721.788821	6448.568383
722.121315	6386.713425
722.453761	6412.650162
722.786158	6414.086890
723.118506	6426.740187
723.450805	6421.119300
723.783056	6464.321988
724.115259	6450.559638
724.447412	6464.271577
724.779518	6535.150200
725.111574	6575.781900
725.443582	6659.011350
725.775542	6654.928015
726.107453	6811.909546
726.439315	6803.339585
726.771129	6941.643640
727.102895	7068.302631
727.434612	7143.365412
727.766281	7148.381360
728.097901	7228.838175
728.429473	7261.605675
728.760996	7269.469875
729.092471	7336.517221
729.423897	7319.402504
729.755276	7332.257446
730.086606	7391.541415
730.417887	7595.355265
730.749120	7771.644415
731.080305	7816.687125
731.411442	7951.689225
731.742530	7994.312181
732.073570	8039.581742
732.404562	8131.179508
732.735506	8032.927419
733.066401	7925.752488
733.397249	7743.666012
733.728048	7575.745177
734.058798	7338.836152
734.389501	7148.003273
734.720156	7046.121554
735.050762	6897.105046
735.381320	6806.843187
735.711831	6757.389467
736.042293	6665.060735
736.372707	6688.703746
736.703073	6645.778321
737.033391	6719.227933
737.363661	6723.815383
737.693883	6782.418796
738.024056	6850.474373
738.354182	6913.967706
738.684260	7000.373083
739.014290	7097.289265
739.344272	7175.250710
739.674207	7238.567602
740.004093	7289.054758
740.333931	7289.962165
740.663722	7312.899415
740.993464	7323.536250
741.323159	7264.983248
741.652806	7191.911723
741.982405	7135.954915
742.311956	7031.275356
742.641460	7011.009917
742.970915	6924.654952
743.300323	6815.085473
743.629683	6776.445029
743.958996	6683.914650
744.288260	6589.418221
744.617477	6527.361617
744.946647	6505.785479
745.275768	6427.698006
745.604842	6374.236569
745.933869	6331.462379
746.262847	6319.741696
746.591778	6312.885727
746.920662	6312.179965
747.249498	6319.540050
747.578286	6375.824533
747.907027	6452.500483
748.235720	6525.773654
748.564365	6519.547829
748.892963	6490.788046
749.221514	6521.992788
749.550017	6465.985569
749.878473	6461.826617
750.206881	6374.060129
750.535242	6357.424321
750.863555	6348.829154
751.191821	6322.035421
751.520039	6343.258679
751.848210	6338.998904
752.176334	6366.952102
752.504411	6317.069885
752.832440	6248.434575
753.160421	6277.143946
753.488356	6227.009671
753.816243	6188.470050
754.144082	6167.473644
754.471875	6123.035873
754.799620	6120.590913
755.127318	6117.414987
755.454969	6125.707685
755.782572	6116.129492
756.110129	6115.348113
756.437638	6098.334219
756.765100	6094.881029
757.092515	6113.432475
757.419882	6119.028156
757.747203	6141.057998
758.074477	6168.582698
758.401703	6159.937119
758.728882	6233.033850
759.056014	6265.801350
759.383099	6314.297250
759.710138	6350.467529
760.037129	6377.790583
760.364073	6407.079687
760.690970	6404.760756
761.017820	6436.116733
761.344623	6582.360606
761.671379	6808.456356
761.998088	7277.939013
762.324751	8244.907938
762.651366	9521.680973
762.977935	10797.218925
763.304456	11202.754546
763.630931	11054.141331
763.957359	10500.496610
764.283740	9681.788019
764.610074	8968.389133
764.936362	8183.909977
765.262602	7631.802808
765.588796	7083.804179
765.914943	6709.095213
766.241044	6404.206229
766.567097	6175.413462
766.893104	5964.415967
767.219064	5838.336710
767.544978	5680.346948
767.870845	5559.686931
768.196665	5498.638558
768.522438	5433.758908
768.848165	5358.141600
769.173846	5301.226973
769.499479	5241.010390
769.825066	5187.372513
770.150607	5111.276296
770.476101	5075.332869
770.801548	5057.537596
771.126949	4993.464531
771.452303	4966.141477
771.777611	4905.219133
772.102872	4880.215010
772.428087	4828.618800
772.753256	4799.833812
773.078378	4758.319910
773.403453	4698.834294
773.728482	4661.580167
774.053465	4634.584788
774.378401	4589.970577
774.703291	4556.371287
775.028135	4504.800283
775.352932	4522.192263
775.677683	4462.152121
776.002388	4422.906738
776.327046	4426.435546
776.651658	4402.515271
776.976224	4354.120194
777.300743	4351.776058
777.625216	4337.686033
777.949643	4321.100637
778.274024	4317.546623
778.598359	4285.938588
778.922647	4298.869148
779.246889	4286.820790
779.571086	4287.854227
779.895236	4291.962767
780.219339	4294.458138
780.543397	4300.885610
780.867409	4324.024506
781.191374	4324.074917
781.515294	4311.976148
781.839167	4324.049712
782.162995	4300.179848
782.486776	4302.045075
782.810511	4278.427269
783.134201	4250.524483
783.457844	4245.332094
783.781441	4228.166965
784.104993	4208.783729
784.428498	4202.507492
784.751958	4197.415927
785.075372	4199.684446
785.398739	4182.746169
785.722061	4196.735371
786.045337	4214.807908
786.368568	4283.241571
786.691752	4322.688600
787.014891	4469.184531
787.337983	4616.411429
787.661030	4825.165610
787.984031	4991.397658
788.306987	5056.252102
788.629897	5061.872988
788.952760	4994.497967
789.275579	4924.501546
789.598351	4782.794712
789.921078	4663.823481
790.243759	4541.121796
790.566395	4456.984938
790.888984	4375.217423
791.211529	4317.647446
791.534027	4244.676744
791.856480	4183.905635
792.178888	4154.742560
792.501249	4140.098008
792.823566	4082.906117
793.145836	4087.720419
793.468062	4090.367025
793.790241	4078.217844
794.112375	4112.522896
794.434464	4163.287315
794.756507	4197.743602
795.078505	4261.488992
795.400457	4356.262685
795.722364	4473.141837
796.044226	4544.272517
796.366042	4600.935087
796.687812	4567.789500
797.009538	4575.426848
797.331218	4521.410885
797.652852	4491.365608
797.974442	4434.400569
798.295986	4409.547681
798.617484	4350.137683
798.938938	4313.614523
799.260346	4276.486425
799.581709	4213.219944
799.903026	4180.704502
800.224299	4145.113956
800.545526	4090.014144
800.866708	4054.297569
801.187845	4041.442627
801.508936	3997.761029
801.829983	3982.309892
802.150984	3941.678192
802.471940	3924.689504
802.792851	3927.462138
803.113717	3898.904002
803.434538	3897.290833
803.755314	3873.849467
804.076045	3866.060885
804.396731	3846.677648
804.717372	3869.690515
805.037967	3863.263044
805.358518	3879.873646
805.679024	3910.851537
805.999485	3924.185388
806.319901	3930.411213
806.640272	3924.790327
806.960598	3953.852579
807.280879	3945.307823
807.601115	3956.247127
807.921306	3946.895787
808.241453	3942.308337
808.561554	3950.953915
808.881611	3926.201850
809.201623	3935.427162
809.521590	3907.877256
809.841513	3903.415835
810.161390	3923.404010
810.481223	3874.151937
810.801011	3870.219837
811.120755	3851.466744
811.440453	3839.292358
811.760107	3827.218794
812.079716	3799.694094
812.399281	3791.678660
812.718801	3799.341213
813.038276	3773.933798
813.357707	3748.728029
813.677093	3787.393679
813.996434	3747.518152
814.315731	3763.750667
814.634983	3754.046446
814.954191	3774.463119
815.273354	3823.034637
815.592473	3849.727546
815.911547	3894.518198
816.230577	3933.335083
816.549562	3974.269252
816.868502	4004.087677
817.187399	4040.913306
817.506250	4093.467335
817.825058	4131.099548
818.143821	4228.368612
818.462539	4358.909290
818.781213	4531.846073
819.099843	4776.644504
819.418429	5161.057690
819.736970	5518.450292
820.055466	5953.653104
820.373919	6630.075127
820.692327	7874.887246
821.010691	10079.938350
821.329011	14036.487946
821.647286	18493.750148
821.965517	22140.722487
822.283704	22972.739723
822.601847	22661.095592
822.919945	20272.773340
823.237999	18020.864712
823.556010	15859.394383
823.873976	13891.529567
824.191897	12094.232192
824.509775	10806.746706
824.827609	9717.958298
825.145398	9217.623779
825.463144	9122.900498
825.780845	9649.045725
826.098502	10541.708042
826.416116	11677.681650
826.733685	12300.869088
827.051210	11867.481092
827.368692	10805.889710
827.686129	9540.182008
828.003522	8438.689892
828.320872	7464.991027
828.638177	6722.303037
828.955439	6121.699967
829.272656	5631.069669
829.589830	5234.608125
829.906960	4880.744331
830.224046	4633.122854
830.541088	4459.782779
830.858086	4348.700954
831.175041	4269.655662
831.491952	4287.047642
831.808819	4376.628946
832.125642	4621.603817
832.442421	5102.907981
832.759157	5914.432927
833.075849	6878.578806
833.392497	7590.692198
833.709101	7720.300263
834.025662	7263.949812
834.342179	6643.056098
834.658653	6019.742631
834.975083	5543.656062
835.291469	5134.692456
835.607811	4779.240698
835.924110	4523.402140
836.240366	4261.085700
836.556578	4043.509500
836.872746	3874.353583
837.188871	3741.544385
837.504952	3623.430150
837.820990	3558.348854
838.136984	3505.215092
838.452935	3499.795852
838.768842	3590.914708
839.084706	3902.684867
839.400526	4383.736973
839.716303	4771.300881
840.032037	4806.639369
840.347727	4557.782810
840.663373	4230.611925
840.978977	3986.872137
841.294537	3786.309831
841.610054	3626.177579
841.925527	3512.071062
842.240957	3403.787077
842.556344	3308.383240
842.871687	3226.514902
843.186987	3152.914056
843.502244	3075.784402
843.817458	3041.076058
844.132629	3004.174812
844.447756	2968.785912
844.762840	2951.419137
845.077881	2933.195365
845.392879	2903.175294
845.707833	2899.722104
846.022745	2882.506563
846.337613	2868.340921
846.652438	2854.956658
846.967221	2843.992148
847.281960	2843.941737
847.596656	2827.910867
847.911309	2833.708194
848.225919	2825.440702
848.540485	2821.987512
848.855009	2818.231852
849.169490	2803.385654
849.483928	2797.941208
849.798323	2801.797690
850.112675	2793.983902
850.426984	2801.570838
850.741251	2798.621763
851.055474	2800.386167
851.369654	2793.126906
851.683792	2787.279167
851.997887	2780.095523
852.311938	2782.994187
852.625947	2791.513737
852.939914	2781.179371
853.253837	2787.556431
853.567718	2786.447377
853.881555	2788.010135
854.195350	2787.455608
854.509103	2787.984929
854.822812	2789.925773
855.136479	2781.708692
855.450103	2788.640279
855.763685	2779.893877
856.077224	2780.876902
856.390720	2790.026596
856.704173	2794.866104
857.017584	2795.748306
857.330953	2800.209727
857.644278	2796.932977
857.957561	2799.604788
858.270802	2794.084725
858.584000	2792.799231
858.897155	2796.454067
859.210268	2799.151085
859.523339	2782.817746
859.836367	2777.196860
860.149352	2783.699948
860.462295	2782.389248
860.775195	2780.423198
861.088054	2769.206631
861.400869	2768.324429
861.713642	2770.063627
862.026373	2781.507046
862.339062	2787.758077
862.651708	2784.884619
862.964312	2810.166006
863.276873	2805.477733
863.589392	2825.163438
863.901869	2844.672704
864.214303	2850.167562
864.526696	2866.601723
864.839045	2861.031248
865.151353	2866.324460
865.463619	2870.231354
865.775842	2872.222610
866.088023	2880.641337
866.400162	2885.304404
866.712258	2876.381562
867.024313	2879.784340
867.336325	2880.288456
867.648296	2882.783827
867.960224	2887.295660
868.272110	2884.598642
868.583954	2874.239071
868.895755	2882.430946
869.207515	2892.639283
869.519233	2897.806465
869.830909	2912.501429
870.142542	2908.922210
870.454134	2916.660381
870.765684	2919.206163
871.077191	2946.377983
871.388657	2943.479319
871.700081	2955.653706
872.011463	2972.743217
872.322803	2982.144969
872.634101	2990.311638
872.945357	3003.973165
873.256571	3010.829135
873.567744	3016.349198
873.878874	3018.088396
874.189963	3043.067313
874.501010	3042.840462
874.812015	3040.672765
875.122979	3054.107440
875.433900	3051.536452
875.744780	3057.787483
876.055618	3059.047771
876.366415	3073.667117
876.677169	3077.700040
876.987882	3101.821962
877.298554	3120.524642
877.609183	3161.156342
877.919771	3205.518496
878.230317	3252.350815
878.540822	3349.342615
878.851285	3487.318996
879.161707	3686.646219
879.472087	4046.357752
879.782425	4618.780771
880.092722	5568.105658
880.402977	6700.273194
880.713191	7723.501396
881.023363	8549.922952
881.333494	8854.459056
881.643583	8965.188000
881.953631	8769.187938
882.263637	8382.405410
882.573602	7874.962863
882.883526	7393.557877
883.193408	6914.497027
883.503248	6435.385765
883.813048	5990.478733
884.122806	5578.818110
884.432522	5172.349875
884.742197	4818.183612
885.051831	4530.585785
885.361424	4279.082619
885.670975	4065.337696
885.980485	3890.913773
886.289954	3751.500663
886.599382	3607.424487
886.908768	3505.265504
887.218113	3409.382758
887.527417	3336.966583
887.836680	3262.912033
888.145901	3206.980431
888.455082	3178.346677
888.764221	3130.732979
889.073319	3094.461877
889.382376	3082.690783
889.691392	3067.088412
890.000366	3068.071437
890.309300	3063.282340
890.618193	3056.980898
890.927044	3067.516910
891.235855	3064.945921
891.544625	3084.102306
891.853353	3117.676390
892.162041	3169.499452
892.470687	3224.775704
892.779293	3314.457831
893.087858	3460.071560
893.396381	3693.023279
893.704864	3994.811954
894.013306	4340.811548
894.321707	4601.262762
894.630068	4684.668652
894.938387	4620.419146
895.246665	4483.577025
895.554903	4295.718427
895.863100	4121.092858
896.171256	3966.757933
896.479371	3836.393694
896.787446	3710.566494
897.095480	3604.777881
897.403473	3515.725898
897.711425	3433.076181
898.019336	3353.980477
898.327207	3287.185188
898.635038	3222.255127
898.942827	3159.643996
899.250576	3104.115687
899.558284	3063.030283
899.865952	3033.111035
900.173579	2987.917090
900.481165	2965.761219
900.788711	2940.958742
901.096216	2927.675302
901.403681	2921.525094
901.711105	2912.803898
902.018489	2927.171187
902.325832	2955.855352
902.633135	3043.596635
902.940397	3245.696492
903.247619	3645.233140
903.554800	4184.082075
903.861941	4681.442313
904.169041	4890.776227
904.476101	4820.174867
904.783121	4604.085808
905.090100	4365.664437
905.397039	4147.558915
905.703938	3941.829427
906.010796	3763.851490
906.317614	3619.775313
906.624391	3489.889985
906.931129	3376.968138
907.237826	3275.162037
907.544483	3159.442350
907.851099	3056.653223
908.157675	2953.233952
908.464211	2879.733929
908.770707	2822.441215
909.077163	2779.843465
909.383578	2746.697879
909.689954	2718.971533
909.996289	2711.535831
910.302584	2692.656710
910.608839	2685.397448
910.915054	2682.977694
911.221229	2677.457631
911.527363	2690.892306
911.833458	2697.193748
912.139513	2703.243133
912.445527	2723.634600
912.751502	2742.841396
913.057436	2786.522994
913.363331	2837.816735
913.669186	2906.502456
913.975000	3010.778723
914.280775	3171.188238
914.586510	3390.478431
914.892205	3670.514527
915.197859	3997.307325
915.503475	4329.090865
915.809050	4562.219025
916.114585	4649.052900
916.420081	4612.832210
916.725536	4538.702042
917.030952	4380.813104
917.336328	4243.744131
917.641665	4115.219913
917.946961	3997.508971
918.252218	3875.487842
918.557435	3733.629773
918.862612	3611.104529
919.167750	3512.953263
919.472848	3393.931621
919.777906	3276.397119
920.082925	3189.185158
920.387904	3109.963425
920.692843	3039.941798
920.997743	2977.456696
921.302603	2914.165010
921.607423	2883.388765
921.912204	2845.857375
922.216946	2816.845535
922.521647	2785.313117
922.826310	2766.358379
923.130932	2734.800756
923.435516	2712.518856
923.740059	2696.311546
924.044564	2676.676252
924.349028	2657.318221
924.653454	2639.724594
924.957840	2624.172635
925.262186	2612.149483
925.566493	2593.371185
925.870761	2582.507498
926.174989	2573.635067
926.479178	2560.679302
926.783328	2558.461194
927.087438	2549.009031
927.391509	2536.179294
927.695541	2532.978162
927.999533	2526.777542
928.303486	2519.140194
928.607400	2515.056860
928.911275	2507.041425
929.215110	2504.319202
929.518906	2507.369100
929.822663	2507.595952
930.126381	2505.503873
930.430060	2511.679287
930.733699	2513.872188
931.037299	2508.326919
931.340861	2512.082579
931.644383	2514.048629
931.947866	2515.737415
932.251309	2510.217352
932.554714	2502.403563
932.858080	2505.352638
933.161407	2501.899448
933.464694	2499.454488
933.767943	2495.648417
934.071153	2497.387615
934.374323	2490.304794
934.677455	2497.690085
934.980548	2491.892758
935.283602	2495.446771
935.586617	2492.774960
935.889593	2498.950373
936.192530	2493.228663
936.495428	2505.554285
936.798287	2516.216325
937.101108	2514.754390
937.403890	2540.665921
937.706632	2558.839281
938.009336	2580.062538
938.312002	2603.529110
938.614628	2610.006992
938.917216	2618.022427
939.219765	2614.291973
939.522275	2627.751854
939.824747	2627.146915
940.127179	2625.508540
940.429573	2617.946810
940.731929	2622.282202
941.034246	2608.368617
941.336524	2616.081583
941.638763	2606.528596
941.940964	2596.799169
942.243126	2591.783221
942.545250	2577.794019
942.847335	2572.551219
943.149381	2560.578479
943.451389	2553.772921
943.753359	2551.075904
944.055290	2540.313040
944.357182	2540.212217
944.659036	2530.029087
944.960851	2534.893800
945.262628	2533.381454
945.564367	2536.254912
945.866067	2527.155629
946.167729	2539.884542
946.469352	2533.734335
946.770937	2532.751310
947.072484	2523.778056
947.373992	2514.754390
947.675462	2519.064577
947.976893	2508.831035
948.278286	2520.602129
948.579641	2509.259533
948.880958	2513.418485
949.182236	2509.183915
949.483476	2502.378358
949.784678	2506.058400
950.085841	2510.872702
950.386967	2512.964781
950.688054	2521.685977
950.989103	2521.232273
951.290114	2532.196783
951.591087	2535.826413
951.892021	2548.278063
952.192917	2550.042467
952.493776	2556.898437
952.794596	2561.561504
953.095378	2556.268292
953.396122	2563.325908
953.696828	2549.437529
953.997496	2549.286294
954.298126	2547.471479
954.598718	2540.212217
954.899272	2528.541946
955.199788	2517.476613
955.500266	2513.973012
955.800706	2500.286279
956.101108	2487.784217
956.401472	2473.542958
956.701798	2473.416929
957.002087	2462.301185
957.302337	2459.528550
957.602550	2455.621656
957.902724	2446.345933
958.202861	2436.515683
958.502960	2445.892229
958.803022	2422.123188
959.103045	2426.004877
959.403031	2425.576379
959.702979	2419.073290
960.002889	2419.325348
960.302762	2413.679256
960.602596	2410.957033
960.902393	2407.680283
961.202153	2407.755900
961.501875	2400.874725
961.801559	2401.807338
962.101205	2402.739952
962.400814	2402.588717
962.700385	2396.211658
962.999918	2393.791904
963.299414	2393.791904
963.598873	2400.370610
963.898293	2390.666388
964.197677	2383.709596
964.497022	2381.919987
964.796331	2402.084602
965.095601	2395.153015
965.394835	2390.439537
965.694030	2395.883983
965.993189	2387.137581
966.292309	2387.061963
966.591393	2390.792417
966.890439	2385.423588
967.189447	2401.151988
967.488419	2390.414331
967.787353	2395.732748
968.086249	2385.423588
968.385108	2385.095913
968.683930	2394.018756
968.982714	2392.582027
969.281462	2394.900958
969.580172	2400.622667
969.878844	2395.379867
970.177480	2407.478637
970.476078	2402.966804
970.774639	2404.428738
971.073162	2405.991496
971.371649	2398.807852
971.670098	2413.099523
971.968510	2410.276477
972.266885	2404.579973
972.565223	2409.369069
972.863524	2412.544996
973.161788	2415.368042
973.460014	2406.999727
973.758204	2416.502302
974.056356	2415.242013
974.354471	2418.065060
974.652550	2413.401992
974.950591	2405.915879
975.248595	2409.419481
975.546563	2409.671538
975.844493	2409.293452
976.142386	2408.360838
976.440243	2407.629871
976.738062	2411.814029
977.035845	2405.159706
977.333590	2402.387071
977.631299	2400.673079
977.928971	2408.436456
978.226606	2395.808365
978.524204	2391.321738
978.821765	2401.782133
979.119290	2391.624208
979.416777	2401.353635
979.714228	2402.261042
980.011642	2404.479150
980.309020	2413.023906
980.606360	2411.410737
980.903664	2418.518763
981.200931	2431.524940
981.498162	2456.755915
981.795356	2478.609317
982.092513	2504.344408
982.389633	2534.087215
982.686717	2560.149981
982.983764	2576.609348
983.280775	2581.121181
983.577749	2580.087744
983.874686	2560.402038
984.171587	2556.721996
984.468451	2546.286808
984.765279	2530.129910
985.062070	2515.560975
985.358824	2493.556338
985.655543	2488.565596
985.952224	2456.806327
986.248869	2443.472475
986.545478	2425.702408
986.842050	2414.586663
987.138586	2405.260529
987.435086	2388.675133
987.731549	2386.885523
988.027975	2392.355175
988.324366	2387.036758
988.620719	2391.649413
988.917037	2387.944165
989.213318	2376.425129
989.509563	2381.113402
989.805772	2378.013092
990.101944	2378.744060
990.398080	2379.348998
990.694180	2377.912269
990.990244	2381.012579
991.286271	2378.542413
991.582262	2380.256406
991.878217	2381.995604
992.174136	2376.778010
992.470019	2382.373690
992.765865	2379.903525
993.061676	2384.818650
993.357450	2383.986860
993.653188	2391.170504
993.948890	2394.674106
994.244556	2394.472460
994.540186	2409.520304
994.835780	2419.325348
995.131337	2425.778025
995.426859	2447.102106
995.722345	2464.695733
996.017795	2467.644808
996.313208	2472.030612
996.608586	2483.020327
996.903928	2481.860862
997.199234	2477.071765
997.494504	2468.653038
997.789738	2459.881431
998.084936	2460.259517
998.380099	2452.949844
998.675225	2442.640685
998.970316	2435.381423
999.265371	2426.181317
999.560390	2413.679256
999.855373	2401.908162
1000.150320	2402.588717
1000.445232	2403.042421
1000.740108	2383.407127
1001.034948	2385.221942
1001.329752	2384.012065
1001.624521	2379.525438
1001.919254	2369.720394
1002.213951	2375.643750
1002.508613	2373.854140
1002.803239	2373.249202
1003.097829	2363.973479
1003.392384	2375.341281
1003.686903	2379.323792
1003.981386	2370.905065
1004.275834	2378.063504
1004.570246	2369.669983
1004.864623	2368.157637
1005.158964	2376.299100
1005.453270	2373.450848
1005.747540	2385.826881
1006.041775	2370.678213
1006.335974	2368.838192
1006.630138	2377.660212
1006.924266	2366.720908
1007.218359	2363.847450
1007.512416	2367.703933
1007.806438	2363.066071
1008.100425	2372.568646
1008.394376	2367.098994
1008.688292	2367.527492
1008.982172	2366.645290
1009.276017	2367.225023
1009.569827	2369.115456
1009.863602	2363.872656
1010.157341	2366.947760
1010.451045	2361.100021
1010.744714	2362.839219
1011.038347	2359.688498
1011.331945	2364.679240
1011.625508	2370.199304
1011.919036	2370.148892
1012.212528	2361.654548
1012.505986	2366.544467
1012.799408	2364.830475
1013.092795	2361.074815
1013.386147	2360.999198
1013.679464	2367.124200
1013.972745	2370.728625
1014.265992	2363.066071
1014.559204	2357.495596
1014.852380	2361.931812
1015.145521	2358.428210
1015.438628	2369.115456
1015.731699	2364.931298
1016.024736	2359.789321
1016.317737	2359.713704
1016.610703	2366.292410
1016.903635	2367.124200
1017.196531	2364.780063
1017.489393	2372.518235
1017.782219	2369.493542
1018.075011	2368.384488
1018.367768	2359.890144
1018.660490	2363.040865
1018.953177	2363.040865
1019.245829	2363.040865
