Dividing Wavelength (nm)	Counts (n)	Slit_number_7_of_a_total_of_40	
326.493990	1937.365835
326.888308	1937.365835
327.282561	1937.365835
327.676750	1912.512946
328.070874	1926.552560
328.464933	1922.847312
328.858929	1942.533017
329.252859	1949.388987
329.646726	1967.058231
330.040528	1983.996508
330.434265	1997.935298
330.827938	2026.997550
331.221547	2044.187885
331.615091	2069.318037
332.008571	2088.852508
332.401986	2100.094281
332.795338	2121.796448
333.188625	2156.555204
333.581847	2165.755310
333.975006	2188.566531
334.368100	2203.337112
334.761129	2213.419419
335.154095	2239.356156
335.546996	2255.689494
335.939833	2272.451331
336.332606	2286.415327
336.725315	2303.908131
337.117960	2303.151958
337.510540	2317.040337
337.903056	2320.997642
338.295508	2328.156081
338.687896	2333.524910
339.080220	2338.137565
339.472480	2335.919458
339.864676	2345.346415
340.256807	2350.437981
340.648875	2349.530573
341.040879	2354.571727
341.432818	2353.865965
341.824694	2355.378312
342.216506	2356.613394
342.608253	2351.471417
342.999937	2345.648885
343.391557	2356.411748
343.783113	2348.446725
344.174605	2346.228617
344.566033	2343.934892
344.957397	2355.353106
345.348697	2335.944663
345.739934	2343.632423
346.131106	2341.187463
346.522215	2331.634477
346.913260	2335.163285
347.304241	2334.860815
347.695159	2331.584065
348.086012	2325.433858
348.476802	2331.710094
348.867528	2338.994562
349.258191	2330.122131
349.648789	2321.098465
350.039324	2318.124185
350.429796	2329.265135
350.820203	2325.610298
351.210548	2319.308856
351.600828	2319.636531
351.991045	2319.485296
352.381198	2328.408138
352.771288	2328.634990
353.161314	2313.662763
353.551276	2314.595377
353.941175	2322.661223
354.331010	2318.729123
354.720782	2332.037769
355.110490	2326.467294
355.500135	2322.056285
355.889717	2322.888075
356.279235	2331.735300
356.668689	2322.762046
357.058080	2327.878817
357.447408	2320.191058
357.836672	2326.542912
358.225873	2329.491987
358.615010	2314.192085
359.004084	2328.206492
359.393095	2329.088694
359.782043	2332.264621
360.170927	2326.542912
360.559748	2323.997129
360.948505	2327.878817
361.337199	2332.516679
361.725830	2326.618529
362.114398	2330.273365
362.502903	2334.533140
362.891344	2332.516679
363.279722	2329.214723
363.668037	2328.685402
364.056289	2339.145796
364.444478	2329.189517
364.832603	2327.273879
365.220665	2335.314519
365.608665	2335.667400
365.996601	2347.564523
366.384474	2333.751762
366.772284	2336.877277
367.160031	2337.330981
367.547715	2335.364931
367.935336	2336.675631
368.322893	2338.465240
368.710388	2335.364931
369.097820	2342.422546
369.485189	2343.279542
369.872495	2349.959071
370.259738	2342.523369
370.646918	2337.809890
371.034035	2340.658142
371.421090	2337.280569
371.808081	2337.784685
372.195010	2343.329954
372.581875	2338.717298
372.968678	2344.312979
373.355418	2346.909173
373.742096	2338.692092
374.128710	2338.011537
374.515262	2343.254337
374.901751	2340.406085
375.288177	2341.212669
375.674540	2337.935919
376.060841	2344.035715
376.447079	2338.994562
376.833254	2338.011537
377.219367	2340.103615
377.605417	2334.155054
377.991404	2338.162771
378.377329	2341.137052
378.763191	2343.481188
379.148991	2342.195694
379.534727	2344.060921
379.920402	2340.103615
380.306013	2346.732733
380.691563	2350.437981
381.077049	2337.809890
381.462474	2335.238902
381.847835	2342.372135
382.233134	2344.212156
382.618371	2344.287773
383.003545	2344.312979
383.388657	2343.178719
383.773706	2349.202898
384.158693	2342.145283
384.543618	2340.557319
384.928480	2339.347442
385.313280	2342.346929
385.698017	2341.918431
386.082692	2342.573781
386.467305	2353.613908
386.851856	2350.211129
387.236344	2339.347442
387.620770	2346.556292
388.005133	2345.195181
388.389435	2347.110819
388.773674	2340.910200
389.157851	2353.639113
389.541965	2349.001252
389.926018	2349.984277
390.310008	2346.505881
390.693936	2346.505881
391.077802	2348.648371
391.461606	2354.798579
391.845348	2345.069152
392.229027	2350.715244
392.612645	2355.479135
392.996200	2353.261027
393.379694	2348.698783
393.763125	2358.806296
394.146494	2349.328927
394.529801	2354.470904
394.913047	2351.572240
395.296230	2350.967302
395.679351	2357.646831
396.062410	2356.537777
396.445408	2353.840760
396.828343	2352.958558
397.211217	2348.119050
397.594028	2352.479648
397.976778	2353.084587
398.359466	2357.999712
398.742092	2351.219360
399.124656	2355.353106
399.507158	2353.639113
399.889598	2357.823271
400.271977	2361.906606
400.654294	2352.303208
401.036549	2354.848990
401.418742	2357.772860
401.800874	2355.529546
402.182944	2357.293950
402.564952	2356.436954
402.946898	2350.261540
403.328783	2350.513598
403.710606	2356.815040
404.092367	2345.951354
404.474067	2350.059894
404.855705	2356.084073
405.237282	2355.781604
405.618797	2355.529546
406.000250	2354.017200
406.381642	2354.244052
406.762972	2350.034688
407.144240	2355.227077
407.525447	2362.637573
407.906593	2358.982737
408.287677	2352.605677
408.668700	2359.058354
409.049661	2359.033148
409.430560	2352.958558
409.811399	2359.814527
410.192176	2362.940042
410.572891	2357.571213
410.953545	2359.033148
411.334138	2367.300640
411.714669	2358.831502
412.095139	2358.680267
412.475547	2369.468337
412.855894	2359.058354
413.236180	2363.418952
413.616405	2356.588188
413.996568	2364.225537
414.376670	2368.838192
414.756711	2361.553725
415.136691	2363.847450
415.516609	2366.569673
415.896466	2365.032121
416.276262	2368.762575
416.655997	2363.998685
417.035670	2360.621112
417.415283	2358.403004
417.794834	2353.664319
418.174324	2369.644777
418.553753	2358.075329
418.933121	2367.804756
419.312428	2355.504340
419.691674	2367.149406
420.070859	2360.822758
420.449983	2357.142715
420.829045	2352.101562
421.208047	2353.790348
421.586988	2365.460619
421.965867	2366.897348
422.344686	2364.830475
422.723444	2358.680267
423.102141	2364.175125
423.480777	2362.360310
423.859352	2363.141688
424.237866	2363.494569
424.616319	2367.048583
424.994712	2367.477081
425.373044	2361.654548
425.751314	2363.872656
426.129524	2356.739423
426.507673	2365.107738
426.885762	2368.510517
427.263789	2362.511544
427.641756	2358.024917
428.019662	2363.343335
428.397508	2372.240971
428.775292	2373.299613
429.153016	2362.612367
429.530679	2374.156610
429.908282	2368.233254
430.285824	2367.855167
430.663305	2366.267204
431.040726	2359.436440
431.418086	2367.073788
431.795385	2373.980169
432.172624	2370.426156
432.549802	2372.593852
432.926920	2371.762062
433.303977	2366.922554
433.680974	2360.847963
434.057910	2368.989427
434.434786	2360.873169
434.811601	2368.661752
435.188355	2366.015146
435.565050	2365.788294
435.941683	2370.325333
436.318257	2372.845910
436.694770	2367.426669
437.071222	2361.578931
437.447614	2365.586648
437.823946	2362.234281
438.200218	2365.132944
438.576429	2372.669469
438.952580	2372.644263
439.328670	2359.940556
439.704700	2369.569160
440.080670	2362.486338
440.456580	2357.293950
440.832429	2367.199817
441.208218	2365.309385
441.583947	2375.265663
441.959616	2378.718854
442.335224	2374.232227
442.710773	2371.812473
443.086261	2374.383462
443.461689	2364.654035
443.837057	2376.878833
444.212365	2366.922554
444.587612	2374.711137
444.962800	2377.735829
445.337927	2370.678213
445.712995	2370.653008
446.088002	2371.056300
446.462949	2371.434387
446.837837	2372.997144
447.212664	2364.326360
447.587431	2374.736342
447.962139	2374.408667
448.336786	2379.197763
448.711374	2377.887063
449.085901	2379.727085
449.460369	2386.230173
449.834776	2377.937475
450.209124	2378.693648
450.583412	2373.072762
450.957640	2373.954963
451.331808	2380.180788
451.705917	2373.576877
452.079965	2374.257433
452.453954	2368.939015
452.827883	2374.459079
453.201752	2371.157123
453.575562	2369.922040
453.949311	2378.643237
454.323001	2372.745087
454.696632	2387.288815
455.070202	2376.072248
455.443713	2375.618544
455.817164	2380.659698
456.190556	2369.191073
456.563888	2373.778523
456.937160	2371.182329
457.310373	2380.054760
457.683526	2375.668956
458.056619	2376.500746
458.429653	2375.013606
458.802628	2372.467823
459.175542	2375.089223
459.548398	2379.802702
459.921194	2379.626262
460.293930	2376.450335
460.666607	2385.070708
461.039224	2382.222456
461.411782	2390.187479
461.784280	2371.585621
462.156719	2377.458565
462.529099	2385.095913
462.901419	2381.062990
463.273680	2375.744573
463.645882	2382.650954
464.018024	2370.779037
464.390106	2378.391179
464.762130	2382.524925
465.134094	2377.105685
465.505999	2386.809906
465.877845	2380.609287
466.249631	2377.231713
466.621358	2388.044988
466.993026	2376.979656
467.364634	2390.263096
467.736184	2378.013092
468.107674	2382.802188
468.479105	2384.919473
468.850477	2375.013606
469.221790	2385.499206
469.593043	2379.449821
469.964238	2375.769779
470.335373	2380.558875
470.706449	2390.263096
471.077467	2392.077912
471.448425	2390.111862
471.819324	2388.775956
472.190164	2390.263096
472.560945	2384.894267
472.931667	2391.145298
473.302330	2382.575337
473.672934	2389.557335
474.043479	2379.525438
474.413965	2383.482744
474.784393	2382.121633
475.154761	2385.221942
475.525070	2371.736856
475.895321	2380.130377
476.265513	2374.358256
476.635645	2382.600542
477.005719	2380.508463
477.375734	2389.834598
477.745691	2382.424102
478.115588	2391.372150
478.485427	2389.355688
478.855207	2390.943652
479.224928	2393.867521
479.594591	2386.457025
479.964194	2388.221429
480.333739	2394.900958
480.703226	2395.581513
481.072653	2396.917419
481.442022	2389.632952
481.811333	2394.119579
482.180584	2391.195710
482.549777	2391.624208
482.918912	2388.372663
483.287988	2389.607746
483.657005	2389.859804
484.025964	2392.909702
484.394864	2397.850033
484.763706	2392.607233
485.132489	2390.943652
485.501213	2394.648900
485.869879	2402.689540
486.238487	2405.714233
486.607036	2408.285221
486.975527	2399.538819
487.343959	2399.967317
487.712333	2408.234810
488.080648	2404.227092
488.448905	2399.009498
488.817104	2407.403019
489.185244	2410.402506
489.553326	2409.192629
489.921350	2420.459608
490.289315	2408.285221
490.657222	2420.535225
491.025070	2418.493558
491.392861	2418.922056
491.760593	2419.753846
492.128267	2418.644792
492.495883	2418.821233
492.863440	2423.811975
493.230939	2418.745615
493.598380	2418.468352
493.965763	2420.862900
494.333088	2428.071750
494.700354	2414.586663
495.067563	2417.107240
495.434713	2421.971954
495.801805	2429.785742
496.168839	2425.551173
496.535815	2421.215781
496.902733	2427.744075
497.269593	2424.668971
497.636395	2437.801177
498.003139	2431.096442
498.369825	2435.734304
498.736453	2433.818665
499.103023	2438.758996
499.469535	2432.306319
499.835989	2432.482760
500.202385	2437.902000
500.568723	2440.120108
500.935003	2441.556837
501.301226	2448.337188
501.667390	2443.447269
502.033497	2447.102106
502.399546	2444.606735
502.765537	2441.128338
503.131470	2445.942640
503.497345	2451.109823
503.863163	2442.716302
504.228923	2438.733790
504.594625	2453.731223
504.960269	2450.126798
505.325856	2455.016717
505.691385	2450.152004
506.056856	2453.000256
506.422270	2453.756429
506.787625	2452.017231
507.152924	2451.009000
507.518164	2454.487396
507.883347	2446.295521
508.248472	2453.882458
508.613540	2455.848508
508.978550	2454.487396
509.343503	2461.292954
509.708398	2460.083077
510.073236	2456.806327
510.438016	2461.847481
510.802738	2458.318673
511.167403	2459.478138
511.532010	2464.670527
511.896561	2471.047587
512.261053	2455.999742
512.625488	2468.753862
512.989866	2464.771350
513.354186	2463.561473
513.718449	2460.688015
514.082655	2472.837196
514.446803	2467.291927
514.810894	2471.274438
515.174927	2470.392237
515.538904	2468.426187
515.902822	2467.972483
516.266684	2479.945223
516.630488	2471.879377
516.994235	2468.527010
517.357925	2468.753862
517.721558	2477.424646
518.085133	2472.837196
518.448651	2470.165385
518.812112	2472.484315
519.175516	2488.061481
519.538863	2482.112919
519.902152	2482.944710
520.265385	2478.936992
520.628560	2483.373208
520.991678	2481.432363
521.354739	2483.978146
521.717743	2485.591315
522.080690	2482.364977
522.443580	2487.506954
522.806413	2486.851604
523.169189	2487.532160
523.531908	2488.742037
523.894569	2498.068171
524.257174	2493.732779
524.619722	2500.891217
524.982213	2496.530619
525.344647	2494.867038
525.707025	2494.665392
526.069345	2502.907679
526.431608	2508.427742
526.793815	2502.932885
527.155964	2504.646877
527.518057	2506.159223
527.880093	2515.107271
528.242072	2515.384535
528.603995	2519.064577
528.965860	2523.803262
529.327669	2521.131450
529.689421	2530.155115
530.051117	2530.986906
530.412755	2535.902031
530.774337	2538.825900
531.135862	2538.094933
531.497331	2528.567152
531.858743	2533.205013
532.220098	2545.379400
532.581396	2539.380427
532.942638	2555.738971
533.303824	2549.437529
533.664953	2560.931360
534.026025	2568.644325
534.387040	2578.046077
534.747999	2578.600604
535.108902	2583.011613
535.469748	2581.776531
535.830537	2594.303798
536.191270	2599.874273
536.551947	2600.983327
536.912567	2611.292487
537.273131	2625.382512
537.633638	2627.550208
537.994089	2642.345994
538.354483	2641.060500
538.714821	2654.268323
539.075103	2656.889723
539.435328	2663.972544
539.795497	2672.592917
540.155609	2681.616583
540.515665	2697.344983
540.875665	2702.764223
541.235609	2710.754452
541.595496	2717.459187
541.955328	2751.865062
542.315102	2748.058990
542.674821	2751.134094
543.034483	2766.030704
543.394090	2777.272477
543.753640	2790.656740
544.113134	2812.787406
544.472571	2818.307469
544.831953	2847.294104
545.191278	2854.553365
545.550548	2865.744727
545.909761	2888.429919
546.268918	2916.862027
546.628019	2929.464912
546.987064	2943.454113
547.346053	2954.040537
547.704986	2983.934579
548.063863	2997.848163
548.422684	3025.045188
548.781449	3049.872871
549.140158	3077.069896
549.498811	3089.370312
549.857408	3101.418669
550.215949	3134.488638
550.574434	3167.004081
550.932864	3187.219108
551.291237	3233.673340
551.649555	3255.879623
552.007817	3285.244344
552.366022	3313.550423
552.724173	3336.260821
553.082267	3385.462483
553.440305	3427.883792
553.798288	3453.795323
554.156215	3490.797392
554.514086	3544.485681
554.871902	3576.219744
555.229661	3607.071606
555.587365	3646.392606
555.945014	3683.218235
556.302606	3735.016090
556.660143	3786.813946
557.017625	3836.998633
557.375050	3869.539281
557.732421	3932.377263
558.089735	3980.847958
558.446994	4023.294473
558.804197	4089.081531
559.161345	4142.996671
559.518437	4167.269827
559.875474	4233.082090
560.232455	4301.843429
560.589381	4356.842417
560.946251	4410.505500
561.303065	4494.692769
561.659825	4548.305440
562.016528	4593.575002
562.373177	4655.001462
562.729770	4721.469075
563.086307	4781.509217
563.442789	4866.200602
563.799216	4930.576137
564.155587	5007.428527
564.511904	5057.613213
564.868164	5145.581348
565.224370	5228.407506
565.580520	5283.608140
565.936615	5374.197675
566.292654	5441.522285
566.648638	5547.966248
567.004567	5620.054748
567.360441	5705.124219
567.716260	5782.984840
568.072023	5866.340319
568.427732	5966.734898
568.783385	6020.574421
569.138982	6120.590913
569.494525	6202.484458
569.850013	6273.993225
570.205445	6374.135746
570.560823	6467.548327
570.916145	6556.675927
571.271412	6664.228944
571.626625	6718.244908
571.981782	6794.341125
572.336884	6852.390012
572.691931	7004.834504
573.046923	7058.497587
573.401860	7120.075281
573.756743	7225.284162
574.111570	7325.678740
574.466342	7414.932369
574.821059	7511.016762
575.175722	7568.485915
575.530330	7664.015781
575.884882	7754.075994
576.239380	7825.307498
576.593823	7930.138292
576.948211	8019.442333
577.302544	8072.878563
577.656823	8153.158938
578.011047	8274.373483
578.365216	8346.840069
578.719330	8435.236702
579.073389	8521.843725
579.427394	8631.665262
579.781344	8701.611271
580.135239	8777.934340
580.489080	8884.428715
580.842866	8910.340246
581.196597	9096.157177
581.550273	9179.487450
581.903895	9255.810519
582.257463	9441.324981
582.610975	9433.813662
582.964434	9578.368748
583.317837	9595.029762
583.671186	9674.503552
584.024481	9812.984048
584.377721	9837.509262
584.730906	9989.247992
585.084037	10097.380742
585.437113	10144.364296
585.790135	10234.701773
586.143103	10235.583975
586.496016	10387.625175
586.848874	10454.244023
587.201679	10554.310927
587.554428	10574.929246
587.907124	10694.656650
588.259765	10726.516742
588.612352	10855.494663
588.964884	10836.136633
589.317362	10969.702004
589.669786	11071.936604
590.022155	11121.692792
590.374470	11297.981942
590.726731	11276.733479
591.078937	11236.227808
591.431090	11388.294213
591.783188	11381.715508
592.135232	11410.097204
592.487222	11557.878629
592.839157	11656.382775
593.191038	11650.459419
593.542866	11686.150788
593.894639	11629.210956
594.246358	11759.827252
594.598022	11855.583969
594.949633	11847.694563
595.301190	11907.028944
595.652692	11969.362812
596.004141	12145.500727
596.355535	11987.687406
596.706876	12031.495033
597.058162	12063.884446
597.409395	12293.080506
597.760573	12394.760579
598.111698	12358.741535
598.462768	12458.027060
598.813785	12524.393850
599.164748	12471.638175
599.515657	12666.377948
599.866511	12607.169596
600.217312	12854.539015
600.568060	12662.697906
600.918753	12934.189246
601.269392	13018.099252
601.619978	12998.060665
601.970510	13163.133248
602.320988	13278.802523
602.671412	13428.676027
603.021783	13479.642092
603.372100	13404.881781
603.722363	13517.728010
604.072572	13659.460050
604.422728	13732.581987
604.772830	13741.983738
605.122878	13855.006408
605.472872	13896.041400
605.822813	14020.608312
606.172701	14075.254419
606.522534	14233.672679
606.872314	14400.837340
607.222041	14389.923242
607.571714	14583.150669
607.921333	14476.051356
608.270899	14621.665085
608.620411	14842.165154
608.969870	14830.494883
609.319276	14904.549433
609.668627	14982.435260
610.017926	15219.823194
610.367171	15344.516135
610.716362	15453.783144
611.065500	15500.338200
611.414585	15626.997190
611.763616	15811.427804
612.112594	15817.401571
612.461518	15944.136179
612.810389	16151.151162
613.159207	16139.279244
613.507971	16244.009215
613.856682	16452.662573
614.205340	16490.798902
614.553945	16814.945094
614.902496	16657.283008
615.250994	16892.276394
615.599439	16975.026935
615.947830	17101.257427
616.296169	17158.827404
616.644454	17231.974546
616.992686	17372.597533
617.340864	17597.332171
617.688990	17566.404692
618.037063	17835.375456
618.385082	17836.963419
618.733048	17993.113160
619.080961	18055.673879
619.428821	18121.208879
619.776628	18192.642029
620.124382	18165.949119
620.472083	18238.138442
620.819731	18354.639508
621.167326	18262.159540
621.514868	18336.541765
621.862357	18183.240277
622.209793	18260.899252
622.557176	18198.262915
622.904506	18143.919277
623.251783	18027.493829
623.599007	17996.515938
623.946179	17976.326117
624.293297	17996.263881
624.640363	17802.557544
624.987376	17833.157348
625.334336	17754.490142
625.681243	17674.537442
626.028097	17698.054425
626.374899	17671.689190
626.721647	17701.205146
627.068343	17709.598667
627.414987	17599.827542
627.761577	17533.511163
628.108115	17698.810598
628.454600	17474.479252
628.801032	17572.983398
629.147412	17591.106346
629.493739	17600.482892
629.840014	17443.602185
630.186236	17596.399558
630.532405	17443.098069
630.878521	17542.207154
631.224585	17502.432450
631.570597	17362.666460
631.916556	17439.443233
632.262462	17428.755987
632.608316	17425.201973
632.954117	17367.934465
633.299866	17377.437040
633.645562	17356.642281
633.991206	17163.188002
634.336797	17017.372627
634.682336	17000.283115
635.027823	16940.066533
635.373257	16890.713637
635.718639	16816.533058
636.063968	16767.507837
636.409245	16541.235646
636.754470	16556.182667
637.099642	16476.683671
637.444762	16270.147598
637.789829	16325.675908
638.134845	16202.570931
638.479808	16192.791092
638.824719	16173.483473
639.169577	16003.571383
639.514383	16041.329625
639.859137	15870.938625
640.203839	15962.788448
640.548489	15820.325440
640.893086	15819.292004
641.237632	15714.133535
641.582125	15785.239010
641.926566	15730.290433
642.270955	15712.268308
642.615292	15722.501850
642.959576	15655.126829
643.303809	15661.503888
643.647990	15747.808442
643.992118	15691.776017
644.336195	15645.498225
644.680219	15692.910277
645.024192	15758.016779
645.368112	15973.929398
645.711981	15969.644417
646.055797	16275.642456
646.399562	16200.504058
646.743274	16510.610637
647.086935	16608.409021
647.430544	16514.391502
647.774101	16490.874519
648.117606	16550.662604
648.461059	16647.175494
648.804460	16438.622960
649.147810	16163.703635
649.491108	16009.973648
649.834354	15883.113012
650.177548	15600.279075
650.520690	15384.190015
650.863781	15376.275404
651.206820	15291.432785
651.549807	15124.822650
651.892742	14929.704790
652.235626	14850.533469
652.578458	14764.985088
652.921238	14522.858469
653.263967	14613.473210
653.606644	14444.770996
653.949269	14408.751952
654.291843	14236.520931
654.634365	14350.602242
654.976836	14177.211756
655.319255	14136.327998
655.661622	14109.206590
656.003938	13987.941635
656.346203	13917.037806
656.688416	13977.859327
657.030577	13859.795504
657.372687	13757.838167
657.714746	13837.085106
658.056753	13837.488398
658.398708	13590.144185
658.740612	13594.202313
659.082465	13670.601000
659.424266	13552.713617
659.766016	13570.181215
660.107715	13483.574192
660.449362	13488.035613
660.790958	13460.712560
661.132503	13408.360177
661.473996	13376.323644
661.815438	13388.624060
662.156829	13428.222323
662.498168	13285.860138
662.839456	13281.549952
663.180693	13285.129171
663.521879	13290.220737
663.863013	13226.979462
664.204097	13184.205271
664.545129	13331.028877
664.886110	13262.015481
665.227040	13242.531421
665.567918	13208.957337
665.908746	13198.975852
666.249522	13199.958877
666.590248	13138.482006
666.930922	13120.535498
667.271545	13055.605437
667.612118	13056.538050
667.952639	12945.834312
668.293109	12909.613621
668.633528	12835.987569
668.973896	12770.250923
669.314213	12734.710788
669.654480	12624.007050
669.994695	12578.863517
670.334859	12487.845485
670.674973	12424.705033
671.015035	12410.892271
671.355047	12354.632994
671.695008	12311.909215
672.034918	12223.613406
672.374777	12200.146835
672.714585	12116.967796
673.054342	12123.193621
673.394049	12007.146260
673.733705	12039.157587
674.073310	11886.032538
674.412864	11880.184800
674.752368	11719.649256
675.091820	11738.251113
675.431223	11571.640979
675.770574	11457.181581
676.109875	11382.219623
676.449125	11256.291600
676.788324	11186.244767
677.127473	11002.469504
677.466571	10950.873294
677.805619	10795.731785
678.144616	10759.006979
678.483562	10710.485873
678.822458	10579.642725
679.161303	10539.565552
679.500098	10452.681265
679.838842	10390.700279
680.177535	10411.495038
680.516179	10492.304735
680.854771	10547.530575
681.193314	10776.499783
681.531805	11065.458721
681.870247	11164.063690
682.208638	11229.422250
682.546978	11226.775644
682.885268	11167.945379
683.223508	10988.026598
683.561697	10859.830056
683.899836	10783.910279
684.237925	10610.897879
684.575963	10554.008458
684.913951	10405.420448
685.251889	10407.588144
685.589776	10412.830944
685.927614	10378.450275
686.265401	10377.946160
686.603137	10379.786181
686.940824	10471.383946
687.278460	10531.524912
687.616046	10517.132417
687.953582	10643.186469
688.291068	10546.799608
688.628504	10550.756913
688.965889	10483.759979
689.303224	10343.237815
689.640510	10209.672444
689.977745	9979.972269
690.314930	9747.070962
690.652065	9561.732940
690.989150	9368.833188
691.326185	9121.665415
691.663170	8940.486346
692.000105	8739.722394
692.336990	8555.795896
692.673825	8429.313346
693.010610	8287.077190
693.347345	8137.733008
693.684030	7965.073488
694.020665	7870.123356
694.357251	7694.439144
694.693786	7666.611975
695.030272	7596.035821
695.366707	7455.967362
695.703093	7355.295519
696.039429	7337.399423
696.375716	7260.294975
696.711952	7254.169973
697.048139	7196.045469
697.384276	7129.224975
697.720363	7127.233719
698.056400	7085.593788
698.392388	7007.960019
698.728326	6972.218238
699.064214	6911.699187
699.400053	6862.951229
699.735842	6760.741835
700.071581	6692.484612
700.407270	6616.262365
700.742910	6546.543208
701.078501	6469.262319
701.414042	6403.021558
701.749533	6325.412994
702.084974	6231.193829
702.420366	6259.550319
702.755709	6156.685575
703.091002	6074.918060
703.426246	6058.786367
703.761440	6028.287387
704.096584	5966.356812
704.431679	5921.137662
704.766725	5910.752885
705.101721	5886.555346
705.436668	5897.393827
705.771565	5815.802752
706.106413	5867.449373
706.441212	5852.351117
706.775961	5857.341860
707.110661	5862.710688
707.445311	5910.677267
707.779913	5863.441656
708.114465	5904.048150
708.448967	5938.025527
708.783421	6046.460746
709.117825	6096.141317
709.452180	6119.784329
709.786485	6198.149065
710.120742	6329.319888
710.454949	6325.791081
710.789107	6388.881121
711.123216	6518.413569
711.457275	6507.499471
711.791286	6610.036540
712.125247	6585.586944
712.459159	6528.999992
712.793023	6615.607015
713.126837	6385.654783
713.460602	6403.525673
713.794318	6324.555998
714.127985	6237.923769
714.461602	6050.947373
714.795171	6005.879458
715.128691	5845.217885
715.462162	5721.810438
715.795584	5643.647348
716.128957	5585.976548
716.462281	5515.702863
716.795556	5452.184325
717.128782	5350.126165
717.461960	5250.538171
717.795088	5221.349890
718.128167	5153.445548
718.461198	5061.520108
718.794180	5023.282956
719.127113	4957.168223
719.459997	4905.521602
719.792833	4844.926933
720.125619	4841.297302
720.458357	4761.974746
720.791046	4719.629054
721.123686	4695.860013
721.456278	4645.700533
721.788821	4640.079646
722.121315	4590.852779
722.453761	4595.213377
722.786158	4581.451027
723.118506	4572.502979
723.450805	4546.440213
723.783056	4561.412440
724.115259	4536.735992
724.447412	4519.016337
724.779518	4553.069331
725.111574	4559.320362
725.443582	4572.855860
725.775542	4580.417590
726.107453	4637.307012
726.439315	4618.478302
726.771129	4697.473183
727.102895	4746.296758
727.434612	4759.025671
727.766281	4756.000979
728.097901	4779.694402
728.429473	4773.720635
728.760996	4769.612094
729.092471	4759.000465
729.423897	4737.525150
729.755276	4732.962906
730.086606	4748.161985
730.417887	4810.117765
730.749120	4882.685175
731.080305	4885.961925
731.411442	4906.429010
731.742530	4915.679527
732.073570	4914.293210
732.404562	4956.613696
732.735506	4892.843100
733.066401	4812.209844
733.397249	4713.025142
733.728048	4603.984985
734.058798	4478.510665
734.389501	4381.165985
734.720156	4318.706088
735.050762	4233.308942
735.381320	4174.554294
735.711831	4143.904079
736.042293	4104.457050
736.372707	4090.770317
736.703073	4067.707038
737.033391	4084.947785
737.363661	4082.427208
737.693883	4102.188531
738.024056	4125.680308
738.354182	4145.113956
738.684260	4177.629398
739.014290	4218.765213
739.344272	4247.020881
739.674207	4262.724075
740.004093	4277.267804
740.333931	4260.379938
740.663722	4252.566150
740.993464	4261.589815
741.323159	4220.580029
741.652806	4169.941638
741.982405	4127.091831
742.311956	4063.069177
742.641460	4047.769275
742.970915	3989.543948
743.300323	3940.317081
743.629683	3899.937438
743.958996	3855.398844
744.288260	3814.641115
744.617477	3776.706433
744.946647	3746.585538
745.275768	3716.136969
745.604842	3690.603525
745.933869	3667.817510
746.262847	3643.367913
746.591778	3640.847337
746.920662	3624.035088
747.249498	3621.640540
747.578286	3636.587562
747.907027	3656.928617
748.235720	3681.907535
748.564365	3670.640556
748.892963	3650.450735
749.221514	3640.166781
749.550017	3618.918317
749.878473	3617.405971
750.206881	3591.040737
750.535242	3566.515523
750.863555	3555.450190
751.191821	3546.300496
751.520039	3543.174981
751.848210	3530.647713
752.176334	3533.369937
752.504411	3518.674973
752.832440	3489.889985
753.160421	3497.678567
753.488356	3469.952221
753.816243	3457.727423
754.144082	3443.687810
754.471875	3425.010335
754.799620	3428.463525
755.127318	3429.673402
755.454969	3409.811256
755.782572	3399.073598
756.110129	3400.031417
756.437638	3398.040162
756.765100	3385.638923
757.092515	3389.142525
757.419882	3377.951163
757.747203	3393.830798
758.074477	3399.905388
758.401703	3398.115779
758.728882	3411.903335
759.056014	3411.399219
759.383099	3424.329779
759.710138	3439.428035
760.037129	3441.923406
760.364073	3433.681119
760.690970	3432.345213
761.017820	3436.554577
761.344623	3452.635858
761.671379	3501.610667
761.998088	3615.490333
762.324751	3885.015623
762.651366	4239.484356
762.977935	4576.460285
763.304456	4657.118746
763.630931	4576.132610
763.957359	4385.829052
764.283740	4178.662835
764.610074	3958.944144
764.936362	3767.884413
765.262602	3611.810290
765.588796	3474.716112
765.914943	3387.680590
766.241044	3313.701658
766.567097	3245.141965
766.893104	3196.998946
767.219064	3156.946979
767.544978	3119.944910
767.870845	3086.673294
768.196665	3077.246337
768.522438	3041.428938
768.848165	3024.289015
769.173846	3004.855367
769.499479	2992.832215
769.825066	2976.347642
770.150607	2960.291567
770.476101	2939.849688
770.801548	2931.128492
771.126949	2916.131060
771.452303	2908.392888
771.777611	2888.480331
772.102872	2884.850700
772.428087	2866.122813
772.753256	2853.973633
773.078378	2843.311592
773.403453	2834.010663
773.728482	2813.215904
774.053465	2808.804894
774.378401	2800.688637
774.703291	2792.874848
775.028135	2778.003444
775.352932	2776.667538
775.677683	2771.298710
776.002388	2758.897471
776.327046	2757.309508
776.651658	2748.739546
776.976224	2740.169585
777.300743	2745.009092
777.625216	2740.824935
777.949643	2723.634600
778.274024	2721.114023
778.598359	2729.583162
778.922647	2717.686038
779.246889	2725.625856
779.571086	2715.795606
779.895236	2720.080587
780.219339	2714.157231
780.543397	2711.888712
780.867409	2724.214333
781.191374	2720.584702
781.515294	2714.610935
781.839167	2724.264744
782.162995	2715.467931
782.486776	2707.175233
782.810511	2703.318750
783.134201	2687.892819
783.457844	2694.345496
783.781441	2685.044567
784.104993	2684.792510
784.428498	2675.239523
784.751958	2676.802281
785.075372	2674.785819
785.398739	2664.199396
785.722061	2673.273473
786.045337	2676.903104
786.368568	2682.826460
786.691752	2686.103210
787.014891	2724.668037
787.337983	2747.454052
787.661030	2797.159829
787.984031	2811.501912
788.306987	2816.820329
788.629897	2811.955615
788.952760	2792.395938
789.275579	2764.543563
789.598351	2740.900552
789.921078	2720.231821
790.243759	2701.655169
790.566395	2683.280163
790.888984	2671.584687
791.211529	2664.779129
791.534027	2644.438073
791.856480	2637.103194
792.178888	2630.348048
792.501249	2630.020373
792.823566	2619.333127
793.145836	2615.501850
793.468062	2618.551748
793.790241	2614.317179
794.112375	2619.055863
794.434464	2631.633542
794.756507	2635.061527
795.078505	2655.755463
795.400457	2678.163392
795.722364	2680.910821
796.044226	2703.419573
796.366042	2710.124308
796.687812	2690.539425
797.009538	2691.698890
797.331218	2673.601148
797.652852	2672.466888
797.974442	2665.711742
798.295986	2662.157729
798.617484	2647.185502
798.938938	2636.422638
799.260346	2630.978192
799.581709	2619.333127
799.903026	2620.921090
800.224299	2612.199894
800.545526	2606.452979
800.866708	2601.915940
801.187845	2594.404621
801.508936	2589.212233
801.829983	2589.766760
802.150984	2587.220977
802.471940	2582.381469
802.792851	2570.005437
803.113717	2581.448856
803.434538	2573.004923
803.755314	2577.642785
804.076045	2575.601117
804.396731	2571.921075
804.717372	2564.560990
805.037967	2576.407702
805.358518	2576.432908
805.679024	2581.247210
805.999485	2584.851635
806.319901	2577.415933
806.640272	2580.138156
806.960598	2584.927252
807.280879	2585.784248
807.601115	2590.422110
807.921306	2589.388673
808.241453	2588.934969
808.561554	2584.750812
808.881611	2582.583115
809.201623	2563.653583
809.521590	2568.291444
809.841513	2571.341342
810.161390	2572.979717
810.481223	2561.662327
810.801011	2552.714279
811.120755	2554.755946
811.440453	2554.579506
811.760107	2548.227652
812.079716	2547.244627
812.399281	2542.682383
812.718801	2538.825900
813.038276	2534.213244
813.357707	2535.070240
813.677093	2534.641742
813.996434	2531.541433
814.315731	2537.263142
814.634983	2531.163346
814.954191	2533.608306
815.273354	2540.060983
815.592473	2531.289375
815.911547	2544.119112
816.230577	2549.286294
816.549562	2558.965310
816.868502	2557.881462
817.187399	2562.821792
817.506250	2569.299675
817.825058	2575.701940
818.143821	2568.644325
818.462539	2591.631987
818.781213	2614.745677
819.099843	2638.035808
819.418429	2677.961746
819.736970	2729.709190
820.055466	2783.044598
820.373919	2833.985458
820.692327	2973.070892
821.010691	3327.111127
821.329011	4094.803240
821.647286	5016.300958
821.965517	5696.755904
822.283704	5703.435433
822.601847	5436.506337
822.919945	4879.055544
823.237999	4453.405719
823.556010	4112.573308
823.873976	3818.623627
824.191897	3576.118921
824.509775	3383.471227
824.827609	3228.581775
825.145398	3135.824544
825.463144	3126.473204
825.780845	3194.604398
826.098502	3321.641475
826.416116	3471.767037
826.733685	3514.566433
827.051210	3444.645629
827.368692	3302.107004
827.686129	3152.611587
828.003522	3025.675333
828.320872	2914.719537
828.638177	2829.750888
828.955439	2766.786877
829.272656	2721.315669
829.589830	2672.441683
829.906960	2636.901548
830.224046	2605.545571
830.541088	2582.961202
830.858086	2568.241033
831.175041	2556.595967
831.491952	2559.343396
831.808819	2573.282187
832.125642	2594.883531
832.442421	2644.841365
832.759157	2729.028635
833.075849	2839.026612
833.392497	2908.670152
833.709101	2915.954619
834.025662	2868.466950
834.342179	2803.310037
834.658653	2732.103738
834.975083	2689.909281
835.291469	2652.327479
835.607811	2617.039402
835.924110	2577.163875
836.240366	2560.628890
836.556578	2532.700898
836.872746	2517.627848
837.188871	2505.680313
837.504952	2485.440081
837.820990	2488.162304
838.136984	2476.113946
838.452935	2475.887094
838.768842	2491.388642
839.084706	2524.030113
839.400526	2584.700400
839.716303	2618.904629
840.032037	2617.467900
840.347727	2585.784248
840.663373	2556.873231
840.978977	2532.423635
841.294537	2506.864985
841.610054	2496.631442
841.925527	2482.818681
842.240957	2471.677731
842.556344	2457.386060
842.871687	2455.067129
843.186987	2438.002823
843.502244	2447.581015
843.817458	2433.163315
844.132629	2433.869077
844.447756	2429.861360
844.762840	2418.266706
845.077881	2427.996133
845.392879	2422.299629
845.707833	2425.803231
846.022745	2410.856210
846.337613	2421.644279
846.652438	2416.956006
846.967221	2424.064033
847.281960	2421.341810
847.596656	2423.509506
847.911309	2413.452404
848.225919	2409.243040
848.540485	2413.704462
848.855009	2417.485327
849.169490	2414.057342
849.483928	2406.369583
849.798323	2413.477610
850.112675	2421.367015
850.426984	2413.376787
850.741251	2412.671025
851.055474	2403.521331
851.369654	2410.704975
851.683792	2410.604152
851.997887	2412.015675
852.311938	2419.804258
852.625947	2412.318144
852.939914	2404.126269
853.253837	2413.553227
853.567718	2412.671025
853.881555	2413.603638
854.195350	2407.856723
854.509103	2401.504869
854.822812	2402.588717
855.136479	2412.091292
855.450103	2403.697771
855.763685	2406.949315
856.077224	2410.503329
856.390720	2417.157652
856.704173	2406.974521
857.017584	2410.377300
857.330953	2408.713719
857.644278	2415.670512
857.957561	2411.486354
858.270802	2410.427712
858.584000	2414.863927
858.897155	2411.309913
859.210268	2410.150448
859.523339	2409.520304
859.836367	2405.058883
860.149352	2401.605692
860.462295	2407.856723
860.775195	2403.420508
861.088054	2399.135527
861.400869	2405.613410
861.713642	2405.512587
862.026373	2404.781619
862.339062	2404.000240
862.651708	2419.123702
862.964312	2411.713206
863.276873	2415.368042
863.589392	2412.418967
863.901869	2403.546537
864.214303	2411.108267
864.526696	2404.806825
864.839045	2414.511046
865.151353	2408.512073
865.463619	2416.527508
865.775842	2423.912798
866.088023	2414.435429
866.400162	2411.183885
866.712258	2414.410223
867.024313	2409.495098
867.336325	2426.861873
867.648296	2412.368556
867.960224	2405.789850
868.272110	2419.274937
868.583954	2415.191602
868.895755	2415.620100
869.207515	2408.814542
869.519233	2413.805285
869.830909	2415.846952
870.142542	2411.713206
870.454134	2413.351581
870.765684	2411.032650
871.077191	2416.552713
871.388657	2414.964750
871.700081	2415.090779
872.011463	2418.367529
872.322803	2419.779052
872.634101	2420.434402
872.945357	2421.392221
873.256571	2432.104673
873.567744	2426.483787
873.878874	2421.871131
874.189963	2426.660227
874.501010	2416.804771
874.812015	2423.257448
875.122979	2429.609302
875.433900	2421.770308
875.744780	2427.013108
876.055618	2430.365475
876.366415	2428.298602
876.677169	2434.347987
876.987882	2426.584610
877.298554	2427.517223
877.609183	2436.364448
877.919771	2429.533685
878.230317	2438.506938
878.540822	2442.514656
878.851285	2447.530604
879.161707	2483.448825
879.472087	2490.632469
879.782425	2546.690100
880.092722	2646.731798
880.402977	2794.866104
880.713191	2965.433544
881.023363	3086.900146
881.333494	3110.795215
881.643583	3058.342010
881.953631	3000.872856
882.263637	2937.707198
882.573602	2889.765825
882.883526	2826.625373
883.193408	2778.709206
883.503248	2735.960221
883.813048	2701.806404
884.122806	2655.957110
884.432522	2618.072838
884.742197	2578.524987
885.051831	2549.361912
885.361424	2535.045035
885.670975	2511.402023
885.980485	2496.354179
886.289954	2473.013637
886.599382	2463.309415
886.908768	2467.594396
887.218113	2452.319700
887.527417	2449.017744
887.836680	2440.447783
888.145901	2442.590273
888.455082	2436.389654
888.764221	2425.475556
889.073319	2420.182344
889.382376	2427.668458
889.691392	2414.132960
890.000366	2421.064546
890.309300	2424.542942
890.618193	2416.275450
890.927044	2424.795000
891.235855	2430.617533
891.544625	2418.619587
891.853353	2427.239960
892.162041	2437.952412
892.470687	2436.918975
892.779293	2442.514656
893.087858	2449.168979
893.396381	2472.232258
893.704864	2491.766729
894.013306	2516.518794
894.321707	2542.430325
894.630068	2545.707075
894.938387	2536.960673
895.246665	2523.425175
895.554903	2517.300173
895.863100	2501.899448
896.171256	2494.715804
896.479371	2481.255923
896.787446	2472.257463
897.095480	2456.150977
897.403473	2456.781121
897.711425	2444.909204
898.019336	2436.616506
898.327207	2446.850048
898.635038	2438.330498
898.942827	2429.861360
899.250576	2421.669485
899.558284	2426.055288
899.865952	2426.685433
900.173579	2421.946748
900.481165	2411.083062
900.788711	2414.107754
901.096216	2409.394275
901.403681	2410.881415
901.711105	2411.965263
902.018489	2407.100550
902.325832	2417.611356
902.633135	2406.218348
902.940397	2435.356217
903.247619	2465.577935
903.554800	2516.090296
903.861941	2545.883515
904.169041	2558.814075
904.476101	2556.243087
904.783121	2540.010571
905.090100	2519.064577
905.397039	2508.906652
905.703938	2493.304281
906.010796	2480.625779
906.317614	2461.418983
906.624391	2457.209619
906.931129	2448.059925
907.237826	2443.951385
907.544483	2423.207037
907.851099	2416.376273
908.157675	2411.133473
908.464211	2402.185425
908.770707	2394.270813
909.077163	2399.059910
909.383578	2389.154042
909.689954	2391.498179
909.996289	2394.976575
910.302584	2392.758467
910.608839	2395.430279
910.915054	2390.641183
911.221229	2394.270813
911.527363	2389.784187
911.833458	2390.590771
912.139513	2400.345404
912.445527	2393.665875
912.751502	2403.042421
913.057436	2400.547050
913.363331	2402.563512
913.669186	2409.721950
913.975000	2407.831517
914.280775	2430.768767
914.586510	2447.908690
914.892205	2463.107769
915.197859	2487.154073
915.503475	2510.822290
915.809050	2528.163860
916.114585	2530.785260
916.420081	2524.962727
916.725536	2514.325892
917.030952	2509.814060
917.336328	2509.183915
917.641665	2491.943169
917.946961	2481.306335
918.252218	2470.669500
918.557435	2464.670527
918.862612	2458.343879
919.167750	2452.269288
919.472848	2442.439038
919.777906	2441.834100
920.082925	2430.415887
920.387904	2423.055802
920.692843	2415.947775
920.997743	2412.418967
921.302603	2402.790363
921.607423	2414.334606
921.912204	2409.898390
922.216946	2407.150962
922.521647	2394.371637
922.826310	2405.260529
923.130932	2396.791390
923.435516	2390.842829
923.740059	2395.304250
924.044564	2394.144785
924.349028	2392.279558
924.653454	2379.903525
924.957840	2388.952396
925.262186	2387.540873
925.566493	2382.424102
925.870761	2381.793958
926.174989	2382.751777
926.479178	2378.441590
926.783328	2376.525952
927.087438	2375.921013
927.391509	2382.071221
927.695541	2384.264123
927.999533	2380.584081
928.303486	2381.995604
928.607400	2383.104658
928.911275	2378.895294
929.215110	2378.517208
929.518906	2383.810419
929.822663	2372.140148
930.126381	2375.038812
930.430060	2371.283152
930.733699	2380.256406
931.037299	2373.753317
931.340861	2379.802702
931.644383	2381.441077
931.947866	2384.314535
932.251309	2386.078938
932.554714	2385.171531
932.858080	2379.979142
933.161407	2382.348485
933.464694	2376.324306
933.767943	2381.819163
934.071153	2371.862885
934.374323	2383.331510
934.677455	2376.425129
934.980548	2372.341794
935.283602	2376.248688
935.586617	2378.492002
935.889593	2374.383462
936.192530	2376.954450
936.495428	2372.719881
936.798287	2378.567619
937.101108	2380.004348
937.403890	2378.063504
937.706632	2381.163813
938.009336	2380.332023
938.312002	2382.172044
938.614628	2384.339740
938.917216	2384.238917
939.219765	2384.465769
939.522275	2388.297046
939.824747	2385.978115
940.127179	2379.550644
940.429573	2382.978629
940.731929	2386.683877
941.034246	2380.332023
941.336524	2380.584081
941.638763	2383.129863
941.940964	2377.130890
942.243126	2383.810419
942.545250	2381.718340
942.847335	2387.944165
943.149381	2384.440563
943.451389	2378.668442
943.753359	2384.541387
944.055290	2380.029554
944.357182	2377.433360
944.659036	2377.030067
944.960851	2374.307844
945.262628	2370.148892
945.564367	2386.305790
945.866067	2387.918960
946.167729	2379.752290
946.469352	2383.986860
946.770937	2376.324306
947.072484	2370.980683
947.373992	2376.147865
947.675462	2377.433360
947.976893	2380.508463
948.278286	2382.222456
948.579641	2373.350025
948.880958	2369.947246
949.182236	2374.937988
949.483476	2366.594879
949.784678	2376.173071
950.085841	2377.584594
950.386967	2379.348998
950.688054	2376.273894
950.989103	2376.727598
951.290114	2375.089223
951.591087	2381.869575
951.892021	2378.592825
952.192917	2381.088196
952.493776	2378.164327
952.794596	2375.114429
953.095378	2371.610827
953.396122	2375.794985
953.696828	2376.551158
953.997496	2370.426156
954.298126	2378.265150
954.598718	2373.123173
954.899272	2371.837679
955.199788	2378.618031
955.500266	2386.154556
955.800706	2370.627802
956.101108	2373.324819
956.401472	2373.148379
956.701798	2381.919987
957.002087	2367.275435
957.302337	2375.744573
957.602550	2370.602596
957.902724	2375.517721
958.202861	2372.820704
958.502960	2366.872142
958.803022	2371.913296
959.103045	2379.399410
959.403031	2371.005888
959.702979	2366.872142
960.002889	2373.425642
960.302762	2368.157637
960.602596	2367.351052
960.902393	2371.056300
961.202153	2365.258973
961.501875	2372.417412
961.801559	2370.451362
962.101205	2371.031094
962.400814	2368.888604
962.700385	2368.636546
962.999918	2365.662265
963.299414	2370.804242
963.598873	2369.039838
963.898293	2358.982737
964.197677	2371.585621
964.497022	2365.334590
964.796331	2363.797038
965.095601	2361.982223
965.394835	2372.997144
965.694030	2365.385002
965.993189	2368.787781
966.292309	2372.165354
966.591393	2369.266690
966.890439	2367.451875
967.189447	2357.873683
967.488419	2374.786754
967.787353	2379.147352
968.086249	2362.309898
968.385108	2371.711650
968.683930	2366.342821
968.982714	2370.148892
969.281462	2372.568646
969.580172	2362.864425
969.878844	2362.284692
970.177480	2363.645804
970.476078	2371.585621
970.774639	2363.116483
971.073162	2375.517721
971.371649	2366.292410
971.670098	2374.711137
971.968510	2359.512058
972.266885	2368.258460
972.565223	2368.132431
972.863524	2365.183356
973.161788	2361.730165
973.460014	2361.604137
973.758204	2362.007429
974.056356	2369.518748
974.354471	2364.603623
974.652550	2370.148892
974.950591	2363.998685
975.248595	2364.603623
975.546563	2359.738910
975.844493	2363.948273
976.142386	2367.729138
976.440243	2366.821731
976.738062	2369.191073
977.035845	2366.519262
977.333590	2372.896321
977.631299	2357.319156
977.928971	2371.762062
978.226606	2374.080992
978.524204	2366.494056
978.821765	2370.451362
979.119290	2365.082533
979.416777	2362.914837
979.714228	2366.594879
980.011642	2369.619571
980.309020	2360.621112
980.606360	2363.066071
980.903664	2371.988913
981.200931	2369.669983
981.498162	2368.712163
981.795356	2369.846423
982.092513	2368.460106
982.389633	2370.653008
982.686717	2376.651981
982.983764	2380.458052
983.280775	2377.004862
983.577749	2375.391692
983.874686	2375.921013
984.171587	2371.888090
984.468451	2374.534696
984.765279	2367.653521
985.062070	2368.838192
985.358824	2375.240458
985.655543	2379.701879
985.952224	2368.888604
986.248869	2372.140148
986.545478	2361.881400
986.842050	2360.646317
987.138586	2361.175638
987.435086	2370.602596
987.731549	2363.519775
988.027975	2371.207535
988.324366	2362.057840
988.620719	2361.578931
988.917037	2368.359283
989.213318	2373.425642
989.509563	2362.839219
989.805772	2372.619058
990.101944	2365.158150
990.398080	2363.141688
990.694180	2365.183356
990.990244	2366.922554
991.286271	2367.477081
991.582262	2361.957017
991.878217	2365.460619
992.174136	2366.115969
992.470019	2366.115969
992.765865	2363.217306
993.061676	2367.401463
993.357450	2368.157637
993.653188	2366.897348
993.948890	2368.686958
994.244556	2370.955477
994.540186	2368.082019
994.835780	2360.595906
995.131337	2372.341794
995.426859	2364.427183
995.722345	2371.888090
996.017795	2363.998685
996.313208	2363.671010
996.608586	2372.014119
996.903928	2371.005888
997.199234	2367.351052
997.494504	2360.973992
997.789738	2366.720908
998.084936	2364.301154
998.380099	2369.543954
998.675225	2368.939015
998.970316	2365.989940
999.265371	2371.535210
999.560390	2365.435413
999.855373	2364.628829
1000.150320	2366.821731
1000.445232	2366.040352
1000.740108	2360.948787
1001.034948	2361.301667
1001.329752	2376.072248
1001.624521	2369.669983
1001.919254	2357.823271
1002.213951	2365.309385
1002.508613	2359.083560
1002.803239	2363.494569
1003.097829	2359.234794
1003.392384	2363.696215
1003.686903	2363.897862
1003.981386	2362.587162
1004.275834	2366.872142
1004.570246	2362.108252
1004.864623	2365.611854
1005.158964	2370.854654
1005.453270	2363.519775
1005.747540	2370.678213
1006.041775	2363.116483
1006.335974	2360.419465
1006.630138	2361.704960
1006.924266	2364.250742
1007.218359	2365.914323
1007.512416	2356.562983
1007.806438	2357.747654
1008.100425	2363.797038
1008.394376	2360.520288
1008.688292	2361.452902
1008.982172	2363.847450
1009.276017	2365.032121
1009.569827	2363.166894
1009.863602	2357.067098
1010.157341	2356.840246
1010.451045	2363.973479
1010.744714	2361.629342
1011.038347	2362.864425
1011.331945	2366.267204
1011.625508	2367.577904
1011.919036	2367.678727
1012.212528	2366.342821
1012.505986	2360.343848
1012.799408	2364.275948
1013.092795	2370.451362
1013.386147	2362.511544
1013.679464	2369.644777
1013.972745	2361.931812
1014.265992	2362.839219
1014.559204	2357.041892
1014.852380	2359.436440
1015.145521	2357.369567
1015.438628	2359.461646
1015.731699	2352.882940
1016.024736	2362.486338
1016.317737	2363.116483
1016.610703	2359.789321
1016.903635	2356.840246
1017.196531	2355.705987
1017.489393	2365.435413
1017.782219	2353.487879
1018.075011	2363.192100
1018.367768	2370.678213
1018.660490	2363.822244
1018.953177	2363.822244
1019.245829	2363.822244
