Dividing Wavelength (nm)	Counts (n)	Slit_number_3_of_a_total_of_40	
326.493990	1940.642585
326.888308	1940.642585
327.282561	1940.642585
327.676750	1925.720769
328.070874	1924.662127
328.464933	1935.601431
328.858929	1942.381783
329.252859	1957.480038
329.646726	1970.284569
330.040528	1998.061327
330.434265	2010.185302
330.827938	2021.578310
331.221547	2043.406506
331.615091	2069.973387
332.008571	2087.693042
332.401986	2109.874119
332.795338	2130.769702
333.188625	2147.632362
333.581847	2172.409633
333.975006	2181.609738
334.368100	2203.463140
334.761129	2212.058308
335.154095	2231.617985
335.546996	2254.454412
335.939833	2274.669438
336.332606	2298.715742
336.725315	2291.532098
337.117960	2304.513069
337.510540	2308.419963
337.903056	2327.954435
338.295508	2328.458550
338.687896	2348.446725
339.080220	2348.043433
339.472480	2350.614421
339.864676	2352.429237
340.256807	2351.042919
340.648875	2362.965248
341.040879	2357.621625
341.432818	2359.562469
341.824694	2363.998685
342.216506	2360.293437
342.608253	2356.260513
342.999937	2343.859275
343.391557	2358.881913
343.783113	2352.555265
344.174605	2350.463187
344.566033	2341.515138
344.957397	2348.068638
345.348697	2336.247133
345.739934	2344.439008
346.131106	2349.908660
346.522215	2337.557833
346.913260	2340.254850
347.304241	2339.044973
347.695159	2335.541371
348.086012	2333.575321
348.476802	2332.037769
348.867528	2330.903510
349.258191	2331.533654
349.648789	2337.431804
350.039324	2326.139619
350.429796	2334.785198
350.820203	2334.507935
351.210548	2333.625733
351.600828	2332.264621
351.991045	2310.159162
352.381198	2338.566063
352.771288	2327.198262
353.161314	2330.550629
353.551276	2319.888588
353.941175	2325.736327
354.331010	2330.323777
354.720782	2334.936433
355.110490	2336.473985
355.500135	2327.097438
355.889717	2328.030052
356.279235	2323.366985
356.668689	2326.870587
357.058080	2326.290854
357.447408	2328.811431
357.836672	2328.181287
358.225873	2333.046000
358.615010	2316.435398
359.004084	2328.685402
359.393095	2329.466781
359.782043	2331.861329
360.170927	2332.541885
360.559748	2332.844354
360.948505	2330.827892
361.337199	2337.356187
361.725830	2336.801660
362.114398	2337.759479
362.502903	2328.408138
362.891344	2346.127794
363.279722	2341.691579
363.668037	2330.575835
364.056289	2335.616988
364.444478	2340.557319
364.832603	2345.749708
365.220665	2341.540344
365.608665	2333.676144
365.996601	2336.675631
366.384474	2337.583038
366.772284	2344.640654
367.160031	2335.541371
367.547715	2346.757938
367.935336	2341.464727
368.322893	2330.928715
368.710388	2339.322237
369.097820	2341.363904
369.485189	2341.792402
369.872495	2332.315033
370.259738	2342.094871
370.646918	2341.540344
371.034035	2342.548575
371.421090	2341.363904
371.808081	2337.683862
372.195010	2347.967815
372.581875	2340.481702
372.968678	2343.909687
373.355418	2337.078923
373.742096	2341.641167
374.128710	2339.775940
374.515262	2346.354646
374.901751	2339.574294
375.288177	2335.490960
375.674540	2344.716271
376.060841	2347.463700
376.447079	2344.993535
376.833254	2339.725529
377.219367	2340.431290
377.605417	2345.800119
377.991404	2344.565037
378.377329	2341.464727
378.763191	2336.902483
379.148991	2347.060408
379.534727	2345.548062
379.920402	2341.187463
380.306013	2341.489933
380.691563	2349.354133
381.077049	2346.783144
381.462474	2351.824298
381.847835	2352.000738
382.233134	2348.673577
382.618371	2345.447238
383.003545	2351.698269
383.388657	2344.539831
383.773706	2342.573781
384.158693	2341.137052
384.543618	2347.690552
384.928480	2352.933352
385.313280	2344.943123
385.698017	2346.178206
386.082692	2353.865965
386.467305	2353.008969
386.851856	2354.848990
387.236344	2350.967302
387.620770	2354.143229
388.005133	2349.782631
388.389435	2354.017200
388.773674	2352.580471
389.157851	2350.059894
389.541965	2350.488392
389.926018	2343.329954
390.310008	2355.554752
390.693936	2349.102075
391.077802	2343.203925
391.461606	2351.093331
391.845348	2356.588188
392.229027	2353.765142
392.612645	2351.572240
392.996200	2360.293437
393.379694	2354.949813
393.763125	2353.689525
394.146494	2360.469877
394.529801	2362.057840
394.913047	2350.236335
395.296230	2359.713704
395.679351	2351.975533
396.062410	2357.974506
396.445408	2351.370594
396.828343	2353.286233
397.211217	2353.966788
397.594028	2360.192613
397.976778	2355.529546
398.359466	2350.866479
398.742092	2346.707527
399.124656	2350.059894
399.507158	2362.209075
399.889598	2352.076356
400.271977	2349.908660
400.654294	2360.696729
401.036549	2354.748167
401.418742	2361.755371
401.800874	2354.445698
402.182944	2362.738396
402.564952	2354.546521
402.946898	2366.015146
403.328783	2363.469363
403.710606	2352.504854
404.092367	2356.537777
404.474067	2358.478621
404.855705	2360.797552
405.237282	2363.393746
405.618797	2364.578417
406.000250	2362.335104
406.381642	2360.142202
406.762972	2353.235821
407.144240	2360.545494
407.525447	2358.529033
407.906593	2356.689012
408.287677	2355.353106
408.668700	2354.823785
409.049661	2359.764115
409.430560	2364.149919
409.811399	2364.250742
410.192176	2356.638600
410.572891	2364.023890
410.953545	2352.555265
411.334138	2353.689525
411.714669	2367.149406
412.095139	2362.360310
412.475547	2360.419465
412.855894	2354.420492
413.236180	2369.317102
413.616405	2360.520288
413.996568	2365.914323
414.376670	2370.224510
414.756711	2363.721421
415.136691	2365.208562
415.516609	2359.738910
415.896466	2367.225023
416.276262	2356.663806
416.655997	2355.579958
417.035670	2358.629856
417.415283	2359.764115
417.794834	2357.823271
418.174324	2358.100535
418.553753	2354.672550
418.933121	2360.595906
419.312428	2366.065558
419.691674	2365.082533
420.070859	2361.881400
420.449983	2363.872656
420.829045	2368.964221
421.208047	2363.066071
421.586988	2362.536750
421.965867	2365.863912
422.344686	2361.780577
422.723444	2360.973992
423.102141	2352.630883
423.480777	2360.923581
423.859352	2359.360823
424.237866	2364.074302
424.616319	2370.426156
424.994712	2365.586648
425.373044	2358.629856
425.751314	2365.032121
426.129524	2368.359283
426.507673	2370.022863
426.885762	2371.913296
427.263789	2368.334077
427.641756	2357.898888
428.019662	2362.259487
428.397508	2368.913810
428.775292	2357.924094
429.153016	2362.032635
429.530679	2364.477594
429.908282	2364.175125
430.285824	2362.612367
430.663305	2363.570187
431.040726	2363.645804
431.418086	2364.528006
431.795385	2362.990454
432.172624	2363.091277
432.549802	2365.662265
432.926920	2369.770806
433.303977	2371.888090
433.680974	2365.561442
434.057910	2370.249715
434.434786	2364.452388
434.811601	2367.124200
435.188355	2365.284179
435.565050	2369.468337
435.941683	2366.594879
436.318257	2372.493029
436.694770	2369.266690
437.071222	2370.879860
437.447614	2363.166894
437.823946	2361.931812
438.200218	2365.914323
438.576429	2371.333563
438.952580	2372.619058
439.328670	2375.215252
439.704700	2376.853627
440.080670	2370.728625
440.456580	2369.191073
440.832429	2370.375744
441.208218	2366.191587
441.583947	2371.888090
441.959616	2368.233254
442.335224	2367.703933
442.710773	2373.400437
443.086261	2360.268231
443.461689	2370.930271
443.837057	2368.812987
444.212365	2363.267717
444.587612	2357.898888
444.962800	2373.123173
445.337927	2368.535723
445.712995	2367.376258
446.088002	2373.097967
446.462949	2370.829448
446.837837	2371.157123
447.212664	2372.114942
447.587431	2369.518748
447.962139	2373.602083
448.336786	2367.754344
448.711374	2366.645290
449.085901	2365.435413
449.460369	2368.888604
449.834776	2371.081506
450.209124	2368.611340
450.583412	2372.316588
450.957640	2371.812473
451.331808	2371.812473
451.705917	2370.602596
452.079965	2376.954450
452.453954	2370.779037
452.827883	2365.435413
453.201752	2370.779037
453.575562	2367.199817
453.949311	2375.290869
454.323001	2372.997144
454.696632	2376.626775
455.070202	2373.223996
455.443713	2369.266690
455.817164	2365.561442
456.190556	2377.584594
456.563888	2379.752290
456.937160	2371.560415
457.310373	2369.896835
457.683526	2372.190560
458.056619	2377.710623
458.429653	2372.316588
458.802628	2369.695188
459.175542	2373.602083
459.548398	2376.223483
459.921194	2374.837165
460.293930	2374.988400
460.666607	2373.904552
461.039224	2373.854140
461.411782	2369.014633
461.784280	2372.316588
462.156719	2376.324306
462.529099	2377.206508
462.901419	2380.130377
463.273680	2379.424615
463.645882	2376.803215
464.018024	2380.760521
464.390106	2370.274921
464.762130	2372.316588
465.134094	2364.149919
465.505999	2383.432333
465.877845	2380.382435
466.249631	2375.593338
466.621358	2366.317615
466.993026	2380.558875
467.364634	2382.625748
467.736184	2374.055787
468.107674	2374.131404
468.479105	2374.257433
468.850477	2373.223996
469.221790	2371.686444
469.593043	2375.265663
469.964238	2379.903525
470.335373	2382.701365
470.706449	2377.030067
471.077467	2371.711650
471.448425	2375.013606
471.819324	2375.290869
472.190164	2374.862371
472.560945	2379.701879
472.931667	2380.180788
473.302330	2375.568133
473.672934	2381.390665
474.043479	2369.947246
474.413965	2370.854654
474.784393	2373.249202
475.154761	2372.997144
475.525070	2374.459079
475.895321	2365.586648
476.265513	2375.013606
476.635645	2376.601569
477.005719	2372.039325
477.375734	2375.265663
477.745691	2375.442104
478.115588	2375.971425
478.485427	2377.282125
478.855207	2373.173585
479.224928	2376.324306
479.594591	2383.180275
479.964194	2379.752290
480.333739	2370.224510
480.703226	2380.533669
481.072653	2380.029554
481.442022	2380.634492
481.811333	2376.525952
482.180584	2380.079965
482.549777	2380.105171
482.918912	2371.484798
483.287988	2382.323279
483.657005	2377.080479
484.025964	2375.542927
484.394864	2375.744573
484.763706	2381.919987
485.132489	2373.627288
485.501213	2380.886550
485.869879	2377.357742
486.238487	2380.634492
486.607036	2373.778523
486.975527	2381.340254
487.343959	2383.961654
487.712333	2381.541900
488.080648	2376.324306
488.448905	2378.718854
488.817104	2377.030067
489.185244	2377.635006
489.553326	2375.971425
489.921350	2383.986860
490.289315	2384.969885
490.657222	2380.911756
491.025070	2380.231200
491.392861	2384.692621
491.760593	2377.660212
492.128267	2380.760521
492.495883	2388.423075
492.863440	2376.904038
493.230939	2378.970912
493.598380	2381.390665
493.965763	2369.468337
494.333088	2380.180788
494.700354	2381.441077
495.067563	2371.409181
495.434713	2373.526465
495.801805	2378.718854
496.168839	2384.087683
496.535815	2379.273381
496.902733	2377.231713
497.269593	2378.063504
497.636395	2381.970398
498.003139	2378.466796
498.369825	2380.911756
498.736453	2375.341281
499.103023	2376.173071
499.469535	2379.449821
499.835989	2387.314021
500.202385	2370.476567
500.568723	2375.190046
500.935003	2380.231200
501.301226	2384.692621
501.667390	2391.044475
502.033497	2384.692621
502.399546	2377.962681
502.765537	2373.526465
503.131470	2376.273894
503.497345	2382.096427
503.863163	2383.709596
504.228923	2382.625748
504.594625	2376.349512
504.960269	2375.467310
505.325856	2387.213198
505.691385	2379.096940
506.056856	2380.810933
506.422270	2384.894267
506.787625	2383.331510
507.152924	2384.339740
507.518164	2380.432846
507.883347	2383.533156
508.248472	2376.500746
508.613540	2382.323279
508.978550	2381.214225
509.343503	2385.927704
509.708398	2385.852087
510.073236	2387.162787
510.438016	2383.331510
510.802738	2392.103117
511.167403	2380.886550
511.532010	2381.239431
511.896561	2381.088196
512.261053	2377.307331
512.625488	2371.560415
512.989866	2383.331510
513.354186	2384.062477
513.718449	2377.735829
514.082655	2386.734288
514.446803	2373.980169
514.810894	2392.178735
515.174927	2384.314535
515.538904	2386.104144
515.902822	2372.215765
516.266684	2382.272867
516.630488	2388.171017
516.994235	2388.397869
517.357925	2382.146838
517.721558	2386.028527
518.085133	2390.313508
518.448651	2394.422048
518.812112	2384.969885
519.175516	2386.709083
519.538863	2392.506410
519.902152	2390.137067
520.265385	2392.834085
520.628560	2383.356715
520.991678	2382.373690
521.354739	2379.827908
521.717743	2380.155583
522.080690	2398.354148
522.443580	2395.959600
522.806413	2401.429252
523.169189	2396.161246
523.531908	2394.522871
523.894569	2401.756927
524.257174	2397.396329
524.619722	2395.858777
524.982213	2399.841288
525.344647	2404.000240
525.707025	2403.143244
526.069345	2401.353635
526.431608	2408.638102
526.793815	2400.345404
527.155964	2403.596948
527.518057	2401.504869
527.880093	2413.578433
528.242072	2397.345917
528.603995	2406.823287
528.965860	2411.083062
529.327669	2414.813515
529.689421	2410.301683
530.051117	2411.990469
530.412755	2402.563512
530.774337	2408.108781
531.135862	2415.998187
531.497331	2401.177194
531.858743	2407.781106
532.220098	2405.361352
532.581396	2407.377813
532.942638	2419.955492
533.303824	2418.644792
533.664953	2412.469379
534.026025	2416.325862
534.387040	2420.207550
534.747999	2420.283167
535.108902	2415.191602
535.469748	2411.814029
535.830537	2423.358271
536.191270	2421.518250
536.551947	2427.744075
536.912567	2431.575352
537.273131	2429.962183
537.633638	2418.493558
537.994089	2430.793973
538.354483	2422.375246
538.714821	2433.743048
539.075103	2430.264652
539.435328	2438.179263
539.795497	2424.668971
540.155609	2432.558377
540.515665	2428.273396
540.875665	2438.028029
541.235609	2432.381937
541.595496	2439.565581
541.955328	2433.163315
542.315102	2436.944181
542.674821	2447.933896
543.034483	2445.942640
543.394090	2443.674121
543.753640	2441.077927
544.113134	2436.011567
544.472571	2451.109823
544.831953	2448.135542
545.191278	2457.335648
545.550548	2445.892229
545.909761	2447.152517
546.268918	2446.043463
546.628019	2449.874740
546.987064	2453.655606
547.346053	2455.571244
547.704986	2462.956535
548.063863	2447.656633
548.422684	2460.360340
548.781449	2453.882458
549.140158	2461.116513
549.498811	2459.679785
549.857408	2453.151490
550.215949	2456.176183
550.574434	2455.394804
550.932864	2453.201902
551.291237	2463.334621
551.649555	2456.302212
552.007817	2455.848508
552.366022	2453.857252
552.724173	2461.091308
553.082267	2460.738427
553.440305	2468.022894
553.798288	2465.250260
554.156215	2457.159208
554.514086	2467.140692
554.871902	2454.588219
555.229661	2468.955508
555.587365	2459.805813
555.945014	2466.082050
556.302606	2472.333081
556.660143	2461.897892
557.017625	2457.764146
557.375050	2464.645321
557.732421	2465.199848
558.089735	2461.595423
558.446994	2461.595423
558.804197	2464.065588
559.161345	2464.872173
559.518437	2461.192131
559.875474	2471.602113
560.232455	2465.829992
560.589381	2463.460650
560.946251	2457.814558
561.303065	2461.948304
561.659825	2456.629887
562.016528	2465.376288
562.373177	2456.781121
562.729770	2460.965279
563.086307	2459.831019
563.442789	2468.728656
563.799216	2459.780608
564.155587	2466.233285
564.511904	2457.587706
564.868164	2472.635550
565.224370	2455.672067
565.580520	2463.435444
565.936615	2451.160235
566.292654	2465.199848
566.648638	2454.714248
567.004567	2451.311469
567.360441	2455.193158
567.716260	2447.253340
568.072023	2453.428754
568.427732	2448.135542
568.783385	2450.227621
569.138982	2446.169492
569.494525	2451.588733
569.850013	2439.111877
570.205445	2455.016717
570.560823	2448.085131
570.916145	2456.554269
571.271412	2451.765173
571.626625	2447.707044
571.981782	2446.522373
572.336884	2438.154058
572.691931	2455.092335
573.046923	2447.555810
573.401860	2441.733277
573.756743	2445.362908
574.111570	2444.253854
574.466342	2438.406115
574.821059	2439.918462
575.175722	2435.457040
575.530330	2438.305292
575.884882	2439.162288
576.239380	2436.994592
576.593823	2434.474015
576.948211	2431.550146
577.302544	2432.785229
577.656823	2431.121648
578.011047	2437.826383
578.365216	2436.868563
578.719330	2422.778538
579.073389	2432.281113
579.427394	2437.019798
579.781344	2443.951385
580.135239	2437.397885
580.489080	2432.029056
580.842866	2428.399425
581.196597	2421.165369
581.550273	2427.769281
581.903895	2424.114444
582.257463	2436.540888
582.610975	2428.424631
582.964434	2424.164856
583.317837	2437.750765
583.671186	2426.861873
584.024481	2422.400452
584.377721	2427.013108
584.730906	2421.064546
585.084037	2426.987902
585.437113	2427.592840
585.790135	2421.593867
586.143103	2419.249731
586.496016	2429.558890
586.848874	2413.452404
587.201679	2419.905081
587.554428	2425.904054
587.907124	2419.678229
588.259765	2415.922569
588.612352	2421.946748
588.964884	2424.694177
589.317362	2424.013621
589.669786	2418.947262
590.022155	2418.140677
590.374470	2419.552200
590.726731	2425.803231
591.078937	2424.038827
591.431090	2424.290885
591.783188	2422.929773
592.135232	2418.947262
592.487222	2421.367015
592.839157	2417.031623
593.191038	2418.871644
593.542866	2416.502302
593.894639	2417.157652
594.246358	2419.300142
594.598022	2417.712179
594.949633	2422.576892
595.301190	2418.972467
595.652692	2422.954979
596.004141	2416.275450
596.355535	2416.855183
596.706876	2427.189548
597.058162	2417.308887
597.409395	2424.215267
597.760573	2420.762077
598.111698	2416.351067
598.462768	2416.729154
598.813785	2417.636562
599.164748	2415.720923
599.515657	2414.107754
599.866511	2419.148908
600.217312	2425.248704
600.568060	2418.543969
600.918753	2410.805798
601.269392	2419.577406
601.619978	2422.803744
601.970510	2421.190575
602.320988	2419.703435
602.671412	2426.282140
603.021783	2421.997160
603.372100	2416.124215
603.722363	2423.786769
604.072572	2412.393762
604.422728	2423.484300
604.772830	2415.443660
605.122878	2423.282654
605.472872	2418.669998
605.822813	2410.578946
606.172701	2423.559917
606.522534	2423.181831
606.872314	2424.971440
607.222041	2429.432862
607.571714	2427.013108
607.921333	2428.475042
608.270899	2422.425658
608.620411	2425.324321
608.969870	2431.020825
609.319276	2434.700867
609.668627	2423.333065
610.017926	2434.801690
610.367171	2423.433888
610.716362	2438.910231
611.065500	2436.188008
611.414585	2428.248190
611.763616	2428.853129
612.112594	2433.465785
612.461518	2429.458067
612.810389	2441.279573
613.159207	2433.289344
613.507971	2445.942640
613.856682	2433.238933
614.205340	2447.001283
614.553945	2450.479679
614.902496	2448.765687
615.250994	2443.195212
615.599439	2442.716302
615.947830	2446.068669
616.296169	2441.355190
616.644454	2451.538321
616.992686	2454.462190
617.340864	2466.813017
617.688990	2466.636577
618.037063	2464.242029
618.385082	2462.906123
618.733048	2476.189563
619.080961	2465.300671
619.428821	2470.593883
619.776628	2477.676704
620.124382	2471.375262
620.472083	2475.231744
620.819731	2469.484829
621.167326	2477.979173
621.514868	2480.424133
621.862357	2484.078969
622.209793	2482.869092
622.557176	2484.078969
622.904506	2480.323310
623.251783	2476.366004
623.599007	2467.417956
623.946179	2479.768783
624.293297	2481.507981
624.640363	2485.263640
624.987376	2496.480208
625.334336	2493.178252
625.681243	2489.271358
626.028097	2497.564056
626.374899	2485.011583
626.721647	2500.412308
627.068343	2495.950887
627.414987	2502.756444
627.761577	2505.226610
628.108115	2506.663338
628.454600	2509.965294
628.801032	2511.301200
629.147412	2519.165400
629.493739	2522.769825
629.840014	2534.843388
630.186236	2534.314067
630.532405	2538.800694
630.878521	2545.429812
631.224585	2553.722510
631.570597	2555.612942
631.916556	2562.065619
632.262462	2569.375292
632.608316	2573.735890
632.954117	2575.399471
633.299866	2582.305852
633.645562	2574.391240
633.991206	2577.340315
634.336797	2578.298135
634.682336	2579.054308
635.027823	2588.834146
635.373257	2585.633013
635.718639	2587.901533
636.063968	2591.354723
636.409245	2587.851121
636.754470	2590.044023
637.099642	2596.496700
637.444762	2599.269335
637.789829	2594.606267
638.134845	2607.839296
638.479808	2606.579008
638.824719	2608.847527
639.169577	2610.536313
639.514383	2622.559465
639.859137	2617.543517
640.203839	2632.717390
640.548489	2631.255456
640.893086	2632.717390
641.237632	2634.809469
641.582125	2649.403610
641.926566	2637.456075
642.270955	2657.570279
642.615292	2664.249808
642.959576	2661.401556
643.303809	2668.156702
643.647990	2677.054338
643.992118	2689.304342
644.336195	2691.043540
644.680219	2698.328008
645.024192	2719.374825
645.368112	2729.255487
645.711981	2739.161354
646.055797	2753.377408
646.399562	2767.316198
646.743274	2801.192752
647.086935	2813.921665
647.430544	2820.601194
647.774101	2831.515292
648.117606	2834.161898
648.461059	2842.202538
648.804460	2845.806963
649.147810	2843.765296
649.491108	2845.882581
649.834354	2845.202025
650.177548	2847.319310
650.520690	2831.767350
650.863781	2846.386696
651.206820	2852.083200
651.549807	2848.781244
651.892742	2854.150073
652.235626	2873.306458
652.578458	2871.970552
652.921238	2873.457692
653.263967	2878.599669
653.606644	2889.715413
653.949269	2892.815723
654.291843	2893.092987
654.634365	2914.593508
654.976836	2916.912438
655.319255	2916.735998
655.661622	2928.028183
656.003938	2934.934563
656.346203	2936.497321
656.688416	2947.587860
657.030577	2952.502985
657.372687	2953.107923
657.714746	2966.492187
658.056753	2982.598673
658.398708	2979.145483
658.740612	2990.286433
659.082465	2991.950013
659.424266	3010.123373
659.766016	3010.425842
660.107715	3022.272554
660.449362	3050.906308
660.790958	3053.578119
661.132503	3059.627504
661.473996	3080.044177
661.815438	3088.437698
662.156829	3093.125971
662.498168	3090.781835
662.839456	3120.423819
663.180693	3134.665079
663.521879	3136.984010
663.863013	3154.955723
664.204097	3156.871362
664.545129	3174.490194
664.886110	3194.150694
665.227040	3214.743808
665.567918	3228.203688
665.908746	3236.143506
666.249522	3249.779827
666.590248	3259.484048
666.930922	3275.615740
667.271545	3286.000517
667.612118	3297.897640
667.952639	3305.333342
668.293109	3316.323058
668.633528	3323.683142
668.973896	3340.470185
669.314213	3341.755679
669.654480	3344.074610
669.994695	3351.107019
670.334859	3354.509798
670.674973	3366.684185
671.015035	3394.586971
671.355047	3395.015469
671.695008	3405.475863
672.034918	3410.390988
672.374777	3426.043771
672.714585	3441.041204
673.054342	3463.802013
673.394049	3469.019608
673.733705	3482.933192
674.073310	3470.305102
674.412864	3488.982577
674.752368	3496.014987
675.091820	3499.921881
675.431223	3504.080833
675.770574	3491.629183
676.109875	3497.325687
676.449125	3499.821058
676.788324	3501.156963
677.127473	3498.434740
677.466571	3500.173938
677.805619	3496.796365
678.144616	3498.182683
678.483562	3515.574663
678.822458	3513.759848
679.161303	3522.128163
679.500098	3526.715613
679.838842	3534.630225
680.177535	3538.159033
680.516179	3578.589087
680.854771	3607.979013
681.193314	3678.630785
681.531805	3747.291300
681.870247	3792.409627
682.208638	3827.874144
682.546978	3838.561390
682.885268	3846.072710
683.223508	3837.074250
683.561697	3831.806244
683.899836	3834.830937
684.237925	3836.822192
684.575963	3847.055735
684.913951	3851.693596
685.251889	3861.801110
685.589776	3889.502250
685.927614	3896.635483
686.265401	3944.828913
686.603137	3970.664827
686.940824	4003.684385
687.278460	4059.389135
687.616046	4090.745112
687.953582	4136.770846
688.291068	4143.828462
688.628504	4164.724044
688.965889	4180.502856
689.303224	4172.941125
689.640510	4150.860871
689.977745	4127.772387
690.314930	4076.352617
690.652065	4040.812483
690.989150	4010.893235
691.326185	3964.413796
691.663170	3923.580450
692.000105	3898.904002
692.336990	3860.036706
692.673825	3852.021271
693.010610	3835.813962
693.347345	3794.501706
693.684030	3771.236781
694.020665	3754.298504
694.357251	3733.604567
694.693786	3739.250660
695.030272	3738.872573
695.366707	3709.633881
695.703093	3712.507338
696.039429	3727.656006
696.375716	3724.127198
696.711952	3738.393663
697.048139	3728.689442
697.384276	3728.437385
697.720363	3745.476485
698.056400	3746.081423
698.392388	3751.399840
698.728326	3755.483175
699.064214	3751.147783
699.400053	3746.862802
699.735842	3724.177610
700.071581	3711.675548
700.407270	3705.424517
700.742910	3703.937377
701.078501	3686.923483
701.414042	3673.589631
701.749533	3660.230573
702.084974	3650.828821
702.420366	3668.246008
702.755709	3643.720794
703.091002	3640.444044
703.426246	3645.081906
703.761440	3644.779437
704.096584	3636.159063
704.431679	3646.392606
704.766725	3637.570587
705.101721	3642.611740
705.436668	3656.752177
705.771565	3631.319556
706.106413	3676.286648
706.441212	3690.149821
706.775961	3724.454873
707.110661	3737.057758
707.445311	3772.295423
707.779913	3773.757358
708.114465	3804.331956
708.448967	3837.931246
708.783421	3904.902975
709.117825	3946.769758
709.452180	3984.225531
709.786485	4019.765665
710.120742	4112.043987
710.454949	4137.879900
710.789107	4194.416440
711.123216	4262.396400
711.457275	4285.535296
711.791286	4341.945808
712.125247	4363.723592
712.459159	4360.396431
712.793023	4408.867125
713.126837	4328.536338
713.460602	4358.027088
713.794318	4313.589317
714.127985	4288.534783
714.461602	4219.823856
714.795171	4221.941140
715.128691	4144.030108
715.462162	4088.148917
715.795584	4064.329465
716.128957	4044.341290
716.462281	4023.370090
716.795556	4004.339735
717.128782	3964.590237
717.461960	3927.739402
717.795088	3930.738888
718.128167	3908.330960
718.461198	3871.379302
718.794180	3865.254300
719.127113	3836.091225
719.459997	3821.093792
719.792833	3801.685350
720.125619	3815.422494
720.458357	3783.335550
720.791046	3788.074235
721.123686	3776.933285
721.456278	3763.448198
721.788821	3770.959517
722.121315	3753.491919
722.453761	3771.009929
722.786158	3777.639046
723.118506	3787.141621
723.450805	3792.334010
723.783056	3809.549550
724.115259	3809.095846
724.447412	3824.521777
724.779518	3852.752238
725.111574	3879.369531
725.443582	3892.426119
725.775542	3905.633942
726.107453	3981.654542
726.439315	3993.097962
726.771129	4034.611863
727.102895	4085.552723
727.434612	4119.429277
727.766281	4147.760562
728.097901	4182.746169
728.429473	4190.333106
728.760996	4200.919529
729.092471	4212.917475
729.423897	4208.002350
729.755276	4222.319227
730.086606	4255.363990
730.417887	4336.476156
730.749120	4392.256523
731.080305	4427.292542
731.411442	4479.644925
731.742530	4491.289990
732.073570	4518.033312
732.404562	4568.848142
732.735506	4536.231877
733.066401	4489.702027
733.397249	4434.299746
733.728048	4342.752392
734.058798	4267.109879
734.389501	4197.264692
734.720156	4143.878873
735.050762	4094.652006
735.381320	4065.640165
735.711831	4041.971948
736.042293	4019.387579
736.372707	4035.368037
736.703073	4012.229140
737.033391	4060.170513
737.363661	4072.143254
737.693883	4098.432871
738.024056	4145.088750
738.354182	4178.637629
738.684260	4230.788365
739.014290	4267.059467
739.344272	4305.750323
739.674207	4351.851675
740.004093	4375.595510
740.333931	4373.755488
740.663722	4395.886154
740.993464	4403.800765
741.323159	4382.098598
741.652806	4338.568235
741.982405	4336.854242
742.311956	4297.734888
742.641460	4279.889204
742.970915	4247.751848
743.300323	4201.852142
743.629683	4182.368083
743.958996	4149.373731
744.288260	4123.512612
744.617477	4087.997683
744.946647	4086.409719
745.275768	4052.457548
745.604842	4040.106721
745.933869	4015.707537
746.262847	4027.705483
746.591778	4031.083056
746.920662	4022.613917
747.249498	4033.376781
747.578286	4069.269796
747.907027	4102.314560
748.235720	4143.601610
748.564365	4151.919513
748.892963	4140.047596
749.221514	4162.430319
749.550017	4139.165394
749.878473	4148.516735
750.206881	4109.220940
750.535242	4113.027012
750.863555	4108.363944
751.191821	4102.516206
751.520039	4111.968369
751.848210	4113.783185
752.176334	4139.190600
752.504411	4130.545021
752.832440	4099.063015
753.160421	4117.589256
753.488356	4105.566104
753.816243	4101.180300
754.144082	4085.451900
754.471875	4086.535748
754.799620	4080.435952
755.127318	4085.401488
755.454969	4084.720933
755.782572	4082.956529
756.110129	4088.955502
756.437638	4094.551183
756.765100	4090.493054
757.092515	4109.498204
757.419882	4115.320737
757.747203	4134.275475
758.074477	4155.851613
758.401703	4149.474554
758.728882	4199.785269
759.056014	4211.606775
759.383099	4236.358840
759.710138	4266.353706
760.037129	4294.206081
760.364073	4292.214825
760.690970	4314.043021
761.017820	4338.164942
761.344623	4385.728229
761.671379	4502.935056
761.998088	4753.127521
762.324751	5227.222835
762.651366	5871.885588
762.977935	6497.543192
763.304456	6715.951183
763.630931	6641.468135
763.957359	6346.182548
764.283740	5986.092929
764.610074	5601.175627
764.936362	5238.590637
765.262602	4983.004137
765.588796	4710.630594
765.914943	4536.307494
766.241044	4385.955081
766.567097	4277.595479
766.893104	4176.167463
767.219064	4116.933906
767.544978	4047.239954
767.870845	3986.443638
768.196665	3963.052685
768.522438	3918.589708
768.848165	3897.769742
769.173846	3867.951317
769.499479	3849.752752
769.825066	3822.984225
770.150607	3777.059313
770.476101	3776.051083
770.801548	3757.272785
771.126949	3736.225967
771.452303	3717.094788
771.777611	3699.854042
772.102872	3691.485727
772.428087	3663.759381
772.753256	3650.576763
773.078378	3624.690438
773.403453	3600.215637
773.728482	3589.755242
774.053465	3575.992892
774.378401	3549.299983
774.703291	3546.426525
775.028135	3519.758821
775.352932	3509.121987
775.677683	3494.376612
776.002388	3483.891012
776.327046	3482.958398
776.651658	3482.756752
776.976224	3454.627113
777.300743	3454.753142
777.625216	3438.419804
777.949643	3437.840071
778.274024	3452.131742
778.598359	3431.538629
778.922647	3432.269596
779.246889	3434.462498
779.571086	3440.738735
779.895236	3449.333902
780.219339	3449.207873
780.543397	3445.452213
780.867409	3469.246460
781.191374	3475.220227
781.515294	3452.988738
781.839167	3492.385356
782.162995	3486.638440
782.486776	3468.011377
782.810511	3469.851398
783.134201	3444.746452
783.457844	3443.360135
783.781441	3438.545833
784.104993	3428.463525
784.428498	3434.260852
784.751958	3436.731017
785.075372	3443.007254
785.398739	3423.699635
785.722061	3442.982048
786.045337	3441.217644
786.368568	3495.611694
786.691752	3520.162113
787.014891	3607.222840
787.337983	3698.618960
787.661030	3827.370029
787.984031	3916.522835
788.306987	3975.605158
788.629897	3979.209583
788.952760	3941.123665
789.275579	3897.089187
789.598351	3817.514573
789.921078	3766.094804
790.243759	3679.941485
790.566395	3633.512458
790.888984	3593.888988
791.211529	3562.028896
791.534027	3513.306144
791.856480	3489.032988
792.178888	3473.783498
792.501249	3459.416210
792.823566	3438.016512
793.145836	3443.385340
793.468062	3442.931637
793.790241	3444.922892
794.112375	3459.895119
794.434464	3496.443485
794.756507	3503.954804
795.078505	3559.533525
795.400457	3627.941983
795.722364	3700.257335
796.044226	3729.949731
796.366042	3774.437913
796.687812	3762.137498
797.009538	3769.169908
797.331218	3744.443048
797.652852	3726.874627
797.974442	3701.114331
798.295986	3684.075231
798.617484	3643.720794
798.938938	3639.914723
799.260346	3607.071606
799.581709	3555.626631
799.903026	3551.442473
800.224299	3533.092673
800.545526	3507.080319
800.866708	3481.622492
801.187845	3468.238229
801.508936	3436.579783
801.829983	3440.789146
802.150984	3405.324629
802.471940	3394.788617
802.792851	3394.057650
803.113717	3389.697052
803.434538	3394.511354
803.755314	3384.151783
804.076045	3371.372458
804.396731	3375.506204
804.717372	3381.177502
805.037967	3379.438304
805.358518	3393.931621
805.679024	3391.663102
805.999485	3409.281935
806.319901	3404.770102
806.640272	3415.356525
806.960598	3442.503138
807.280879	3441.620937
807.601115	3452.434212
807.921306	3438.873508
808.241453	3447.468675
808.561554	3448.577729
808.881611	3448.149231
809.201623	3447.493881
809.521590	3441.444496
809.841513	3436.554577
810.161390	3445.326185
810.481223	3409.508787
810.801011	3425.640479
811.120755	3429.824637
811.440453	3393.402300
811.760107	3394.360119
812.079716	3397.435223
812.399281	3377.598283
812.718801	3376.262377
813.038276	3373.237685
813.357707	3354.131712
813.677093	3377.220196
813.996434	3357.660519
814.315731	3377.875546
814.634983	3390.654871
814.954191	3389.268554
815.273354	3418.456835
815.592473	3447.871967
815.911547	3488.024758
816.230577	3505.794825
816.549562	3536.041748
816.868502	3551.089592
817.187399	3593.536108
817.506250	3647.098367
817.825058	3670.136440
818.143821	3760.171448
818.462539	3857.415306
818.781213	3969.631390
819.099843	4142.038852
819.418429	4424.192233
819.736970	4680.711346
820.055466	5022.904869
820.373919	5522.458010
820.692327	6389.158385
821.010691	7823.568300
821.329011	10224.165762
821.647286	12814.688694
821.965517	15014.471792
822.283704	15626.014165
822.601847	15712.469954
822.919945	14432.571404
823.237999	13149.068429
823.556010	11793.930658
823.873976	10517.208035
824.191897	9331.150563
824.509775	8505.283535
824.827609	7761.990606
825.145398	7414.755929
825.463144	7366.386058
825.780845	7717.804892
826.098502	8324.003642
826.416116	9090.309438
826.733685	9537.585813
827.051210	9288.653637
827.368692	8583.018127
827.686129	7718.309008
828.003522	6908.296408
828.320872	6220.254525
828.638177	5680.094890
828.955439	5250.916258
829.272656	4858.260785
829.589830	4579.056479
829.906960	4333.779138
830.224046	4141.938029
830.541088	4003.886031
830.858086	3922.521808
831.175041	3872.614385
831.491952	3896.106162
831.808819	3968.068633
832.125642	4161.220442
832.442421	4533.560065
832.759157	5131.617352
833.075849	5835.715310
833.392497	6345.905285
833.709101	6473.471683
834.025662	6157.542571
834.342179	5729.825873
834.658653	5262.284060
834.975083	4888.079210
835.291469	4576.082198
835.607811	4307.136640
835.924110	4087.014658
836.240366	3908.683840
836.556578	3719.867423
836.872746	3589.150304
837.188871	3484.874037
837.504952	3403.610637
837.820990	3333.362158
838.136984	3307.173363
838.452935	3303.921819
838.768842	3383.193963
839.084706	3615.666773
839.400526	3999.449815
839.716303	4291.433446
840.032037	4348.826983
840.347727	4149.877846
840.663373	3903.667892
840.978977	3686.696631
841.294537	3548.014488
841.610054	3409.584404
841.925527	3315.869354
842.240957	3232.513875
842.556344	3151.477327
842.871687	3088.084817
843.186987	3020.205681
843.502244	2973.247333
843.817458	2934.858946
844.132629	2916.005031
844.447756	2887.194837
844.762840	2852.637727
845.077881	2838.018381
845.392879	2831.490087
845.707833	2821.760660
846.022745	2811.023002
846.337613	2796.832154
846.652438	2799.277113
846.967221	2796.000363
847.281960	2782.716923
847.596656	2776.717950
847.911309	2771.550767
848.225919	2765.728235
848.540485	2762.149015
848.855009	2761.896958
849.169490	2745.790471
849.483928	2743.698392
849.798323	2741.959194
850.112675	2739.690675
850.426984	2746.244175
850.741251	2738.127917
851.055474	2736.842423
851.369654	2742.387692
851.683792	2739.715881
851.997887	2739.766292
852.311938	2739.010119
852.625947	2735.909810
852.939914	2727.743140
853.253837	2743.017837
853.567718	2735.481312
853.881555	2736.792012
854.195350	2742.236458
854.509103	2740.900552
854.822812	2736.993658
855.136479	2742.034812
855.450103	2736.388719
855.763685	2728.751371
856.077224	2733.842937
856.390720	2742.085223
856.704173	2751.386152
857.017584	2756.754981
857.330953	2749.067221
857.644278	2751.764238
857.957561	2756.981833
858.270802	2749.520925
858.584000	2755.923190
858.897155	2759.023500
859.210268	2751.663415
859.523339	2748.058990
859.836367	2733.237998
860.149352	2736.817217
860.462295	2745.891294
860.775195	2728.600137
861.088054	2730.818244
861.400869	2737.270921
861.713642	2733.565673
862.026373	2747.479258
862.339062	2742.664956
862.651708	2751.184506
862.964312	2758.796648
863.276873	2773.441200
863.589392	2787.304373
863.901869	2796.655713
864.214303	2794.437606
864.526696	2810.317240
864.839045	2822.768890
865.151353	2826.625373
865.463619	2828.919098
865.775842	2842.026098
866.088023	2838.295644
866.400162	2837.363031
866.712258	2835.321363
867.024313	2839.203052
867.336325	2842.252950
867.648296	2831.817762
867.960224	2835.447392
868.272110	2845.277642
868.583954	2850.545648
868.895755	2850.192767
869.207515	2853.998838
869.519233	2868.895448
869.830909	2874.491129
870.142542	2878.423229
870.454134	2882.506563
870.765684	2892.916546
871.077191	2899.747310
871.388657	2903.276117
871.700081	2916.005031
872.011463	2930.347113
872.322803	2941.261212
872.634101	2946.151131
872.945357	2960.241156
873.256571	2965.282310
873.567744	2975.188177
873.878874	2968.987558
874.189963	2983.858962
874.501010	2988.925321
874.812015	2994.722648
875.122979	3005.031808
875.433900	3006.821417
875.744780	3016.601256
876.055618	3021.465969
876.366415	3024.440250
876.677169	3040.672765
876.987882	3063.483987
877.298554	3082.917635
877.609183	3120.549848
877.919771	3167.760254
878.230317	3216.861092
878.540822	3313.701658
878.851285	3437.159515
879.161707	3617.607617
879.472087	3916.623658
879.782425	4377.485942
880.092722	5052.269590
880.402977	5799.393796
880.713191	6456.230937
881.023363	6963.925540
881.333494	7188.156063
881.643583	7326.132444
881.953631	7249.985815
882.263637	7051.717235
882.573602	6762.909531
882.883526	6469.010262
883.193408	6129.362521
883.503248	5761.811994
883.813048	5440.841729
884.122806	5122.870950
884.432522	4789.373417
884.742197	4533.938152
885.051831	4313.009585
885.361424	4088.804267
885.670975	3920.404523
885.980485	3773.832975
886.289954	3652.366373
886.599382	3535.915719
886.908768	3453.845735
887.218113	3359.626569
887.527417	3301.325625
887.836680	3236.319946
888.145901	3179.027233
888.455082	3146.083292
888.764221	3107.190790
889.073319	3074.423290
889.382376	3067.718556
889.691392	3043.848692
890.000366	3051.738098
890.309300	3041.454144
890.618193	3038.278217
890.927044	3033.539533
891.235855	3053.981412
891.544625	3065.324008
891.853353	3091.134715
892.162041	3135.345635
892.470687	3205.442879
892.779293	3289.730971
893.087858	3404.114752
893.396381	3599.837550
893.704864	3848.089171
894.013306	4131.880927
894.321707	4359.362994
894.630068	4451.439669
894.938387	4395.760125
895.246665	4303.355775
895.554903	4151.919513
895.863100	3995.013600
896.171256	3868.707490
896.479371	3760.574740
896.787446	3654.080365
897.095480	3543.023746
897.403473	3473.833910
897.711425	3391.738719
898.019336	3320.734067
898.327207	3245.923344
898.635038	3198.536498
898.942827	3144.570946
899.250576	3091.865683
899.558284	3053.351267
899.865952	3023.205167
900.173579	2993.361537
900.481165	2966.819862
900.788711	2948.948971
901.096216	2921.676329
901.403681	2922.029210
901.711105	2926.969540
902.018489	2932.237546
902.325832	2963.921198
902.633135	3049.822460
902.940397	3222.759242
903.247619	3531.630738
903.554800	3967.136019
903.861941	4356.842417
904.169041	4547.423238
904.476101	4520.150596
904.783121	4360.623283
905.090100	4190.005431
905.397039	4007.238398
905.703938	3843.451310
906.010796	3677.521731
906.317614	3546.653377
906.624391	3426.648710
906.931129	3322.876558
907.237826	3231.404821
907.544483	3133.429996
907.851099	3046.016388
908.157675	2962.257617
908.464211	2878.448435
908.770707	2836.632063
909.077163	2795.924746
909.383578	2757.057450
909.689954	2730.793038
909.996289	2722.853221
910.302584	2713.728733
910.608839	2704.906713
910.915054	2700.546115
911.221229	2694.345496
911.527363	2698.479242
911.833458	2709.216900
912.139513	2726.583675
912.445527	2736.539954
912.751502	2773.239554
913.057436	2793.631021
913.363331	2845.882581
913.669186	2928.658327
913.975000	3017.710310
914.280775	3155.384221
914.586510	3336.588496
914.892205	3578.160588
915.197859	3836.519723
915.503475	4098.936987
915.809050	4290.803302
916.114585	4362.513715
916.420081	4356.187067
916.725536	4308.044048
917.030952	4190.383517
917.336328	4104.583079
917.641665	3989.745594
917.946961	3883.175602
918.252218	3786.788740
918.557435	3661.440450
918.862612	3559.735171
919.167750	3471.036069
919.472848	3353.476362
919.777906	3266.768515
920.082925	3189.538038
920.387904	3099.351796
920.692843	3044.050338
920.997743	2990.336844
921.302603	2938.690223
921.607423	2903.124883
921.912204	2862.594006
922.216946	2834.514779
922.521647	2800.739048
922.826310	2770.567742
923.130932	2750.251892
923.435516	2727.717935
923.740059	2706.923175
924.044564	2688.598581
924.349028	2680.431912
924.653454	2650.689104
924.957840	2626.189096
925.262186	2633.070271
925.566493	2618.274485
925.870761	2594.001329
926.174989	2589.791965
926.479178	2586.036306
926.783328	2571.795046
927.087438	2551.832077
927.391509	2561.309446
927.695541	2536.733821
927.999533	2538.220962
928.303486	2534.465302
928.607400	2533.885569
928.911275	2520.955010
929.215110	2522.795031
929.518906	2509.914883
929.822663	2519.442663
930.126381	2518.585667
930.430060	2526.903571
930.733699	2510.847496
931.037299	2521.837212
931.340861	2520.854187
931.644383	2521.585154
931.947866	2522.921060
932.251309	2521.282685
932.554714	2521.257479
932.858080	2528.567152
933.161407	2518.131963
933.464694	2518.283198
933.767943	2513.317662
934.071153	2512.284225
934.374323	2508.503360
934.677455	2511.805315
934.980548	2508.200890
935.283602	2514.451921
935.586617	2498.471463
935.889593	2511.880933
936.192530	2516.165913
936.495428	2515.636592
936.798287	2515.460152
937.101108	2537.616023
937.403890	2558.410783
937.706632	2569.904613
938.009336	2591.959662
938.312002	2606.478185
938.614628	2616.585698
938.917216	2628.785290
939.219765	2633.876856
939.522275	2650.134577
939.824747	2635.036321
940.127179	2638.590335
940.429573	2642.093937
940.731929	2638.791981
941.034246	2631.331073
941.336524	2630.373254
941.638763	2628.054323
941.940964	2625.937038
942.243126	2605.999275
942.545250	2599.420569
942.847335	2586.011100
943.149381	2582.356263
943.451389	2582.129412
943.753359	2572.526013
944.055290	2571.064079
944.357182	2558.637635
944.659036	2551.832077
944.960851	2559.771894
945.262628	2554.957592
945.564367	2549.034237
945.866067	2549.437529
946.167729	2550.244113
946.469352	2545.631458
946.770937	2550.344937
947.072484	2546.160779
947.373992	2540.262629
947.675462	2540.691127
947.976893	2530.331556
948.278286	2528.340300
948.579641	2525.113962
948.880958	2529.071267
949.182236	2526.928777
949.483476	2517.350585
949.784678	2521.837212
950.085841	2536.103677
950.386967	2531.289375
950.688054	2533.935981
950.989103	2543.161292
951.290114	2549.891233
951.591087	2558.536812
951.892021	2559.040927
952.192917	2562.998233
952.493776	2568.014181
952.794596	2566.930333
953.095378	2568.543502
953.396122	2564.132492
953.696828	2564.636608
953.997496	2562.443706
954.298126	2552.058929
954.598718	2544.572815
954.899272	2540.565098
955.199788	2525.466842
955.500266	2517.703465
955.800706	2510.545027
956.101108	2507.822804
956.401472	2497.059940
956.701798	2479.189050
957.002087	2476.189563
957.302337	2461.847481
957.602550	2461.343365
957.902724	2455.798096
958.202861	2443.951385
958.502960	2452.823815
958.803022	2426.206523
959.103045	2441.884512
959.403031	2427.794487
959.702979	2425.299115
960.002889	2428.071750
960.302762	2423.055802
960.602596	2420.005904
960.902393	2415.897363
961.202153	2411.083062
961.501875	2415.922569
961.801559	2412.368556
962.101205	2410.125242
962.400814	2404.504356
962.700385	2402.210631
962.999918	2411.309913
963.299414	2398.984292
963.598873	2400.421021
963.898293	2402.135013
964.197677	2392.027500
964.497022	2395.026987
964.796331	2399.135527
965.095601	2389.406100
965.394835	2393.993550
965.694030	2394.951369
965.993189	2390.439537
966.292309	2397.673592
966.591393	2399.437996
966.890439	2394.900958
967.189447	2395.606719
967.488419	2400.824313
967.787353	2397.194683
968.086249	2388.649927
968.385108	2392.279558
968.683930	2391.573796
968.982714	2404.857237
969.281462	2401.681310
969.580172	2395.581513
969.878844	2406.621640
970.177480	2399.110321
970.476078	2406.999727
970.774639	2412.797054
971.073162	2400.597462
971.371649	2415.998187
971.670098	2407.705488
971.968510	2415.342837
972.266885	2406.344377
972.565223	2420.131933
972.863524	2414.410223
973.161788	2419.955492
973.460014	2409.243040
973.758204	2417.586150
974.056356	2415.443660
974.354471	2410.251271
974.652550	2408.512073
974.950591	2414.586663
975.248595	2414.586663
975.546563	2407.831517
975.844493	2408.890160
976.142386	2413.074317
976.440243	2410.730181
976.738062	2419.854669
977.035845	2406.621640
977.333590	2406.167937
977.631299	2412.318144
977.928971	2404.353121
978.226606	2411.032650
978.524204	2395.984806
978.821765	2404.958060
979.119290	2398.606206
979.416777	2405.865467
979.714228	2412.242527
980.011642	2414.511046
980.309020	2413.200346
980.606360	2424.971440
980.903664	2433.213727
981.200931	2445.867023
981.498162	2469.560446
981.795356	2485.188023
982.092513	2514.300687
982.389633	2527.382481
982.686717	2554.705535
982.983764	2566.577452
983.280775	2567.384037
983.577749	2556.923642
983.874686	2565.670044
984.171587	2545.102137
984.468451	2543.060469
984.765279	2516.619617
985.062070	2518.409227
985.358824	2497.185969
985.655543	2483.247179
985.952224	2462.956535
986.248869	2442.867537
986.545478	2422.702921
986.842050	2419.980698
987.138586	2402.487894
987.435086	2406.697258
987.731549	2395.405073
988.027975	2396.841802
988.324366	2387.339227
988.620719	2384.692621
988.917037	2381.743546
989.213318	2379.475027
989.509563	2385.675646
989.805772	2380.911756
990.101944	2376.299100
990.398080	2380.382435
990.694180	2381.642723
990.990244	2381.642723
991.286271	2376.853627
991.582262	2382.877806
991.878217	2384.617004
992.174136	2386.381408
992.470019	2385.826881
992.765865	2382.726571
993.061676	2388.801162
993.357450	2396.388098
993.653188	2392.380381
993.948890	2397.597975
994.244556	2397.144271
994.540186	2409.369069
994.835780	2419.249731
995.131337	2433.793460
995.426859	2447.757456
995.722345	2460.889662
996.017795	2461.872687
996.313208	2481.986890
996.608586	2473.694192
996.903928	2470.215796
997.199234	2482.541417
997.494504	2467.443162
997.789738	2472.736373
998.084936	2460.511575
998.380099	2458.873200
998.675225	2436.339242
998.970316	2436.061979
999.265371	2426.987902
999.560390	2430.793973
999.855373	2407.881929
1000.150320	2404.403533
1000.445232	2393.565052
1000.740108	2396.715773
1001.034948	2387.288815
1001.329752	2392.506410
1001.624521	2388.549104
1001.919254	2377.987887
1002.213951	2380.281612
1002.508613	2376.954450
1002.803239	2373.173585
1003.097829	2368.686958
1003.392384	2377.130890
1003.686903	2374.433873
1003.981386	2369.594365
1004.275834	2371.510004
1004.570246	2378.113915
1004.864623	2369.392719
1005.158964	2371.459592
1005.453270	2367.779550
1005.747540	2369.065044
1006.041775	2362.486338
1006.335974	2370.854654
1006.630138	2365.863912
1006.924266	2368.258460
1007.218359	2363.318129
1007.512416	2367.955990
1007.806438	2369.140662
1008.100425	2364.906092
1008.394376	2368.308871
1008.688292	2374.912783
1008.982172	2362.284692
1009.276017	2370.073275
1009.569827	2359.663292
1009.863602	2371.182329
1010.157341	2372.014119
1010.451045	2368.737369
1010.744714	2363.066071
1011.038347	2365.712677
1011.331945	2357.041892
1011.625508	2367.376258
1011.919036	2355.983250
1012.212528	2369.569160
1012.505986	2364.906092
1012.799408	2366.872142
1013.092795	2349.757425
1013.386147	2362.007429
1013.679464	2368.409694
1013.972745	2361.251256
1014.265992	2370.224510
1014.559204	2362.511544
1014.852380	2364.200331
1015.145521	2363.368540
1015.438628	2361.730165
1015.731699	2365.309385
1016.024736	2365.284179
1016.317737	2362.108252
1016.610703	2365.485825
1016.903635	2364.855681
1017.196531	2363.948273
1017.489393	2370.098481
1017.782219	2361.024404
1018.075011	2366.393233
1018.367768	2357.193127
1018.660490	2362.259487
1018.953177	2362.259487
1019.245829	2362.259487
