Dividing Wavelength (nm)	Counts (n)	Slit_number_5_of_a_total_of_40	
326.493990	1946.918821
326.888308	1946.918821
327.282561	1946.918821
327.676750	1921.713052
328.070874	1923.931160
328.464933	1934.719229
328.858929	1936.634867
329.252859	1951.481065
329.646726	1966.932202
330.040528	1985.357619
330.434265	2005.875115
330.827938	2029.215658
331.221547	2047.792310
331.615091	2058.126675
332.008571	2093.540781
332.401986	2112.621548
332.795338	2130.593262
333.188625	2151.388021
333.581847	2173.543892
333.975006	2183.500171
334.368100	2203.110260
334.761129	2212.612835
335.154095	2234.012533
335.546996	2261.562438
335.939833	2285.306273
336.332606	2297.505865
336.725315	2311.217804
337.117960	2319.586119
337.510540	2320.392704
337.903056	2330.953921
338.295508	2339.145796
338.687896	2346.833556
339.080220	2346.657115
339.472480	2358.428210
339.864676	2359.335617
340.256807	2358.125740
340.648875	2361.427696
341.040879	2370.602596
341.432818	2360.646317
341.824694	2374.509490
342.216506	2368.460106
342.608253	2371.031094
342.999937	2365.057327
343.391557	2372.971938
343.783113	2358.503827
344.174605	2358.629856
344.566033	2363.948273
344.957397	2355.000225
345.348697	2354.622138
345.739934	2355.579958
346.131106	2352.857735
346.522215	2356.260513
346.913260	2342.422546
347.304241	2346.883967
347.695159	2344.312979
348.086012	2347.438494
348.476802	2350.538804
348.867528	2348.093844
349.258191	2337.255363
349.648789	2337.658656
350.039324	2341.565550
350.429796	2336.751248
350.820203	2326.618529
351.210548	2338.238388
351.600828	2335.238902
351.991045	2335.793429
352.381198	2325.106183
352.771288	2346.682321
353.161314	2332.138592
353.551276	2339.523883
353.941175	2334.986844
354.331010	2339.952381
354.720782	2340.733760
355.110490	2341.187463
355.500135	2331.634477
355.889717	2337.305775
356.279235	2337.230158
356.668689	2332.516679
357.058080	2335.390137
357.447408	2339.801146
357.836672	2333.701350
358.225873	2336.852071
358.615010	2339.372648
359.004084	2343.531600
359.393095	2339.599500
359.782043	2342.674604
360.170927	2342.019254
360.559748	2340.355673
360.948505	2346.279029
361.337199	2341.918431
361.725830	2344.917917
362.114398	2343.733246
362.502903	2331.584065
362.891344	2339.599500
363.279722	2337.280569
363.668037	2341.162258
364.056289	2342.372135
364.444478	2345.346415
364.832603	2341.187463
365.220665	2345.926148
365.608665	2338.087154
365.996601	2346.606704
366.384474	2353.185410
366.772284	2347.161231
367.160031	2347.186437
367.547715	2346.959585
367.935336	2351.068125
368.322893	2349.959071
368.710388	2347.614935
369.097820	2352.555265
369.485189	2346.077383
369.872495	2346.858762
370.259738	2354.848990
370.646918	2351.925121
371.034035	2350.639627
371.421090	2355.252283
371.808081	2347.514112
372.195010	2358.302181
372.581875	2350.538804
372.968678	2355.832015
373.355418	2356.361337
373.742096	2356.815040
374.128710	2343.380365
374.515262	2351.824298
374.901751	2351.042919
375.288177	2351.093331
375.674540	2349.354133
376.060841	2357.016687
376.447079	2356.462160
376.833254	2350.992508
377.219367	2351.395800
377.605417	2345.875737
377.991404	2355.529546
378.377329	2351.042919
378.763191	2356.512571
379.148991	2349.429750
379.534727	2356.890658
379.920402	2342.523369
380.306013	2354.244052
380.691563	2349.530573
381.077049	2353.134998
381.462474	2359.713704
381.847835	2355.151460
382.233134	2357.268744
382.618371	2363.948273
383.003545	2355.479135
383.388657	2357.873683
383.773706	2353.664319
384.158693	2353.008969
384.543618	2346.178206
384.928480	2356.260513
385.313280	2356.008456
385.698017	2354.697756
386.082692	2357.394773
386.467305	2362.032635
386.851856	2363.343335
387.236344	2359.713704
387.620770	2354.975019
388.005133	2353.513085
388.389435	2361.301667
388.773674	2363.469363
389.157851	2359.461646
389.541965	2368.258460
389.926018	2363.368540
390.310008	2358.730679
390.693936	2361.125227
391.077802	2362.183869
391.461606	2360.142202
391.845348	2351.446212
392.229027	2368.082019
392.612645	2369.846423
392.996200	2365.107738
393.379694	2361.654548
393.763125	2360.343848
394.146494	2353.513085
394.529801	2367.199817
394.913047	2362.259487
395.296230	2359.890144
395.679351	2359.915350
396.062410	2361.427696
396.445408	2361.830988
396.828343	2368.964221
397.211217	2356.966275
397.594028	2361.478108
397.976778	2355.378312
398.359466	2350.639627
398.742092	2366.746113
399.124656	2370.375744
399.507158	2365.082533
399.889598	2358.050123
400.271977	2365.813500
400.654294	2369.896835
401.036549	2366.141175
401.418742	2357.596419
401.800874	2370.728625
402.182944	2368.157637
402.564952	2363.948273
402.946898	2361.074815
403.328783	2363.746627
403.710606	2371.484798
404.092367	2370.274921
404.474067	2377.987887
404.855705	2363.822244
405.237282	2364.578417
405.618797	2362.814013
406.000250	2362.990454
406.381642	2368.107225
406.762972	2365.989940
407.144240	2368.258460
407.525447	2371.131917
407.906593	2364.679240
408.287677	2362.914837
408.668700	2370.174098
409.049661	2366.846937
409.430560	2360.394260
409.811399	2365.863912
410.192176	2362.007429
410.572891	2373.022350
410.953545	2371.963708
411.334138	2363.771833
411.714669	2368.460106
412.095139	2368.964221
412.475547	2371.031094
412.855894	2379.348998
413.236180	2373.022350
413.616405	2375.240458
413.996568	2372.669469
414.376670	2369.569160
414.756711	2370.400950
415.136691	2368.233254
415.516609	2373.954963
415.896466	2372.266177
416.276262	2372.820704
416.655997	2367.829962
417.035670	2370.400950
417.415283	2376.904038
417.794834	2370.854654
418.174324	2371.383975
418.553753	2363.998685
418.933121	2373.803729
419.312428	2377.660212
419.691674	2371.257946
420.070859	2377.231713
420.449983	2376.576363
420.829045	2371.056300
421.208047	2372.467823
421.586988	2368.560929
421.965867	2368.913810
422.344686	2365.788294
422.723444	2364.578417
423.102141	2374.585108
423.480777	2376.248688
423.859352	2374.383462
424.237866	2376.752804
424.616319	2368.888604
424.994712	2376.525952
425.373044	2383.155069
425.751314	2374.988400
426.129524	2370.955477
426.507673	2375.013606
426.885762	2375.139635
427.263789	2375.416898
427.641756	2367.199817
428.019662	2367.477081
428.397508	2374.937988
428.775292	2371.182329
429.153016	2381.390665
429.530679	2380.760521
429.908282	2374.282638
430.285824	2375.618544
430.663305	2374.963194
431.040726	2378.466796
431.418086	2369.317102
431.795385	2368.056813
432.172624	2376.778010
432.549802	2378.517208
432.926920	2379.575850
433.303977	2378.088710
433.680974	2373.778523
434.057910	2376.450335
434.434786	2381.768752
434.811601	2379.953937
435.188355	2373.828935
435.565050	2376.727598
435.941683	2383.558362
436.318257	2377.508977
436.694770	2371.283152
437.071222	2378.416385
437.447614	2371.207535
437.823946	2377.584594
438.200218	2381.163813
438.576429	2378.945706
438.952580	2372.165354
439.328670	2377.559388
439.704700	2376.954450
440.080670	2378.365973
440.456580	2373.249202
440.832429	2381.315048
441.208218	2376.173071
441.583947	2385.726058
441.959616	2386.734288
442.335224	2372.114942
442.710773	2383.407127
443.086261	2378.844883
443.461689	2370.955477
443.837057	2377.559388
444.212365	2385.347971
444.587612	2378.265150
444.962800	2384.717827
445.337927	2376.399923
445.712995	2383.054246
446.088002	2380.130377
446.462949	2377.534183
446.837837	2376.626775
447.212664	2378.945706
447.587431	2389.229660
447.962139	2384.390152
448.336786	2380.382435
448.711374	2380.760521
449.085901	2380.205994
449.460369	2385.801675
449.834776	2377.635006
450.209124	2377.483771
450.583412	2379.651467
450.957640	2380.735315
451.331808	2379.147352
451.705917	2380.231200
452.079965	2381.995604
452.453954	2382.550131
452.827883	2386.835112
453.201752	2375.946219
453.575562	2387.263610
453.949311	2384.264123
454.323001	2374.131404
454.696632	2387.263610
455.070202	2381.315048
455.443713	2382.776983
455.817164	2383.911242
456.190556	2376.803215
456.563888	2385.852087
456.937160	2381.844369
457.310373	2385.020296
457.683526	2381.617517
458.056619	2385.221942
458.429653	2383.356715
458.802628	2379.626262
459.175542	2381.365460
459.548398	2382.449308
459.921194	2385.499206
460.293930	2380.130377
460.666607	2382.676160
461.039224	2388.901985
461.411782	2395.606719
461.784280	2385.499206
462.156719	2383.457538
462.529099	2385.070708
462.901419	2386.784700
463.273680	2392.506410
463.645882	2382.373690
464.018024	2393.615463
464.390106	2394.825340
464.762130	2393.993550
465.134094	2384.062477
465.505999	2391.220915
465.877845	2387.389638
466.249631	2396.564538
466.621358	2391.422562
466.993026	2394.623694
467.364634	2391.699825
467.736184	2388.750750
468.107674	2389.935421
468.479105	2388.019783
468.850477	2383.482744
469.221790	2388.473487
469.593043	2389.809392
469.964238	2394.749723
470.335373	2391.977088
470.706449	2389.355688
471.077467	2389.179248
471.448425	2391.548590
471.819324	2389.985833
472.190164	2388.221429
472.560945	2393.136554
472.931667	2390.439537
473.302330	2389.229660
473.672934	2393.060937
474.043479	2384.919473
474.413965	2387.036758
474.784393	2382.096427
475.154761	2384.390152
475.525070	2383.936448
475.895321	2390.968858
476.265513	2389.658158
476.635645	2380.886550
477.005719	2398.202913
477.375734	2394.648900
477.745691	2394.169990
478.115588	2400.723490
478.485427	2400.622667
478.855207	2391.220915
479.224928	2391.044475
479.594591	2396.488921
479.964194	2389.431306
480.333739	2394.245608
480.703226	2391.951883
481.072653	2404.579973
481.442022	2392.834085
481.811333	2392.556821
482.180584	2394.522871
482.549777	2395.631925
482.918912	2394.926163
483.287988	2405.865467
483.657005	2394.069167
484.025964	2391.573796
484.394864	2396.388098
484.763706	2399.866494
485.132489	2393.968344
485.501213	2406.546023
485.869879	2398.354148
486.238487	2392.934908
486.607036	2393.363406
486.975527	2400.622667
487.343959	2402.815569
487.712333	2397.320712
488.080648	2393.968344
488.448905	2389.330483
488.817104	2399.034704
489.185244	2406.218348
489.553326	2387.843342
489.921350	2395.606719
490.289315	2401.630898
490.657222	2396.337687
491.025070	2412.897877
491.392861	2401.605692
491.760593	2407.150962
492.128267	2398.051679
492.495883	2401.807338
492.863440	2398.530588
493.230939	2393.716287
493.598380	2406.268760
493.965763	2399.387585
494.333088	2394.573283
494.700354	2390.792417
495.067563	2398.177708
495.434713	2394.598488
495.801805	2401.378840
496.168839	2402.160219
496.535815	2403.042421
496.902733	2398.732235
497.269593	2400.395815
497.636395	2400.471433
498.003139	2402.311454
498.369825	2395.405073
498.736453	2406.974521
499.103023	2397.774415
499.469535	2404.151475
499.835989	2402.387071
500.202385	2399.967317
500.568723	2407.453431
500.935003	2401.404046
501.301226	2398.782646
501.667390	2409.091806
502.033497	2409.570715
502.399546	2407.251785
502.765537	2421.719896
503.131470	2413.452404
503.497345	2412.620613
503.863163	2414.662281
504.228923	2408.058369
504.594625	2415.695717
504.960269	2410.251271
505.325856	2416.729154
505.691385	2413.704462
506.056856	2423.333065
506.422270	2422.173600
506.787625	2422.072777
507.152924	2420.963723
507.518164	2429.407656
507.883347	2423.635535
508.248472	2426.382963
508.613540	2423.459094
508.978550	2434.549633
509.343503	2429.155598
509.708398	2436.162802
510.073236	2427.769281
510.438016	2440.926692
510.802738	2430.063006
511.167403	2429.836154
511.532010	2435.759510
511.896561	2446.522373
512.261053	2441.582042
512.625488	2446.724019
512.989866	2443.875767
513.354186	2444.808381
513.718449	2438.885025
514.082655	2446.850048
514.446803	2448.841304
514.810894	2453.680812
515.174927	2457.159208
515.538904	2449.572271
515.902822	2463.259004
516.266684	2455.621656
516.630488	2464.821762
516.994235	2462.326390
517.357925	2457.663323
517.721558	2456.403035
518.085133	2458.999229
518.448651	2467.972483
518.812112	2467.745631
519.175516	2470.165385
519.538863	2471.198821
519.902152	2461.771863
520.265385	2471.123204
520.628560	2475.433390
520.991678	2469.585652
521.354739	2467.241515
521.717743	2482.491006
522.080690	2473.895838
522.443580	2479.491519
522.806413	2473.668987
523.169189	2479.920017
523.531908	2474.525983
523.894569	2482.919504
524.257174	2481.986890
524.619722	2479.012610
524.982213	2483.146356
525.344647	2489.851090
525.707025	2485.036788
526.069345	2486.801192
526.431608	2477.550675
526.793815	2488.464773
527.155964	2495.295537
527.518057	2486.196254
527.880093	2484.305821
528.242072	2491.338231
528.603995	2497.589262
528.965860	2493.455515
529.327669	2490.481235
529.689421	2492.144815
530.051117	2494.741010
530.412755	2487.154073
530.774337	2500.311485
531.135862	2493.077429
531.497331	2496.253356
531.858743	2495.446771
532.220098	2501.168481
532.581396	2490.632469
532.942638	2491.615494
533.303824	2499.605723
533.664953	2500.739983
534.026025	2499.630929
534.387040	2503.840292
534.747999	2503.840292
535.108902	2508.906652
535.469748	2507.091837
535.830537	2509.914883
536.191270	2508.251302
536.551947	2504.293996
536.912567	2502.958090
537.273131	2500.563542
537.633638	2509.889677
537.994089	2503.966321
538.354483	2508.730212
538.714821	2505.201404
539.075103	2509.335150
539.435328	2511.477640
539.795497	2513.292456
540.155609	2516.468383
540.515665	2513.594925
540.875665	2516.443177
541.235609	2523.752850
541.595496	2505.831548
541.955328	2518.005935
542.315102	2512.611900
542.674821	2523.576410
543.034483	2513.317662
543.394090	2518.736902
543.753640	2519.896367
544.113134	2515.283712
544.472571	2529.575383
544.831953	2522.643796
545.191278	2524.635052
545.550548	2513.872188
545.909761	2527.029600
546.268918	2519.770338
546.628019	2521.736388
546.987064	2525.290402
547.346053	2525.996163
547.704986	2522.366533
548.063863	2529.575383
548.422684	2524.458612
548.781449	2518.333610
549.140158	2522.618590
549.498811	2523.702438
549.857408	2521.585154
550.215949	2526.928777
550.574434	2521.887623
550.932864	2527.180835
551.291237	2529.524971
551.649555	2528.441123
552.007817	2534.944212
552.366022	2519.064577
552.724173	2525.239990
553.082267	2528.063037
553.440305	2536.582587
553.798288	2521.383508
554.156215	2534.717360
554.514086	2544.976108
554.871902	2520.702952
555.229661	2525.542460
555.587365	2538.599048
555.945014	2543.867054
556.302606	2533.457071
556.660143	2537.868081
557.017625	2541.195242
557.375050	2536.759027
557.732421	2535.322298
558.089735	2535.574356
558.446994	2535.952442
558.804197	2548.000800
559.161345	2547.874771
559.518437	2537.464788
559.875474	2544.270346
560.232455	2548.580533
560.589381	2546.715306
560.946251	2549.588763
561.303065	2553.420040
561.659825	2549.639175
562.016528	2554.856769
562.373177	2553.924156
562.729770	2558.511606
563.086307	2562.368088
563.442789	2558.814075
563.799216	2566.627863
564.155587	2568.719942
564.511904	2562.342883
564.868164	2569.677762
565.224370	2571.064079
565.580520	2574.996179
565.936615	2578.172106
566.292654	2584.549165
566.648638	2577.567167
567.004567	2585.002869
567.360441	2588.934969
567.716260	2585.557396
568.072023	2593.572831
568.427732	2600.050713
568.783385	2594.051740
569.138982	2607.486415
569.494525	2605.974069
569.850013	2613.157713
570.205445	2617.165431
570.560823	2629.314612
570.916145	2633.045065
571.271412	2635.414408
571.626625	2632.137658
571.981782	2649.983342
572.336884	2650.336223
572.691931	2666.846002
573.046923	2656.057933
573.401860	2670.601662
573.756743	2680.356294
574.111570	2689.279137
574.466342	2693.690146
574.821059	2695.177287
575.175722	2705.688092
575.530330	2712.972560
575.884882	2719.652088
576.239380	2730.667010
576.593823	2734.800756
576.948211	2739.867115
577.302544	2751.839856
577.656823	2762.602719
578.011047	2771.676796
578.365216	2784.783796
578.719330	2788.589867
579.073389	2803.990592
579.427394	2816.694300
579.781344	2823.197388
580.135239	2830.305415
580.489080	2852.108406
580.842866	2856.796679
581.196597	2883.439177
581.550273	2901.536919
581.903895	2912.022519
582.257463	2935.816765
582.610975	2940.101746
582.964434	2964.828606
583.317837	2975.062148
583.671186	2998.251456
584.024481	3011.358456
584.377721	3029.683050
584.730906	3046.520504
585.084037	3063.761250
585.437113	3074.524113
585.790135	3096.327104
586.143103	3123.221660
586.496016	3132.951087
586.848874	3160.148112
587.201679	3195.083308
587.554428	3191.075590
587.907124	3229.463977
588.259765	3254.493306
588.612352	3283.731998
588.964884	3299.132723
589.317362	3333.589010
589.669786	3354.408975
590.022155	3383.219169
590.374470	3414.272677
590.726731	3435.369906
591.078937	3439.654887
591.431090	3466.927529
591.783188	3490.999038
592.135232	3508.819517
592.487222	3546.476937
592.839157	3569.313363
593.191038	3606.668313
593.542866	3616.372535
593.894639	3635.957417
594.246358	3674.749096
594.598022	3707.163715
594.949633	3730.983167
595.301190	3748.904469
595.652692	3774.715177
596.004141	3819.405006
596.355535	3818.220335
596.706876	3851.290304
597.058162	3864.598950
597.409395	3926.504319
597.760573	3955.995069
598.111698	3963.834063
598.462768	4009.985827
598.813785	4048.424625
599.164748	4078.822783
599.515657	4117.236375
599.866511	4135.560969
600.217312	4193.181358
600.568060	4178.990510
600.918753	4247.424173
601.269392	4303.406187
601.619978	4315.026046
601.970510	4365.765260
602.320988	4417.411881
602.671412	4458.396462
603.021783	4491.970546
603.372100	4518.789485
603.722363	4552.766862
604.072572	4611.395481
604.422728	4650.161954
604.772830	4675.040048
605.122878	4731.072473
605.472872	4777.047796
605.822813	4839.079194
606.172701	4863.906877
606.522534	4928.206794
606.872314	4976.425431
607.222041	5017.737687
607.571714	5082.718160
607.921333	5102.529894
608.270899	5169.904915
608.620411	5236.296912
608.969870	5277.962048
609.319276	5329.129760
609.668627	5375.760433
610.017926	5464.131860
610.367171	5537.909146
610.716362	5597.621613
611.065500	5644.025435
611.414585	5724.331015
611.763616	5786.589265
612.112594	5824.297096
612.461518	5902.561010
612.810389	5982.135623
613.159207	6036.025558
613.507971	6105.895950
613.856682	6204.803388
614.205340	6240.671198
614.553945	6374.110540
614.902496	6374.715479
615.250994	6482.167673
615.599439	6544.299894
615.947830	6618.808148
616.296169	6700.071548
616.644454	6779.343692
616.992686	6850.751637
617.340864	6977.990360
617.688990	7007.203846
618.037063	7132.955429
618.385082	7195.037238
618.733048	7292.003833
619.080961	7358.118565
619.428821	7412.789879
619.776628	7470.788354
620.124382	7514.722010
620.472083	7565.461223
620.819731	7627.517827
621.167326	7632.080071
621.514868	7685.843977
621.862357	7671.401071
622.209793	7734.163437
622.557176	7724.635656
622.904506	7742.229283
623.251783	7730.256542
623.599007	7753.496262
623.946179	7786.188144
624.293297	7806.806463
624.640363	7782.281250
624.987376	7827.651635
625.334336	7833.096081
625.681243	7826.492169
626.028097	7871.333233
626.374899	7903.546206
626.721647	7944.026671
627.068343	7989.195410
627.414987	8006.436156
627.761577	8036.985548
628.108115	8124.651213
628.454600	8087.976819
628.801032	8154.822519
629.147412	8217.534473
629.493739	8252.545287
629.840014	8256.452181
630.186236	8351.503137
630.532405	8341.143565
630.878521	8421.323117
631.224585	8456.157490
631.570597	8460.568500
631.916556	8517.457921
632.262462	8545.814412
632.608316	8620.751163
632.954117	8636.731621
633.299866	8683.337088
633.645562	8693.142133
633.991206	8670.860233
634.336797	8612.634906
634.682336	8653.543869
635.027823	8661.206423
635.373257	8672.952312
635.718639	8657.728027
636.063968	8694.704890
636.409245	8617.877706
636.754470	8667.936363
637.099642	8645.805698
637.444762	8601.216692
637.789829	8688.655506
638.134845	8660.172987
638.479808	8697.880817
638.824719	8687.370012
639.169577	8677.993465
639.514383	8738.739369
639.859137	8717.339671
640.203839	8800.619533
640.548489	8754.114888
640.893086	8813.802150
641.237632	8797.418400
641.582125	8857.256896
641.926566	8895.947752
642.270955	8906.887056
642.615292	8976.807860
642.959576	8987.243048
643.303809	9049.324858
643.647990	9120.077452
643.992118	9124.362433
644.336195	9180.117594
644.680219	9233.730265
645.024192	9324.445829
645.368112	9495.366150
645.711981	9558.279750
646.055797	9780.922310
646.399562	9796.650710
646.743274	10034.542760
647.086935	10177.459471
647.430544	10173.476960
647.774101	10233.315456
648.117606	10313.041304
648.461059	10420.997613
648.804460	10354.252737
649.147810	10250.329350
649.491108	10223.737263
649.834354	10189.205360
650.177548	10050.170337
650.520690	9969.789138
650.863781	10008.026290
651.206820	10039.155415
651.549807	9976.241815
651.892742	9902.565352
652.235626	9901.708356
652.578458	9915.243854
652.921238	9824.074587
653.263967	9936.668758
653.606644	9893.566892
653.949269	9944.306106
654.291843	9874.183656
654.634365	9998.725362
654.976836	9942.466085
655.319255	10002.607050
655.661622	10018.360656
656.003938	9991.163631
656.346203	9987.029885
656.688416	10083.971273
657.030577	10076.107073
657.372687	10083.416746
657.714746	10169.645683
658.056753	10252.219783
658.398708	10158.277881
658.740612	10179.879225
659.082465	10296.758377
659.424266	10298.421958
659.766016	10341.952321
660.107715	10353.874650
660.449362	10422.182285
660.790958	10450.437952
661.132503	10495.682308
661.473996	10552.596935
661.815438	10601.622156
662.156829	10701.966323
662.498168	10676.785760
662.839456	10713.939063
663.180693	10806.998763
663.521879	10873.920081
663.863013	10898.268854
664.204097	10920.475137
664.545129	11077.784342
664.886110	11133.539504
665.227040	11172.230360
665.567918	11225.414533
665.908746	11281.043665
666.249522	11370.272088
666.590248	11406.845660
666.930922	11446.796804
667.271545	11479.009777
667.612118	11527.959381
667.952639	11491.058135
668.293109	11563.801985
668.633528	11576.757750
668.973896	11589.511869
669.314213	11631.151800
669.654480	11618.800973
669.994695	11642.065898
670.334859	11649.552012
670.674973	11656.786067
671.015035	11736.385887
671.355047	11777.269644
671.695008	11801.038685
672.034918	11789.847323
672.374777	11846.812362
672.714585	11820.598362
673.054342	11933.696648
673.394049	11895.509908
673.733705	12013.397290
674.073310	11930.495515
674.412864	11990.989362
674.752368	11905.491392
675.091820	12020.505317
675.431223	11929.235227
675.770574	11888.805173
676.109875	11869.699200
676.449125	11821.909062
676.788324	11834.814415
677.127473	11699.963550
677.466571	11704.929087
677.805619	11631.655915
678.144616	11686.629698
678.483562	11690.032477
678.822458	11622.909513
679.161303	11626.539144
679.500098	11637.428037
679.838842	11649.325160
680.177535	11779.059254
680.516179	11880.714121
680.854771	12050.172508
681.193314	12420.722521
681.531805	12828.350221
681.870247	13037.532900
682.208638	13213.141494
682.546978	13292.590079
682.885268	13321.652331
683.223508	13143.094662
683.561697	13089.582813
683.899836	13082.147112
684.237925	12912.663519
684.575963	12903.438208
684.913951	12789.936629
685.251889	12911.302408
685.589776	12909.865679
685.927614	12970.661994
686.265401	13040.481975
686.603137	13105.134773
686.940824	13319.308194
687.278460	13450.806692
687.616046	13501.848375
687.953582	13726.053692
688.291068	13648.999656
688.628504	13754.460594
688.965889	13733.413777
689.303224	13633.145227
689.640510	13524.357127
689.977745	13307.234631
690.314930	13047.161504
690.652065	12904.370821
690.989150	12657.026608
691.326185	12400.028585
691.663170	12187.695185
692.000105	11974.378760
692.336990	11766.582398
692.673825	11648.947073
693.010610	11484.176960
693.347345	11351.821465
693.684030	11126.607917
694.020665	11058.552340
694.357251	10836.968423
694.693786	10879.893848
695.030272	10795.908225
695.366707	10622.038829
695.703093	10560.385517
696.039429	10581.936450
696.375716	10514.082519
696.711952	10527.214725
697.048139	10480.382406
697.384276	10420.417881
697.720363	10458.629827
698.056400	10424.223952
698.392388	10351.102015
698.728326	10344.498104
699.064214	10273.997567
699.400053	10273.190983
699.735842	10149.077775
700.071581	10089.163662
700.407270	10027.510350
700.742910	9949.347260
701.078501	9873.225837
701.414042	9793.651223
701.749533	9704.926915
702.084974	9581.317823
702.420366	9669.739662
702.755709	9537.333756
703.091002	9428.822919
703.426246	9465.094021
703.761440	9442.610475
704.096584	9368.581131
704.431679	9350.105302
704.766725	9344.434004
705.101721	9340.577521
705.436668	9384.309531
705.771565	9265.388712
706.106413	9416.421681
706.441212	9429.780738
706.775961	9496.046706
707.110661	9536.880052
707.445311	9691.441829
707.779913	9649.953133
708.114465	9754.783927
708.448967	9864.353406
708.783421	10146.784050
709.117825	10273.190983
709.452180	10349.766110
709.786485	10521.543427
710.120742	10816.123252
710.454949	10833.994142
710.789107	10994.126394
711.123216	11256.442835
711.457275	11262.038515
711.791286	11443.419231
712.125247	11470.112140
712.459159	11310.206740
712.793023	11603.400248
713.126837	11165.500419
713.460602	11265.441294
713.794318	11161.265850
714.127985	11029.515294
714.461602	10684.700371
714.795171	10698.815602
715.128691	10319.342746
715.462162	10117.469740
715.795584	10017.276808
716.128957	9913.000540
716.462281	9782.182598
716.795556	9719.344615
717.128782	9531.712869
717.461960	9309.599631
717.795088	9287.040467
718.128167	9138.981779
718.461198	8976.656625
718.794180	8918.506915
719.127113	8786.101010
719.459997	8721.775887
719.792833	8571.146210
720.125619	8590.756298
720.458357	8461.349879
720.791046	8390.597285
721.123686	8346.663629
721.456278	8244.378617
721.788821	8242.740242
722.121315	8137.909448
722.453761	8176.222217
722.786158	8125.382181
723.118506	8163.115217
723.450805	8109.527752
723.783056	8191.270062
724.115259	8142.723750
724.447412	8126.213971
724.779518	8219.374494
725.111574	8246.042198
725.443582	8328.767533
725.775542	8336.127617
726.107453	8530.363275
726.439315	8505.787650
726.771129	8660.097369
727.102895	8802.131879
727.434612	8875.405050
727.766281	8912.558354
728.097901	8985.176175
728.429473	8994.376281
728.760996	9000.576900
729.092471	9040.351604
729.423897	9031.025469
729.755276	9018.321762
730.086606	9073.421573
730.417887	9329.865069
730.749120	9530.351758
731.080305	9581.519469
731.411442	9696.987098
731.742530	9751.456765
732.073570	9798.616760
732.404562	9885.677487
732.735506	9736.635773
733.066401	9554.498885
733.397249	9326.739554
733.728048	9076.471471
734.058798	8771.179194
734.389501	8506.342177
734.720156	8335.447062
735.050762	8140.203173
735.381320	8000.462388
735.711831	7912.141373
736.042293	7801.740104
736.372707	7780.088348
736.703073	7710.545631
737.033391	7805.067265
737.363661	7793.170142
737.693883	7845.144438
738.024056	7931.146523
738.354182	7999.605392
738.684260	8116.282898
739.014290	8202.158954
739.344272	8263.988706
739.674207	8364.836988
740.004093	8393.369919
740.333931	8389.160556
740.663722	8396.419817
740.993464	8381.750060
741.323159	8310.871437
741.652806	8177.608535
741.982405	8088.959844
742.311956	7956.579144
742.641460	7909.772031
742.970915	7758.739062
743.300323	7625.703012
743.629683	7558.479225
743.958996	7428.140192
744.288260	7309.975546
744.617477	7197.431787
744.946647	7168.369535
745.275768	7065.479585
745.604842	6992.937381
745.933869	6918.051040
746.262847	6902.902373
746.591778	6888.761937
746.920662	6834.872002
747.249498	6870.840635
747.578286	6920.496000
747.907027	6971.083979
748.235720	7039.391613
748.564365	7041.584515
748.892963	6995.130283
749.221514	7003.120512
749.550017	6925.083450
749.878473	6929.519665
750.206881	6832.452248
750.535242	6789.098325
750.863555	6754.314363
751.191821	6711.388938
751.520039	6734.729481
751.848210	6695.610127
752.176334	6703.121446
752.504411	6648.324104
752.832440	6582.663075
753.160421	6603.029337
753.488356	6550.475308
753.816243	6518.640421
754.144082	6433.016423
754.471875	6414.666623
754.799620	6399.265898
755.127318	6382.201592
755.454969	6366.447987
755.782572	6352.156315
756.110129	6357.852819
756.437638	6323.194887
756.765100	6315.053423
757.092515	6324.404763
757.419882	6331.109498
757.747203	6323.295710
758.074477	6356.012798
758.401703	6350.467529
758.728882	6417.111583
759.056014	6446.098217
759.383099	6494.669735
759.710138	6525.269538
760.037129	6542.031375
760.364073	6540.771087
760.690970	6557.331277
761.017820	6567.917700
761.344623	6676.176479
761.671379	6912.984681
761.998088	7385.945735
762.324751	8367.508800
762.651366	9727.435667
762.977935	11015.500887
763.304456	11389.529296
763.630931	11191.008658
763.957359	10568.879862
764.283740	9745.533410
764.610074	8984.495619
764.936362	8186.304525
765.262602	7594.195800
765.588796	7047.533077
765.914943	6672.874523
766.241044	6355.281831
766.567097	6120.994206
766.893104	5907.501340
767.219064	5765.970946
767.544978	5608.208037
767.870845	5495.361808
768.196665	5403.335544
768.522438	5322.298996
768.848165	5258.276342
769.173846	5185.532492
769.499479	5139.985667
769.825066	5076.668775
770.150607	4994.145087
770.476101	4953.740238
770.801548	4934.861117
771.126949	4856.723233
771.452303	4824.812729
771.777611	4744.028238
772.102872	4725.350763
772.428087	4699.086352
772.753256	4643.507631
773.078378	4605.623360
773.403453	4530.384138
773.728482	4491.642871
774.053465	4455.044094
774.378401	4442.819296
774.703291	4401.885127
775.028135	4355.178837
775.352932	4333.048171
775.677683	4296.852687
776.002388	4257.808950
776.327046	4252.591356
776.651658	4223.453487
776.976224	4190.030637
777.300743	4197.693190
777.625216	4171.075898
777.949643	4140.904592
778.274024	4146.147392
778.598359	4111.993575
778.922647	4116.026498
779.246889	4106.070219
779.571086	4091.753342
779.895236	4122.403558
780.219339	4114.085654
780.543397	4112.195221
780.867409	4119.504894
781.191374	4107.532154
781.515294	4092.257458
781.839167	4120.462713
782.162995	4106.775981
782.486776	4083.611879
782.810511	4073.176690
783.134201	4032.040875
783.457844	4023.445708
783.781441	4008.423069
784.104993	3995.139629
784.428498	3975.756392
784.751958	3979.789315
785.075372	3973.765137
785.398739	3952.491467
785.722061	3969.606185
786.045337	3976.033656
786.368568	4038.518758
786.691752	4068.942121
787.014891	4195.676729
787.337983	4331.308973
787.661030	4521.385679
787.984031	4651.346625
788.306987	4706.017938
788.629897	4697.574006
788.952760	4628.333758
789.275579	4569.805962
789.598351	4444.054379
789.921078	4332.569262
790.243759	4221.941140
790.566395	4145.618071
790.888984	4073.126279
791.211529	4021.429246
791.534027	3968.345896
791.856480	3913.246085
792.178888	3889.300604
792.501249	3863.414279
792.823566	3817.262515
793.145836	3822.706962
793.468062	3807.558294
793.790241	3798.534629
794.112375	3819.581446
794.434464	3868.178169
794.756507	3893.182292
795.078505	3954.533135
795.400457	4052.432342
795.722364	4133.695742
796.044226	4194.618087
796.366042	4253.523969
796.687812	4204.725600
797.009538	4212.942681
797.331218	4160.287829
797.652852	4141.963235
797.974442	4081.847475
798.295986	4060.019279
798.617484	4011.271321
798.938938	3965.043940
799.260346	3937.746092
799.581709	3888.166344
799.903026	3850.887012
800.224299	3832.688446
800.545526	3777.185342
800.866708	3755.130294
801.187845	3726.017631
801.508936	3707.491390
801.829983	3689.897763
802.150984	3645.207935
802.471940	3632.403404
802.792851	3630.185296
803.113717	3620.329840
803.434538	3608.659569
803.755314	3592.779935
804.076045	3594.519133
804.396731	3577.227975
804.717372	3587.385900
805.037967	3577.580856
805.358518	3602.206892
805.679024	3612.263994
805.999485	3621.564923
806.319901	3628.294863
806.640272	3616.120477
806.960598	3642.057213
807.280879	3641.175012
807.601115	3660.659071
807.921306	3629.353506
808.241453	3642.586535
808.561554	3635.957417
808.881611	3624.589615
809.201623	3621.816981
809.521590	3607.323663
809.841513	3598.299998
810.161390	3604.500617
810.481223	3572.363262
810.801011	3559.911612
811.120755	3549.980538
811.440453	3531.908002
811.760107	3522.455838
812.079716	3504.862212
812.399281	3485.428563
812.718801	3488.201198
813.038276	3470.355513
813.357707	3472.019094
813.677093	3473.279383
813.996434	3450.695013
814.315731	3451.501598
814.634983	3460.525263
814.954191	3467.204792
815.273354	3500.728465
815.592473	3531.076212
815.911547	3542.343190
816.230577	3582.193512
816.549562	3618.036115
816.868502	3642.813387
817.187399	3669.531502
817.506250	3713.944067
817.825058	3730.579875
818.143821	3805.844302
818.462539	3919.572733
818.781213	4036.099004
819.099843	4238.602154
819.418429	4524.082696
819.736970	4814.226306
820.055466	5153.092667
820.373919	5682.287792
820.692327	6706.650254
821.010691	8703.602527
821.329011	12428.763162
821.647286	16854.039242
821.965517	20520.949344
822.283704	21193.842560
822.601847	20531.636590
822.919945	17963.420763
823.237999	15694.725092
823.556010	13669.290300
823.873976	11846.560304
824.191897	10302.984202
824.509775	9183.545579
824.827609	8228.625012
825.145398	7757.932477
825.463144	7666.788415
825.780845	8082.406344
826.098502	8856.979633
826.416116	9837.030352
826.733685	10342.406025
827.051210	9948.792733
827.368692	9041.107777
827.686129	7985.565779
828.003522	7076.040802
828.320872	6259.046204
828.638177	5693.882446
828.955439	5244.791256
829.272656	4854.505125
829.589830	4533.131567
829.906960	4253.372735
830.224046	4059.716810
830.541088	3922.042898
830.858086	3824.395748
831.175041	3776.706433
831.491952	3776.706433
831.808819	3848.164788
832.125642	4028.915360
832.442421	4417.789967
832.759157	5064.015479
833.075849	5823.969421
833.392497	6395.585856
833.709101	6490.485577
834.025662	6109.928873
834.342179	5613.803717
834.658653	5123.324654
834.975083	4730.417123
835.291469	4420.789454
835.607811	4149.852640
835.924110	3946.971404
836.240366	3770.808283
836.556578	3585.646702
836.872746	3448.275260
837.188871	3353.829242
837.504952	3277.102881
837.820990	3215.222717
838.136984	3185.001000
838.452935	3181.270546
838.768842	3254.493306
839.084706	3509.701719
839.400526	3878.714181
839.716303	4145.013133
840.032037	4191.215308
840.347727	3982.410715
840.663373	3731.336048
840.978977	3543.905948
841.294537	3396.880696
841.610054	3280.480454
841.925527	3189.134746
842.240957	3102.048813
842.556344	3037.522044
842.871687	2979.876450
843.186987	2915.879002
843.502244	2875.322919
843.817458	2836.279183
844.132629	2809.208187
844.447756	2793.479787
844.762840	2770.668565
845.077881	2771.122269
845.392879	2747.227200
845.707833	2735.682958
846.022745	2720.055381
846.337613	2722.777604
846.652438	2721.819785
846.967221	2712.443238
847.281960	2699.991588
847.596656	2701.251877
847.911309	2703.948894
848.225919	2690.715865
848.540485	2683.935513
848.855009	2682.977694
849.169490	2679.801767
849.483928	2675.617610
849.798323	2668.786846
850.112675	2672.819769
850.426984	2668.257525
850.741251	2661.502379
851.055474	2654.318735
851.369654	2659.586740
851.683792	2656.662871
851.997887	2658.376863
852.311938	2655.755463
852.625947	2662.485404
852.939914	2662.132523
853.253837	2665.610919
853.567718	2656.284785
853.881555	2649.832108
854.195350	2659.107831
854.509103	2661.880465
854.822812	2654.192706
855.136479	2656.688077
855.450103	2659.788387
855.763685	2654.217912
856.077224	2659.939621
856.390720	2656.234373
856.704173	2663.115548
857.017584	2659.838798
857.330953	2666.921619
857.644278	2669.215344
857.957561	2667.980262
858.270802	2663.896927
858.584000	2664.249808
858.897155	2664.627894
859.210268	2663.745692
859.523339	2654.192706
859.836367	2650.260606
860.149352	2646.026037
860.462295	2651.848569
860.775195	2638.741569
861.088054	2648.823877
861.400869	2642.623258
861.713642	2635.691671
862.026373	2644.589308
862.339062	2647.135090
862.651708	2658.225629
862.964312	2661.199910
863.276873	2670.122752
863.589392	2670.626867
863.901869	2691.320804
864.214303	2699.285827
864.526696	2703.722042
864.839045	2717.711244
865.151353	2708.813608
865.463619	2709.141283
865.775842	2707.830583
866.088023	2715.669577
866.400162	2710.451983
866.712258	2708.208669
867.024313	2709.544575
867.336325	2698.706094
867.648296	2700.470498
867.960224	2704.503421
868.272110	2712.594473
868.583954	2706.167002
868.895755	2719.500854
869.207515	2714.736963
869.519233	2721.164435
869.830909	2722.550752
870.142542	2727.213819
870.454134	2727.667523
870.765684	2745.992117
871.077191	2745.084710
871.388657	2744.983887
871.700081	2752.293560
872.011463	2765.123296
872.322803	2775.634102
872.634101	2781.305400
872.945357	2789.623304
873.256571	2797.285858
873.567744	2806.485963
873.878874	2807.847075
874.189963	2820.475165
874.501010	2811.325471
874.812015	2806.057465
875.122979	2816.618683
875.433900	2815.282777
875.744780	2818.685556
876.055618	2821.508602
876.366415	2819.290494
876.677169	2822.617656
876.987882	2831.238029
877.298554	2850.520442
877.609183	2862.316742
877.919771	2889.665002
878.230317	2932.514810
878.540822	2986.732419
878.851285	3074.473702
879.161707	3204.762323
879.472087	3450.392544
879.782425	3862.179196
880.092722	4651.144979
880.402977	5756.417960
880.713191	6861.438883
881.023363	7721.333700
881.333494	7971.727812
881.643583	7860.595575
881.953631	7504.690113
882.263637	7042.063425
882.573602	6553.172325
882.883526	6126.615092
883.193408	5722.743052
883.503248	5327.894677
883.813048	4970.980985
884.122806	4652.304444
884.432522	4329.116071
884.742197	4053.037281
885.051831	3831.554187
885.361424	3633.663692
885.670975	3482.832369
885.980485	3352.644571
886.289954	3251.216556
886.599382	3154.426402
886.908768	3096.251487
887.218113	3027.717000
887.527417	2982.018940
887.836680	2938.312137
888.145901	2896.873852
888.455082	2879.053373
888.764221	2841.774040
889.073319	2822.063129
889.382376	2815.282777
889.691392	2812.434525
890.000366	2799.655200
890.309300	2795.345013
890.618193	2805.754996
890.927044	2799.352731
891.235855	2813.341933
891.544625	2822.693273
891.853353	2832.422700
892.162041	2872.222610
892.470687	2919.483427
892.779293	2987.387769
893.087858	3081.077613
893.396381	3248.343098
893.704864	3459.995942
894.013306	3707.592213
894.321707	3880.478585
894.630068	3942.535188
894.938387	3865.783621
895.246665	3751.551075
895.554903	3619.245992
895.863100	3489.637927
896.171256	3393.402300
896.479371	3298.074081
896.787446	3221.675394
897.095480	3149.990187
897.403473	3097.915067
897.711425	3041.680996
898.019336	2984.514312
898.327207	2941.362035
898.635038	2892.916546
898.942827	2865.391846
899.250576	2825.566731
899.558284	2793.152112
899.865952	2775.104781
900.173579	2756.024013
900.481165	2742.740573
900.788711	2726.054354
901.096216	2709.443752
901.403681	2703.923688
901.711105	2696.815662
902.018489	2704.301775
902.325832	2733.515262
902.633135	2781.179371
902.940397	2915.475710
903.247619	3223.061712
903.554800	3612.768110
903.861941	3970.538798
904.169041	4104.331021
904.476101	4028.612890
904.783121	3851.517156
905.090100	3685.058256
905.397039	3526.135881
905.703938	3400.056623
906.010796	3263.088473
906.317614	3175.321985
906.624391	3089.824015
906.931129	3008.132117
907.237826	2938.690223
907.544483	2863.324973
907.851099	2798.394912
908.157675	2728.726165
908.464211	2683.658250
908.770707	2647.916469
909.077163	2616.308435
909.383578	2593.598037
909.689954	2575.122208
909.996289	2559.192162
910.302584	2563.477142
910.608839	2553.092365
910.915054	2553.167983
911.221229	2560.301215
911.527363	2557.780638
911.833458	2573.509038
912.139513	2572.021898
912.445527	2572.526013
912.751502	2596.975610
913.057436	2621.400000
913.363331	2653.663385
913.669186	2701.529140
913.975000	2753.780700
914.280775	2858.435054
914.586510	3011.761748
914.892205	3208.442365
915.197859	3448.905404
915.503475	3678.681196
915.809050	3824.925069
916.114585	3879.041856
916.420081	3824.773835
916.725536	3778.748100
917.030952	3660.154956
917.336328	3575.387954
917.641665	3493.998525
917.946961	3401.921850
918.252218	3316.323058
918.557435	3234.681571
918.862612	3155.737102
919.167750	3091.109510
919.472848	3008.585821
919.777906	2938.665017
920.082925	2878.776110
920.387904	2811.249854
920.692843	2779.087292
920.997743	2740.219996
921.302603	2705.788915
921.607423	2683.658250
921.912204	2664.552277
922.216946	2639.220479
922.521647	2622.105762
922.826310	2603.226640
923.130932	2592.262131
923.435516	2574.063565
923.740059	2559.998746
924.044564	2547.899977
924.349028	2534.818183
924.653454	2524.836698
924.957840	2520.072808
925.262186	2506.512104
925.566493	2501.899448
925.870761	2491.413848
926.174989	2488.414362
926.479178	2481.911273
926.783328	2476.315592
927.087438	2466.813017
927.391509	2468.174129
927.695541	2470.543471
927.999533	2453.176696
928.303486	2463.107769
928.607400	2457.310442
928.911275	2450.025975
929.215110	2452.067642
929.518906	2450.378856
929.822663	2451.840790
930.126381	2439.716815
930.430060	2443.119594
930.733699	2439.464758
931.037299	2452.244083
931.340861	2461.015690
931.644383	2451.160235
931.947866	2446.547579
932.251309	2451.059412
932.554714	2453.756429
932.858080	2453.025462
933.161407	2454.613425
933.464694	2449.975563
933.767943	2449.068156
934.071153	2453.706017
934.374323	2441.002310
934.677455	2440.599017
934.980548	2435.003337
935.283602	2436.061979
935.586617	2438.985848
935.889593	2441.128338
936.192530	2444.934410
936.495428	2442.489450
936.798287	2446.371138
937.101108	2451.714762
937.403890	2460.410752
937.706632	2474.778040
938.009336	2498.244612
938.312002	2501.773419
938.614628	2508.528565
938.917216	2512.889163
939.219765	2525.239990
939.522275	2519.644310
939.824747	2520.299660
940.127179	2506.461692
940.429573	2502.151506
940.731929	2513.317662
941.034246	2505.302227
941.336524	2509.637619
941.638763	2509.839265
941.940964	2503.689058
942.243126	2496.984323
942.545250	2494.791421
942.847335	2487.910246
943.149381	2487.632983
943.451389	2479.995635
943.753359	2469.081537
944.055290	2465.603140
944.357182	2464.998202
944.659036	2455.546038
944.960851	2467.367544
945.262628	2460.057871
945.564367	2459.200875
945.866067	2461.217337
946.167729	2463.032152
946.469352	2453.731223
946.770937	2450.530090
947.072484	2457.108796
947.373992	2458.847994
947.675462	2451.966819
947.976893	2450.983794
948.278286	2456.050154
948.579641	2451.916408
948.880958	2442.489450
949.182236	2449.572271
949.483476	2443.296035
949.784678	2447.152517
950.085841	2451.336675
950.386967	2443.371652
950.688054	2447.480192
950.989103	2452.344906
951.290114	2459.654579
951.591087	2456.150977
951.892021	2472.433904
952.192917	2472.055817
952.493776	2473.643781
952.794596	2475.509008
953.095378	2477.248206
953.396122	2477.878350
953.696828	2472.307875
953.997496	2476.794502
954.298126	2470.241002
954.598718	2471.803760
954.899272	2457.486883
955.199788	2455.646862
955.500266	2448.715275
955.800706	2446.597990
956.101108	2439.868050
956.401472	2426.635021
956.701798	2418.543969
957.002087	2421.240987
957.302337	2429.105187
957.602550	2412.141704
957.902724	2408.814542
958.202861	2405.991496
958.502960	2412.822260
958.803022	2403.168450
959.103045	2403.975035
959.403031	2395.657131
959.702979	2386.583054
960.002889	2388.095400
960.302762	2392.506410
960.602596	2392.682850
960.902393	2388.725544
961.202153	2384.919473
961.501875	2387.087169
961.801559	2392.355175
962.101205	2387.792931
962.400814	2398.530588
962.700385	2391.069681
962.999918	2374.333050
963.299414	2377.181302
963.598873	2380.407640
963.898293	2373.476054
964.197677	2378.416385
964.497022	2377.433360
964.796331	2384.440563
965.095601	2377.282125
965.394835	2382.398896
965.694030	2382.146838
965.993189	2373.047556
966.292309	2378.416385
966.591393	2380.382435
966.890439	2379.348998
967.189447	2377.861858
967.488419	2381.768752
967.787353	2381.516694
968.086249	2381.289842
968.385108	2381.491488
968.683930	2385.726058
968.982714	2379.475027
969.281462	2377.937475
969.580172	2382.146838
969.878844	2388.322252
970.177480	2380.710110
970.476078	2382.751777
970.774639	2382.928217
971.073162	2380.483258
971.371649	2388.574310
971.670098	2376.626775
971.968510	2383.734802
972.266885	2385.549617
972.565223	2391.624208
972.863524	2399.891700
973.161788	2388.801162
973.460014	2394.094373
973.758204	2398.379354
974.056356	2389.784187
974.354471	2385.726058
974.652550	2394.497665
974.950591	2388.322252
975.248595	2393.464229
975.546563	2395.203427
975.844493	2396.287275
976.142386	2388.750750
976.440243	2393.060937
976.738062	2382.751777
977.035845	2385.171531
977.333590	2380.382435
977.631299	2387.061963
977.928971	2396.942625
978.226606	2380.936962
978.524204	2388.473487
978.821765	2374.685931
979.119290	2385.347971
979.416777	2392.657644
979.714228	2378.592825
980.011642	2392.027500
980.309020	2384.112888
980.606360	2389.985833
980.903664	2387.540873
981.200931	2405.134500
981.498162	2411.335119
981.795356	2429.810948
982.092513	2452.017231
982.389633	2466.132462
982.686717	2482.995121
982.983764	2496.807883
983.280775	2492.573313
983.577749	2490.330000
983.874686	2482.692652
984.171587	2479.920017
984.468451	2469.938533
984.765279	2459.276492
985.062070	2455.193158
985.358824	2448.362394
985.655543	2438.683379
985.952224	2428.323808
986.248869	2408.033163
986.545478	2400.975548
986.842050	2399.715260
987.138586	2390.313508
987.435086	2384.364946
987.731549	2383.860831
988.027975	2385.095913
988.324366	2379.096940
988.620719	2375.190046
988.917037	2378.315562
989.213318	2374.080992
989.509563	2366.645290
989.805772	2371.283152
990.101944	2374.862371
990.398080	2374.433873
990.694180	2370.249715
990.990244	2377.483771
991.286271	2369.317102
991.582262	2374.963194
991.878217	2370.905065
992.174136	2366.040352
992.470019	2374.837165
992.765865	2384.667415
993.061676	2385.020296
993.357450	2385.852087
993.653188	2385.902498
993.948890	2386.910729
994.244556	2380.256406
994.540186	2382.272867
994.835780	2394.321225
995.131337	2396.614950
995.426859	2408.033163
995.722345	2424.820206
996.017795	2421.089752
996.313208	2424.366502
996.608586	2430.214240
996.903928	2428.399425
997.199234	2431.121648
997.494504	2439.011054
997.789738	2426.735844
998.084936	2420.383990
998.380099	2411.461148
998.675225	2406.394788
998.970316	2395.732748
999.265371	2404.882442
999.560390	2390.893240
999.855373	2383.583567
1000.150320	2390.187479
1000.445232	2386.507437
1000.740108	2377.105685
1001.034948	2376.399923
1001.329752	2375.391692
1001.624521	2379.752290
1001.919254	2372.820704
1002.213951	2378.517208
1002.508613	2362.209075
1002.803239	2374.232227
1003.097829	2362.133458
1003.392384	2367.628315
1003.686903	2365.208562
1003.981386	2366.645290
1004.275834	2373.980169
1004.570246	2371.207535
1004.864623	2369.518748
1005.158964	2371.434387
1005.453270	2369.140662
1005.747540	2371.131917
1006.041775	2369.165867
1006.335974	2370.098481
1006.630138	2364.326360
1006.924266	2364.351565
1007.218359	2367.351052
1007.512416	2364.225537
1007.806438	2370.224510
1008.100425	2363.015660
1008.394376	2366.620085
1008.688292	2360.671523
1008.982172	2364.704446
1009.276017	2372.367000
1009.569827	2370.703419
1009.863602	2365.132944
1010.157341	2368.434900
1010.451045	2355.353106
1010.744714	2360.822758
1011.038347	2363.040865
1011.331945	2357.092304
1011.625508	2364.225537
1011.919036	2361.780577
1012.212528	2369.896835
1012.505986	2361.578931
1012.799408	2368.636546
1013.092795	2357.798065
1013.386147	2365.637060
1013.679464	2370.678213
1013.972745	2363.595392
1014.265992	2367.552698
1014.559204	2371.862885
1014.852380	2369.165867
1015.145521	2368.056813
1015.438628	2364.175125
1015.731699	2364.754858
1016.024736	2362.335104
1016.317737	2364.074302
1016.610703	2366.670496
1016.903635	2366.998171
1017.196531	2366.796525
1017.489393	2362.940042
1017.782219	2363.519775
1018.075011	2361.704960
1018.367768	2374.131404
1018.660490	2366.972965
1018.953177	2366.972965
1019.245829	2366.972965
