Dividing Wavelength (nm)	Counts (n)	Slit_number_6_of_a_total_of_40	
326.493990	1937.517069
326.888308	1937.517069
327.282561	1937.517069
327.676750	1919.570562
328.070874	1925.342683
328.464933	1932.954825
328.858929	1949.036106
329.252859	1954.278906
329.646726	1968.016050
330.040528	1986.567496
330.434265	2000.178612
330.827938	2019.032527
331.221547	2036.853006
331.615091	2061.479042
332.008571	2086.054667
332.401986	2098.002202
332.795338	2127.719804
333.188625	2153.883392
333.581847	2170.292348
333.975006	2178.484223
334.368100	2202.127235
334.761129	2208.050590
335.154095	2230.307285
335.546996	2258.714187
335.939833	2280.794440
336.332606	2298.967800
336.725315	2302.118521
337.117960	2312.982208
337.510540	2318.703917
337.903056	2332.793942
338.295508	2333.071206
338.687896	2345.623679
339.080220	2349.606190
339.472480	2357.394773
339.864676	2352.933352
340.256807	2358.604650
340.648875	2361.100021
341.040879	2365.964735
341.432818	2367.376258
341.824694	2369.720394
342.216506	2361.226050
342.608253	2365.662265
342.999937	2364.855681
343.391557	2361.982223
343.783113	2354.622138
344.174605	2357.067098
344.566033	2350.085100
344.957397	2357.394773
345.348697	2356.285719
345.739934	2351.824298
346.131106	2352.933352
346.522215	2348.597960
346.913260	2347.740963
347.304241	2349.379338
347.695159	2339.473471
348.086012	2345.774913
348.476802	2335.566577
348.867528	2347.337671
349.258191	2341.338698
349.648789	2334.835610
350.039324	2328.912254
350.429796	2340.002792
350.820203	2333.499704
351.210548	2332.289827
351.600828	2331.256390
351.991045	2335.415342
352.381198	2329.769250
352.771288	2330.550629
353.161314	2336.020281
353.551276	2334.205465
353.941175	2326.971410
354.331010	2335.843840
354.720782	2334.583552
355.110490	2337.255363
355.500135	2332.894765
355.889717	2324.400421
356.279235	2332.995588
356.668689	2336.221927
357.058080	2336.625219
357.447408	2329.416369
357.836672	2335.465754
358.225873	2327.072233
358.615010	2334.583552
359.004084	2340.179233
359.393095	2339.019767
359.782043	2330.122131
360.170927	2345.825325
360.559748	2341.363904
360.948505	2345.396827
361.337199	2340.708554
361.725830	2343.430777
362.114398	2337.179746
362.502903	2340.557319
362.891344	2342.145283
363.279722	2345.825325
363.668037	2334.961638
364.056289	2338.061948
364.444478	2340.103615
364.832603	2339.523883
365.220665	2340.758965
365.608665	2343.153513
365.996601	2343.329954
366.384474	2345.951354
366.772284	2349.354133
367.160031	2347.640140
367.547715	2351.370594
367.935336	2344.590242
368.322893	2338.364417
368.710388	2349.732219
369.097820	2345.724502
369.485189	2341.716785
369.872495	2349.404544
370.259738	2354.218846
370.646918	2357.949300
371.034035	2348.270285
371.421090	2348.194667
371.808081	2349.555779
372.195010	2348.119050
372.581875	2354.218846
372.968678	2354.596933
373.355418	2342.699810
373.742096	2355.655575
374.128710	2355.554752
374.515262	2349.454956
374.901751	2347.060408
375.288177	2346.304235
375.674540	2348.396313
376.060841	2342.951867
376.447079	2344.817094
376.833254	2344.237362
377.219367	2348.295490
377.605417	2347.337671
377.991404	2345.069152
378.377329	2355.605163
378.763191	2347.993021
379.148991	2350.538804
379.534727	2351.118537
379.920402	2350.110306
380.306013	2360.696729
380.691563	2352.807323
381.077049	2351.975533
381.462474	2353.261027
381.847835	2347.136025
382.233134	2346.581498
382.618371	2355.882427
383.003545	2351.647858
383.388657	2357.268744
383.773706	2352.630883
384.158693	2352.807323
384.543618	2354.899402
384.928480	2352.782117
385.313280	2362.561956
385.698017	2358.705473
386.082692	2352.303208
386.467305	2349.959071
386.851856	2348.976046
387.236344	2350.085100
387.620770	2354.697756
388.005133	2359.663292
388.389435	2359.411235
388.773674	2349.404544
389.157851	2357.268744
389.541965	2362.940042
389.926018	2352.782117
390.310008	2361.755371
390.693936	2359.764115
391.077802	2360.268231
391.461606	2359.436440
391.845348	2362.032635
392.229027	2353.639113
392.612645	2357.546008
392.996200	2356.537777
393.379694	2353.815554
393.763125	2367.451875
394.146494	2361.704960
394.529801	2357.016687
394.913047	2360.973992
395.296230	2363.192100
395.679351	2371.257946
396.062410	2358.050123
396.445408	2360.116996
396.828343	2367.426669
397.211217	2355.327900
397.594028	2363.418952
397.976778	2356.789835
398.359466	2362.435927
398.742092	2361.578931
399.124656	2359.360823
399.507158	2367.048583
399.889598	2354.370081
400.271977	2363.141688
400.654294	2364.628829
401.036549	2364.528006
401.418742	2368.082019
401.800874	2368.308871
402.182944	2362.713190
402.564952	2357.974506
402.946898	2367.351052
403.328783	2359.839733
403.710606	2361.402490
404.092367	2370.577390
404.474067	2368.686958
404.855705	2369.947246
405.237282	2365.410208
405.618797	2367.729138
406.000250	2370.577390
406.381642	2367.628315
406.762972	2365.410208
407.144240	2363.721421
407.525447	2369.443131
407.906593	2368.107225
408.287677	2362.385515
408.668700	2366.267204
409.049661	2372.215765
409.430560	2365.889117
409.811399	2365.258973
410.192176	2370.753831
410.572891	2369.241485
410.953545	2369.871629
411.334138	2368.082019
411.714669	2366.519262
412.095139	2362.788808
412.475547	2366.519262
412.855894	2371.888090
413.236180	2371.232740
413.616405	2372.039325
413.996568	2372.014119
414.376670	2376.324306
414.756711	2372.014119
415.136691	2370.905065
415.516609	2379.979142
415.896466	2371.358769
416.276262	2373.450848
416.655997	2374.055787
417.035670	2362.990454
417.415283	2362.360310
417.794834	2368.460106
418.174324	2377.156096
418.553753	2372.619058
418.933121	2366.494056
419.312428	2373.299613
419.691674	2369.342308
420.070859	2377.307331
420.449983	2371.484798
420.829045	2368.737369
421.208047	2373.854140
421.586988	2371.232740
421.965867	2377.080479
422.344686	2366.342821
422.723444	2367.981196
423.102141	2372.089737
423.480777	2373.274408
423.859352	2379.197763
424.237866	2371.913296
424.616319	2381.113402
424.994712	2382.323279
425.373044	2367.779550
425.751314	2374.232227
426.129524	2377.761035
426.507673	2374.988400
426.885762	2374.509490
427.263789	2370.300127
427.641756	2374.257433
428.019662	2375.845396
428.397508	2369.367513
428.775292	2376.047042
429.153016	2376.450335
429.530679	2377.937475
429.908282	2374.937988
430.285824	2384.188506
430.663305	2372.921527
431.040726	2371.383975
431.418086	2368.334077
431.795385	2377.332537
432.172624	2381.365460
432.549802	2376.223483
432.926920	2364.880887
433.303977	2378.315562
433.680974	2375.139635
434.057910	2368.812987
434.434786	2373.702906
434.811601	2373.828935
435.188355	2382.272867
435.565050	2374.080992
435.941683	2380.962167
436.318257	2382.625748
436.694770	2368.006402
437.071222	2373.400437
437.447614	2376.702392
437.823946	2371.207535
438.200218	2369.947246
438.576429	2371.686444
438.952580	2375.769779
439.328670	2370.829448
439.704700	2374.862371
440.080670	2378.643237
440.456580	2379.424615
440.832429	2381.516694
441.208218	2378.920500
441.583947	2383.331510
441.959616	2389.128837
442.335224	2373.526465
442.710773	2378.794471
443.086261	2380.684904
443.461689	2378.113915
443.837057	2380.861344
444.212365	2382.827394
444.587612	2378.265150
444.962800	2371.031094
445.337927	2380.029554
445.712995	2374.156610
446.088002	2369.266690
446.462949	2382.222456
446.837837	2379.853113
447.212664	2377.433360
447.587431	2383.482744
447.962139	2379.979142
448.336786	2373.072762
448.711374	2383.129863
449.085901	2378.718854
449.460369	2385.499206
449.834776	2384.289329
450.209124	2382.449308
450.583412	2380.936962
450.957640	2376.097454
451.331808	2386.305790
451.705917	2385.020296
452.079965	2379.323792
452.453954	2383.684390
452.827883	2384.012065
453.201752	2381.793958
453.575562	2381.718340
453.949311	2381.869575
454.323001	2389.708569
454.696632	2385.751263
455.070202	2387.137581
455.443713	2390.868035
455.817164	2381.340254
456.190556	2383.180275
456.563888	2377.786240
456.937160	2380.785727
457.310373	2380.785727
457.683526	2392.506410
458.056619	2392.985319
458.429653	2380.584081
458.802628	2392.002294
459.175542	2384.390152
459.548398	2387.314021
459.921194	2386.683877
460.293930	2386.482231
460.666607	2387.742519
461.039224	2385.574823
461.411782	2396.312481
461.784280	2389.002808
462.156719	2388.070194
462.529099	2392.027500
462.901419	2382.751777
463.273680	2382.222456
463.645882	2389.607746
464.018024	2384.843856
464.390106	2381.768752
464.762130	2393.363406
465.134094	2394.043962
465.505999	2400.723490
465.877845	2395.001781
466.249631	2392.279558
466.621358	2388.952396
466.993026	2388.750750
467.364634	2404.605179
467.736184	2399.866494
468.107674	2393.363406
468.479105	2401.832544
468.850477	2390.742006
469.221790	2389.053219
469.593043	2389.305277
469.964238	2391.674619
470.335373	2393.968344
470.706449	2390.918446
471.077467	2397.774415
471.448425	2398.833058
471.819324	2398.228119
472.190164	2393.161760
472.560945	2390.767212
472.931667	2391.901471
473.302330	2397.850033
473.672934	2397.119065
474.043479	2397.295506
474.413965	2390.565565
474.784393	2395.783160
475.154761	2389.053219
475.525070	2391.447767
475.895321	2394.825340
476.265513	2394.321225
476.635645	2393.086142
477.005719	2394.447254
477.375734	2397.648387
477.745691	2389.078425
478.115588	2396.942625
478.485427	2403.596948
478.855207	2396.715773
479.224928	2398.429765
479.594591	2400.370610
479.964194	2399.589231
480.333739	2401.278017
480.703226	2403.722977
481.072653	2396.791390
481.442022	2399.337173
481.811333	2398.631412
482.180584	2400.345404
482.549777	2394.321225
482.918912	2398.404560
483.287988	2409.847979
483.657005	2406.672052
484.025964	2397.320712
484.394864	2404.403533
484.763706	2399.513613
485.132489	2406.419994
485.501213	2403.521331
485.869879	2394.018756
486.238487	2396.791390
486.607036	2403.571742
486.975527	2399.311967
487.343959	2404.504356
487.712333	2398.883469
488.080648	2403.874212
488.448905	2403.193656
488.817104	2402.538306
489.185244	2405.815056
489.553326	2405.815056
489.921350	2408.411250
490.289315	2413.023906
490.657222	2409.898390
491.025070	2416.804771
491.392861	2406.873698
491.760593	2413.452404
492.128267	2415.796540
492.495883	2409.117012
492.863440	2412.292938
493.230939	2416.048598
493.598380	2414.334606
493.965763	2411.788823
494.333088	2408.864954
494.700354	2414.561458
495.067563	2407.403019
495.434713	2407.705488
495.801805	2422.173600
496.168839	2420.686460
496.535815	2426.660227
496.902733	2422.299629
497.269593	2429.710125
497.636395	2433.012081
498.003139	2432.129879
498.369825	2418.644792
498.736453	2429.382450
499.103023	2425.072263
499.469535	2428.475042
499.835989	2439.036260
500.202385	2439.565581
500.568723	2440.548606
500.935003	2443.497681
501.301226	2444.505912
501.667390	2444.480706
502.033497	2453.327931
502.399546	2450.832560
502.765537	2447.505398
503.131470	2455.495627
503.497345	2450.908177
503.863163	2448.639658
504.228923	2448.311983
504.594625	2457.713735
504.960269	2449.975563
505.325856	2472.534727
505.691385	2463.914354
506.056856	2463.662296
506.422270	2450.832560
506.787625	2468.148923
507.152924	2469.963738
507.518164	2474.248719
507.883347	2468.829479
508.248472	2466.964252
508.613540	2477.046560
508.978550	2471.148410
509.343503	2474.601600
509.708398	2473.290900
510.073236	2472.786785
510.438016	2486.826398
510.802738	2476.063535
511.167403	2483.171562
511.532010	2487.431337
511.896561	2494.640187
512.261053	2496.455002
512.625488	2491.035762
512.989866	2490.960144
513.354186	2480.071252
513.718449	2489.775473
514.082655	2491.817140
514.446803	2496.858294
514.810894	2499.051196
515.174927	2494.867038
515.538904	2498.168994
515.902822	2496.404590
516.266684	2506.083606
516.630488	2502.101094
516.994235	2505.806342
517.357925	2514.552744
517.721558	2503.310971
518.085133	2510.620644
518.448651	2508.906652
518.812112	2514.981242
519.175516	2513.620131
519.538863	2516.947292
519.902152	2510.418998
520.265385	2511.578463
520.628560	2505.024963
520.991678	2516.594412
521.354739	2513.620131
521.717743	2514.376304
522.080690	2515.485358
522.443580	2522.240504
522.806413	2521.635565
523.169189	2511.729698
523.531908	2525.164373
523.894569	2511.528052
524.257174	2522.467356
524.619722	2518.610873
524.982213	2531.743079
525.344647	2514.527538
525.707025	2526.223015
526.069345	2523.173117
526.431608	2525.618077
526.793815	2532.902544
527.155964	2523.929290
527.518057	2526.752337
527.880093	2540.060983
528.242072	2529.978675
528.603995	2533.860363
528.965860	2533.406660
529.327669	2533.205013
529.689421	2525.643283
530.051117	2535.851619
530.412755	2538.170550
530.774337	2535.397915
531.135862	2531.491021
531.497331	2525.416431
531.858743	2536.128883
532.220098	2537.767258
532.581396	2541.346477
532.942638	2546.841335
533.303824	2537.288348
533.664953	2540.590304
534.026025	2544.169523
534.387040	2544.572815
534.747999	2549.639175
535.108902	2548.706562
535.469748	2552.764690
535.830537	2547.042981
536.191270	2547.093392
536.551947	2549.059442
536.912567	2545.984338
537.273131	2567.510065
537.633638	2555.008004
537.994089	2555.285267
538.354483	2550.143290
538.714821	2563.250290
539.075103	2560.175187
539.435328	2562.267265
539.795497	2560.225598
540.155609	2572.626837
540.515665	2572.198338
540.875665	2570.307906
541.235609	2574.492063
541.595496	2580.869123
541.955328	2586.666450
542.315102	2581.146387
542.674821	2580.743094
543.034483	2578.953485
543.394090	2596.925198
543.753640	2588.909763
544.113134	2590.195258
544.472571	2584.271902
544.831953	2607.889708
545.191278	2602.848554
545.550548	2594.631473
545.909761	2615.527056
546.268918	2614.619648
546.628019	2609.276025
546.987064	2632.440127
547.346053	2615.627879
547.704986	2628.255969
548.063863	2631.885600
548.422684	2638.187042
548.781449	2641.514204
549.140158	2642.371200
549.498811	2655.276554
549.857408	2653.083652
550.215949	2664.653100
550.574434	2660.443737
550.932864	2666.518327
551.291237	2677.407219
551.649555	2684.313600
552.007817	2685.573888
552.366022	2681.641788
552.724173	2707.477702
553.082267	2712.342415
553.440305	2724.516802
553.798288	2722.701987
554.156215	2738.027094
554.514086	2739.993144
554.871902	2746.395410
555.229661	2761.090373
555.587365	2769.030190
555.945014	2782.616100
556.302606	2790.354271
556.660143	2801.621250
557.017625	2820.828046
557.375050	2827.986485
557.732421	2842.530213
558.089735	2851.024558
558.446994	2872.928371
558.804197	2887.547717
559.161345	2894.176835
559.518437	2908.468506
559.875474	2922.457708
560.232455	2936.875408
560.589381	2954.242183
560.946251	2970.802373
561.303065	2993.159890
561.659825	3014.962881
562.016528	3022.902698
562.373177	3040.118238
562.729770	3065.626477
563.086307	3076.691810
563.442789	3099.351796
563.799216	3127.002525
564.155587	3153.518994
564.511904	3172.877025
564.868164	3198.057588
565.224370	3231.707290
565.580520	3253.031371
565.936615	3273.170781
566.292654	3304.955256
566.648638	3330.841581
567.004567	3368.246942
567.360441	3394.561765
567.716260	3437.134310
568.072023	3468.364258
568.427732	3505.920854
568.783385	3526.236704
569.138982	3568.758837
569.494525	3616.548975
569.850013	3632.579844
570.205445	3679.361752
570.560823	3732.067015
570.916145	3763.826285
571.271412	3823.816015
571.626625	3848.089171
571.981782	3892.526942
572.336884	3928.646810
572.691931	3982.637567
573.046923	4021.378835
573.401860	4063.724527
573.756743	4106.876804
574.111570	4156.128877
574.466342	4215.085171
574.821059	4261.942696
575.175722	4291.458652
575.530330	4358.304352
575.884882	4394.525042
576.239380	4448.162919
576.593823	4494.717975
576.948211	4566.403183
577.302544	4597.255044
577.656823	4655.379548
578.011047	4716.049835
578.365216	4781.458806
578.719330	4823.552440
579.073389	4890.751021
579.427394	4966.771621
579.781344	5042.111665
580.135239	5088.868367
580.489080	5160.377135
580.842866	5205.243404
581.196597	5310.074198
581.550273	5392.849944
581.903895	5452.007885
582.257463	5579.423048
582.610975	5614.988388
582.964434	5713.416917
583.317837	5772.423623
583.671186	5841.134550
584.024481	5932.455052
584.377721	5971.145908
584.730906	6073.657771
585.084037	6175.589902
585.437113	6228.950515
585.790135	6313.162990
586.143103	6374.034923
586.496016	6482.066850
586.848874	6565.271094
587.201679	6662.086454
587.554428	6674.966602
587.907124	6801.625592
588.259765	6879.889506
588.612352	6999.087588
588.964884	7042.189454
589.317362	7168.596387
589.669786	7249.128819
590.022155	7333.870615
590.374470	7454.732279
590.726731	7499.447313
591.078937	7519.863987
591.431090	7621.821323
591.783188	7680.500354
592.135232	7737.566215
592.487222	7871.484467
592.839157	7971.626988
593.191038	8016.896550
593.542866	8086.414062
593.894639	8101.310671
594.246358	8219.147642
594.598022	8312.156931
594.949633	8353.343158
595.301190	8437.353987
595.652692	8520.180144
596.004141	8665.617433
596.355535	8593.932225
596.706876	8666.701281
597.058162	8741.764062
597.409395	8904.139627
597.760573	9038.738435
598.111698	9059.709635
598.462768	9147.702975
598.813785	9241.468437
599.164748	9230.176252
599.515657	9396.332683
599.866511	9405.003467
600.217312	9604.078633
600.568060	9509.935085
600.918753	9732.502027
601.269392	9835.165125
601.619978	9844.239202
601.970510	9983.652312
602.320988	10120.922931
602.671412	10258.571637
603.021783	10312.511983
603.372100	10322.039763
603.722363	10423.014075
604.072572	10530.919973
604.422728	10606.965779
604.772830	10677.541933
605.122878	10780.129413
605.472872	10873.113496
605.822813	11006.956131
606.172701	11061.224152
606.522534	11205.149094
606.872314	11337.176913
607.222041	11399.359546
607.571714	11531.084896
607.921333	11544.443954
608.270899	11675.488748
608.620411	11854.046417
608.969870	11879.176569
609.319276	11946.904471
609.668627	12071.042885
610.017926	12269.336671
610.367171	12411.068712
610.716362	12537.828525
611.065500	12579.922160
611.414585	12719.486504
611.763616	12882.643448
612.112594	12963.780819
612.461518	13097.976335
612.810389	13292.791725
613.159207	13331.255729
613.507971	13423.256787
613.856682	13638.539262
614.205340	13684.842260
614.553945	13967.146875
614.902496	13881.296025
615.250994	14097.964817
615.599439	14211.289956
615.947830	14366.607906
616.296169	14443.888794
616.644454	14584.310135
616.992686	14703.684658
617.340864	14931.973310
617.688990	14915.488737
618.037063	15199.658579
618.385082	15222.948710
618.733048	15408.891669
619.080961	15491.566592
619.428821	15564.108796
619.776628	15685.323340
620.124382	15683.483319
620.472083	15794.691173
620.819731	15896.900567
621.167326	15870.938625
621.514868	15940.002433
621.862357	15851.454565
622.209793	15954.848631
622.557176	15920.190698
622.904506	15881.802312
623.251783	15863.805392
623.599007	15858.310535
623.946179	15870.863008
624.293297	15933.953048
624.640363	15797.640248
624.987376	15885.028650
625.334336	15878.147475
625.681243	15793.405679
626.028097	15873.030704
626.374899	15883.642333
626.721647	15976.702033
627.068343	15968.989067
627.414987	15967.577544
627.761577	15949.404185
628.108115	16138.144985
628.454600	16009.091446
628.801032	16142.354348
629.147412	16179.154771
629.493739	16237.682567
629.840014	16186.212387
630.186236	16376.137858
630.532405	16281.616223
630.878521	16411.476346
631.224585	16424.457317
631.570597	16368.223246
631.916556	16490.294787
632.262462	16517.466606
632.608316	16598.150273
632.954117	16583.178046
633.299866	16650.376627
633.645562	16677.145154
633.991206	16546.377623
634.336797	16479.582335
634.682336	16518.525248
635.027823	16465.517515
635.373257	16447.192921
635.718639	16423.045794
636.063968	16456.014940
636.409245	16260.821463
636.754470	16309.115717
637.099642	16304.024152
637.444762	16172.979358
637.789829	16279.372910
638.134845	16223.819394
638.479808	16220.441821
638.824719	16256.738129
639.169577	16149.285935
639.514383	16210.661983
639.859137	16151.050338
640.203839	16311.106973
640.548489	16229.213429
640.893086	16277.457271
641.237632	16207.712908
641.582125	16316.299362
641.926566	16330.061712
642.270955	16378.734052
642.615292	16413.896100
642.959576	16468.617825
643.303809	16518.247985
643.647990	16630.892567
643.992118	16669.684246
644.336195	16687.781988
644.680219	16771.465142
645.024192	16946.972913
645.368112	17248.509531
645.711981	17339.451946
646.055797	17702.793110
646.399562	17679.528185
646.743274	18146.263413
647.086935	18371.073669
647.430544	18304.051529
647.774101	18364.772227
648.117606	18512.931738
648.461059	18658.948760
648.804460	18521.854581
649.147810	18246.683198
649.491108	18176.913629
649.834354	18045.339513
650.177548	17705.137246
650.520690	17546.870221
650.863781	17654.498856
651.206820	17602.373325
651.549807	17462.531717
651.892742	17249.467350
652.235626	17252.517248
652.578458	17241.023417
652.921238	16982.437431
653.263967	17190.737908
653.606644	17034.109258
653.949269	17072.069146
654.291843	16902.963640
654.634365	17130.168444
654.976836	16945.813448
655.319255	17004.794948
655.661622	17003.912746
656.003938	16930.311900
656.346203	16899.409627
656.688416	17050.820683
657.030577	16958.542362
657.372687	16918.339160
657.714746	17062.869040
658.056753	17138.914846
658.398708	16884.235754
658.740612	16951.005837
659.082465	17067.985812
659.424266	17057.727063
659.766016	17110.986854
660.107715	17090.620592
660.449362	17139.771842
660.790958	17138.486348
661.132503	17196.308383
661.473996	17221.539358
661.815438	17280.142771
662.156829	17374.261113
662.498168	17308.877348
662.839456	17344.644335
663.180693	17431.679856
663.521879	17515.363010
663.863013	17515.010129
664.204097	17509.111979
664.545129	17758.220596
664.886110	17728.250937
665.227040	17784.837888
665.567918	17849.566304
665.908746	17863.353860
666.249522	17924.729908
666.590248	17933.501515
666.930922	17991.046287
667.271545	17985.954721
667.612118	18015.067385
667.952639	17918.352848
668.293109	17968.209860
668.633528	17913.462929
668.973896	17883.392446
669.314213	17925.990196
669.654480	17808.228842
669.994695	17856.195421
670.334859	17794.138817
670.674973	17750.709277
671.015035	17803.994273
671.355047	17818.285944
671.695008	17776.368750
672.034918	17750.230367
672.374777	17785.795708
672.714585	17679.704625
673.054342	17767.395496
673.394049	17645.702042
673.733705	17811.707238
674.073310	17625.587838
674.412864	17655.683527
674.752368	17450.785829
675.091820	17604.667050
675.431223	17366.976646
675.770574	17250.122700
676.109875	17202.105710
676.449125	17078.647852
676.788324	17034.235287
677.127473	16756.366887
677.466571	16727.682721
677.805619	16590.613748
678.144616	16599.511385
678.483562	16557.442956
678.822458	16374.776746
679.161303	16332.783935
679.500098	16314.156871
679.838842	16289.203160
680.177535	16360.233017
680.516179	16532.791713
680.854771	16722.011423
681.193314	17190.359821
681.531805	17712.749388
681.870247	17962.941854
682.208638	18185.786060
682.546978	18176.283485
682.885268	18177.493362
683.223508	17890.122387
683.561697	17703.196402
683.899836	17619.714894
684.237925	17378.041979
684.575963	17313.086712
684.913951	17063.549596
685.251889	17136.091800
685.589776	17128.958567
685.927614	17132.462169
686.265401	17172.665371
686.603137	17240.242038
686.940824	17468.203015
687.278460	17580.998833
687.616046	17592.996779
687.953582	17864.437708
688.291068	17676.074994
688.628504	17810.598185
688.965889	17707.632617
689.303224	17492.501377
689.640510	17263.128877
689.977745	16921.691527
690.314930	16531.607042
690.652065	16286.808612
690.989150	15930.525063
691.326185	15535.449837
691.663170	15209.614858
692.000105	14848.794271
692.336990	14582.218056
692.673825	14349.165513
693.010610	14120.196306
693.347345	13852.989946
693.684030	13539.808263
694.020665	13402.235175
694.357251	13077.509250
694.693786	13086.986619
695.030272	12950.799848
695.366707	12681.425792
695.703093	12535.938092
696.039429	12544.079556
696.375716	12390.324363
696.711952	12367.286290
697.048139	12270.975046
697.384276	12197.096937
697.720363	12212.900954
698.056400	12086.468815
698.392388	11973.168883
698.728326	11939.645210
699.064214	11840.309273
699.400053	11809.709469
699.735842	11613.356527
700.071581	11478.732513
700.407270	11360.794719
700.742910	11237.664537
701.078501	11115.391350
701.414042	10957.351177
701.749533	10814.081585
702.084974	10658.738429
702.420366	10753.738973
702.755709	10523.862358
703.091002	10389.767665
703.426246	10385.835565
703.761440	10365.141629
704.096584	10238.104552
704.431679	10177.207413
704.766725	10123.544331
705.101721	10093.070556
705.436668	10145.271704
705.771565	9975.939346
706.106413	10094.482079
706.441212	10095.465104
706.775961	10141.364810
707.110661	10156.437860
707.445311	10272.838102
707.779913	10208.891065
708.114465	10292.448190
708.448967	10413.788763
708.783421	10650.546554
709.117825	10779.423652
709.452180	10873.794052
709.786485	11046.377954
710.120742	11340.025165
710.454949	11349.779798
710.789107	11521.103412
711.123216	11765.170875
711.457275	11784.276848
711.791286	11976.092752
712.125247	11966.817029
712.459159	11780.823658
712.793023	12034.116433
713.126837	11558.105481
713.460602	11599.543765
713.794318	11421.036508
714.127985	11269.070925
714.461602	10844.983858
714.795171	10809.720987
715.128691	10397.354602
715.462162	10189.684269
715.795584	10000.741823
716.128957	9870.478408
716.462281	9708.102842
716.795556	9595.533877
717.128782	9389.451508
717.461960	9162.473556
717.795088	9102.912323
718.128167	8959.189027
718.461198	8756.811906
718.794180	8684.748612
719.127113	8538.630767
719.459997	8426.792769
719.792833	8285.564844
720.125619	8294.412069
720.458357	8155.603898
720.791046	8064.031338
721.123686	8002.352821
721.456278	7915.241683
721.788821	7877.307000
722.121315	7763.099660
722.453761	7791.708208
722.786158	7761.612519
723.118506	7731.743683
723.450805	7683.146960
723.783056	7732.424238
724.115259	7695.170112
724.447412	7647.027092
724.779518	7736.835248
725.111574	7756.168073
725.443582	7830.928385
725.775542	7798.211296
726.107453	7994.110535
726.439315	7966.258160
726.771129	8104.789067
727.102895	8227.188283
727.434612	8280.170810
727.766281	8295.697563
728.097901	8353.519598
728.429473	8351.956840
728.760996	8344.017023
729.092471	8363.627112
729.423897	8314.324627
729.755276	8267.215044
730.086606	8337.413112
730.417887	8507.602465
730.749120	8678.976490
731.080305	8706.022281
731.411442	8812.869537
731.742530	8823.909663
732.073570	8858.340744
732.404562	8913.566585
732.735506	8779.875185
733.066401	8617.424002
733.397249	8377.540696
733.728048	8141.085375
734.058798	7849.303390
734.389501	7600.018333
734.720156	7436.105215
735.050762	7265.260512
735.381320	7136.610265
735.711831	7052.775877
736.042293	6934.031498
736.372707	6933.073679
736.703073	6865.320571
737.033391	6930.099398
737.363661	6917.773777
737.693883	6967.177085
738.024056	7019.050558
738.354182	7088.568069
738.684260	7172.629310
739.014290	7241.718323
739.344272	7302.439021
739.674207	7373.972994
740.004093	7387.231229
740.333931	7394.566108
740.663722	7364.520831
740.993464	7351.791917
741.323159	7273.477592
741.652806	7169.402971
741.982405	7073.671460
742.311956	6938.417302
742.641460	6909.329844
742.970915	6784.989785
743.300323	6676.831829
743.629683	6578.428506
743.958996	6475.387321
744.288260	6373.530808
744.617477	6275.303925
744.946647	6245.661940
745.275768	6143.729810
745.604842	6065.516308
745.933869	6025.262694
746.262847	6008.853738
746.591778	5983.975644
746.920662	5948.914419
747.249498	5958.064113
747.578286	6003.182440
747.907027	6048.250356
748.235720	6097.275577
748.564365	6105.895950
748.892963	6051.476694
749.221514	6049.233381
749.550017	5970.969467
749.878473	5958.391788
750.206881	5871.205033
750.535242	5850.914388
750.863555	5819.205531
751.191821	5777.994098
751.520039	5783.388133
751.848210	5763.147900
752.176334	5771.919508
752.504411	5726.372683
752.832440	5648.486856
753.160421	5662.778527
753.488356	5619.096929
753.816243	5583.304737
754.144082	5530.322210
754.471875	5507.334548
754.799620	5492.135469
755.127318	5480.414787
755.454969	5465.845852
755.782572	5446.588644
756.110129	5444.799035
756.437638	5418.080919
756.765100	5419.467237
757.092515	5426.524852
757.419882	5428.289256
757.747203	5407.922994
758.074477	5430.381335
758.401703	5427.659112
758.728882	5478.196679
759.056014	5494.504812
759.383099	5529.112333
759.710138	5540.833015
760.037129	5574.281071
760.364073	5566.089196
760.690970	5569.769238
761.017820	5569.063477
761.344623	5650.251260
761.671379	5821.423638
761.998088	6178.412948
762.324751	6950.692512
762.651366	7997.135227
762.977935	8989.410744
763.304456	9283.259602
763.630931	9119.170044
763.957359	8619.768138
764.283740	7972.257133
764.610074	7372.763117
764.936362	6759.229488
765.262602	6321.480894
765.588796	5885.622733
765.914943	5598.705462
766.241044	5348.613819
766.567097	5166.199667
766.893104	5009.621429
767.219064	4901.740737
767.544978	4768.805510
767.870845	4689.079662
768.196665	4628.963902
768.522438	4559.244744
768.848165	4512.992158
769.173846	4463.966937
769.499479	4417.789967
769.825066	4365.740054
770.150607	4296.625835
770.476101	4285.610913
770.801548	4246.592383
771.126949	4201.927760
771.452303	4169.689581
771.777611	4112.170015
772.102872	4105.868573
772.428087	4052.079462
772.753256	4017.749204
773.078378	3987.199812
773.403453	3940.594344
773.728482	3911.431269
774.053465	3886.502763
774.378401	3871.379302
774.703291	3826.991942
775.028135	3797.022283
775.352932	3782.781023
775.677683	3757.776900
776.002388	3715.380796
776.327046	3725.614338
776.651658	3697.232642
776.976224	3673.740865
777.300743	3663.986233
777.625216	3645.913696
777.949643	3633.235194
778.274024	3643.317502
778.598359	3611.154940
778.922647	3610.751648
779.246889	3600.820575
779.571086	3588.696600
779.895236	3597.468208
780.219339	3605.433231
780.543397	3592.401848
780.867409	3607.500104
781.191374	3592.754729
781.515294	3581.638985
781.839167	3598.173969
782.162995	3591.872527
782.486776	3572.388467
782.810511	3552.148235
783.134201	3531.655944
783.457844	3532.437323
783.781441	3516.456865
784.104993	3499.972292
784.428498	3481.244406
784.751958	3485.504181
785.075372	3467.633290
785.398739	3461.709935
785.722061	3474.489260
786.045337	3471.338538
786.368568	3518.876619
786.691752	3545.670352
787.014891	3645.938902
787.337983	3754.122063
787.661030	3877.781567
787.984031	3983.217300
788.306987	4027.150956
788.629897	4020.698279
788.952760	3949.088688
789.275579	3897.542890
789.598351	3798.181748
789.921078	3722.892115
790.243759	3629.202271
790.566395	3579.194025
790.888984	3519.834438
791.211529	3481.597287
791.534027	3435.017025
791.856480	3397.788104
792.178888	3384.907956
792.501249	3361.769060
792.823566	3329.656910
793.145836	3338.075637
793.468062	3335.681088
793.790241	3323.481496
794.112375	3341.755679
794.434464	3384.605487
794.756507	3397.334400
795.078505	3443.889456
795.400457	3504.408508
795.722364	3586.780962
796.044226	3615.666773
796.366042	3648.484685
796.687812	3624.337558
797.009538	3623.379738
797.331218	3587.133842
797.652852	3565.608115
797.974442	3522.506250
798.295986	3500.173938
798.617484	3456.971250
798.938938	3434.790173
799.260346	3411.651277
799.581709	3362.701673
799.903026	3358.996425
800.224299	3329.732527
800.545526	3303.241263
800.866708	3273.044752
801.187845	3262.786004
801.508936	3240.226840
801.829983	3235.765419
802.150984	3205.669731
802.471940	3195.864687
802.792851	3182.934127
803.113717	3176.002540
803.434538	3172.750996
803.755314	3167.709842
804.076045	3161.710869
804.396731	3156.115188
804.717372	3162.769512
805.037967	3171.692354
805.358518	3183.539065
805.679024	3192.008204
805.999485	3186.513346
806.319901	3211.467058
806.640272	3202.947508
806.960598	3220.868810
807.280879	3214.844631
807.601115	3219.406875
807.921306	3205.720142
808.241453	3203.502035
808.561554	3199.620346
808.881611	3185.933613
809.201623	3194.377546
809.521590	3167.709842
809.841513	3167.709842
810.161390	3165.365706
810.481223	3141.672283
810.801011	3137.765388
811.120755	3133.102321
811.440453	3110.593569
811.760107	3110.492746
812.079716	3099.351796
812.399281	3082.010227
812.718801	3076.666604
813.038276	3066.029769
813.357707	3053.477296
813.677093	3060.131619
813.996434	3038.681510
814.315731	3049.192315
814.634983	3048.360525
814.954191	3054.813202
815.273354	3074.650142
815.592473	3079.363621
815.911547	3109.862602
816.230577	3117.147069
816.549562	3141.344608
816.868502	3153.619817
817.187399	3167.130110
817.506250	3188.706248
817.825058	3200.225285
818.143821	3239.395050
818.462539	3307.274187
818.781213	3377.068962
819.099843	3516.028367
819.418429	3703.080381
819.736970	3878.764592
820.055466	4074.008481
820.373919	4404.607350
820.692327	5055.823604
821.010691	6536.889398
821.329011	9580.259181
821.647286	13296.723825
821.965517	16187.699527
822.283704	16492.588512
822.601847	15450.733246
822.919945	13233.482550
823.237999	11409.088973
823.556010	9873.074602
823.873976	8588.966688
824.191897	7497.582087
824.509775	6682.377098
824.827609	6045.477721
825.145398	5707.770825
825.463144	5635.253827
825.780845	5939.890754
826.098502	6523.681575
826.416116	7199.145779
826.733685	7512.125815
827.051210	7193.298040
827.368692	6538.174892
827.686129	5830.195246
828.003522	5255.276856
828.320872	4745.338938
828.638177	4378.519379
828.955439	4088.753856
829.272656	3848.416846
829.589830	3638.931698
829.906960	3479.505208
830.224046	3352.216073
830.541088	3273.750513
830.858086	3225.834346
831.175041	3173.582787
831.491952	3179.909435
831.808819	3213.710371
832.125642	3328.875531
832.442421	3563.919329
832.759157	3993.677694
833.075849	4488.592973
833.392497	4854.757183
833.709101	4900.404831
834.025662	4625.964415
834.342179	4299.877379
834.658653	3992.997138
834.975083	3749.610231
835.291469	3573.421904
835.607811	3407.593148
835.924110	3285.975312
836.240366	3168.516427
836.556578	3075.658373
836.872746	2992.050837
837.188871	2940.857919
837.504952	2883.136708
837.820990	2848.453569
838.136984	2822.113540
838.452935	2828.414983
838.768842	2886.640310
839.084706	3028.952083
839.400526	3276.119856
839.716303	3448.250054
840.032037	3456.366312
840.347727	3317.180054
840.663373	3155.031340
840.978977	3050.150135
841.294537	2956.485496
841.610054	2888.228273
841.925527	2831.968996
842.240957	2789.396452
842.556344	2752.041502
842.871687	2709.872250
843.186987	2684.011131
843.502244	2650.512663
843.817458	2631.356279
844.132629	2626.239508
844.447756	2609.754935
844.762840	2593.900506
845.077881	2584.624783
845.392879	2573.181363
845.707833	2568.190621
846.022745	2567.560477
846.337613	2576.231262
846.652438	2552.512633
846.967221	2561.586710
847.281960	2558.259548
847.596656	2554.579506
847.911309	2553.798127
848.225919	2551.176727
848.540485	2532.196783
848.855009	2539.733308
849.169490	2538.699871
849.483928	2539.002340
849.798323	2538.069727
850.112675	2539.355221
850.426984	2536.053265
850.741251	2524.382994
851.055474	2525.113962
851.369654	2525.542460
851.683792	2534.591331
851.997887	2532.146371
852.311938	2527.004394
852.625947	2539.733308
852.939914	2523.626821
853.253837	2535.423121
853.567718	2528.945238
853.881555	2529.978675
854.195350	2530.634025
854.509103	2523.450381
854.822812	2530.029087
855.136479	2515.208094
855.450103	2525.618077
855.763685	2519.215812
856.077224	2523.929290
856.390720	2528.390712
856.704173	2526.928777
857.017584	2534.490508
857.330953	2537.641229
857.644278	2530.684437
857.957561	2536.834644
858.270802	2533.658717
858.584000	2530.734848
858.897155	2537.288348
859.210268	2522.946265
859.523339	2525.366019
859.836367	2523.601615
860.149352	2519.467869
860.462295	2515.182888
860.775195	2511.099554
861.088054	2513.670542
861.400869	2517.249762
861.713642	2514.325892
862.026373	2517.300173
862.339062	2525.315608
862.651708	2521.156656
862.964312	2529.802235
863.276873	2533.129396
863.589392	2532.978162
863.901869	2551.958106
864.214303	2553.672098
864.526696	2563.401525
864.839045	2555.839794
865.151353	2555.764177
865.463619	2561.611915
865.775842	2562.368088
866.088023	2560.780125
866.400162	2553.117571
866.712258	2553.722510
867.024313	2555.108827
867.336325	2549.916438
867.648296	2567.610888
867.960224	2547.295038
868.272110	2553.294012
868.583954	2550.924669
868.895755	2550.924669
869.207515	2556.268292
869.519233	2562.292471
869.830909	2554.050185
870.142542	2559.091338
870.454134	2568.694737
870.765684	2567.938563
871.077191	2577.113463
871.388657	2573.735890
871.700081	2580.163362
872.011463	2579.029102
872.322803	2591.379929
872.634101	2588.808940
872.945357	2601.613471
873.256571	2617.089813
873.567744	2607.057917
873.878874	2607.259563
874.189963	2606.352156
874.501010	2608.116560
874.812015	2608.141765
875.122979	2616.106788
875.433900	2616.661315
875.744780	2611.216869
876.055618	2613.384565
876.366415	2615.476644
876.677169	2613.586212
876.987882	2618.375308
877.298554	2620.845473
877.609183	2634.985910
877.919771	2645.421098
878.230317	2660.065650
878.540822	2681.767817
878.851285	2736.489542
879.161707	2790.429888
879.472087	2911.291552
879.782425	3149.360042
880.092722	3623.631796
880.402977	4412.219492
880.713191	5243.757819
881.023363	5864.626327
881.333494	5975.027596
881.643583	5812.021887
881.953631	5439.631852
882.263637	5114.830310
882.573602	4816.318385
882.883526	4541.676323
883.193408	4286.367087
883.503248	4042.753327
883.813048	3850.282073
884.122806	3644.880260
884.432522	3462.743371
884.742197	3298.855460
885.051831	3163.273627
885.361424	3051.107954
885.670975	2963.215437
885.980485	2895.941238
886.289954	2842.101715
886.599382	2791.387708
886.908768	2749.596542
887.218113	2720.483879
887.527417	2695.908254
887.836680	2661.325938
888.145901	2643.278608
888.455082	2622.332613
888.764221	2618.501337
889.073319	2610.838783
889.382376	2605.243102
889.691392	2604.688575
890.000366	2607.889708
890.309300	2605.873246
890.618193	2601.890735
890.927044	2585.708631
891.235855	2608.419029
891.544625	2611.443721
891.853353	2623.945783
892.162041	2642.043525
892.470687	2666.770385
892.779293	2694.043027
893.087858	2747.529669
893.396381	2837.892352
893.704864	2961.627473
894.013306	3068.121848
894.321707	3177.086388
894.630068	3188.176927
894.938387	3149.637306
895.246665	3093.831733
895.554903	3018.819363
895.863100	2944.613579
896.171256	2905.519431
896.479371	2857.678881
896.787446	2813.341933
897.095480	2773.264760
897.403473	2749.823394
897.711425	2712.796119
898.019336	2698.403625
898.327207	2676.726663
898.635038	2652.176244
898.942827	2624.223046
899.250576	2605.747217
899.558284	2596.471494
899.865952	2586.490010
900.173579	2575.651529
900.481165	2560.704508
900.788711	2554.781152
901.096216	2546.463248
901.403681	2547.295038
901.711105	2538.120138
902.018489	2550.344937
902.325832	2556.545556
902.633135	2593.169538
902.940397	2661.099087
903.247619	2818.786379
903.554800	3033.413504
903.861941	3228.027248
904.169041	3282.522121
904.476101	3250.863675
904.783121	3149.057573
905.090100	3062.097669
905.397039	2977.986017
905.703938	2907.561098
906.010796	2837.262208
906.317614	2801.066723
906.624391	2748.361460
906.931129	2707.956612
907.237826	2682.019875
907.544483	2632.591362
907.851099	2594.278592
908.157675	2553.949362
908.464211	2528.667975
908.770707	2518.358815
909.077163	2493.480721
909.383578	2480.701396
909.689954	2477.979173
909.996289	2469.409212
910.302584	2468.753862
910.608839	2467.241515
910.915054	2468.249746
911.221229	2465.250260
911.527363	2475.130921
911.833458	2466.258490
912.139513	2478.634523
912.445527	2483.549648
912.751502	2478.130408
913.057436	2506.234840
913.363331	2516.997704
913.669186	2540.943185
913.975000	2582.205029
914.280775	2625.004425
914.586510	2711.132538
914.892205	2815.560040
915.197859	2931.405756
915.503475	3047.780792
915.809050	3116.063221
916.114585	3130.732979
916.420081	3119.566823
916.725536	3088.790579
917.030952	3034.169677
917.336328	2983.657315
917.641665	2943.328085
917.946961	2894.554921
918.252218	2865.316229
918.557435	2817.828560
918.862612	2771.550767
919.167750	2741.581108
919.472848	2694.572348
919.777906	2660.947852
920.082925	2641.690644
920.387904	2608.696292
920.692843	2582.986408
920.997743	2558.259548
921.302603	2540.187012
921.607423	2532.826927
921.912204	2527.432892
922.216946	2507.117042
922.521647	2501.420538
922.826310	2486.347488
923.130932	2479.390696
923.435516	2475.408185
923.740059	2462.981740
924.044564	2461.494600
924.349028	2462.023921
924.653454	2447.606221
924.957840	2450.630913
925.262186	2438.834613
925.566493	2443.245623
925.870761	2432.886052
926.174989	2430.894796
926.479178	2428.575865
926.783328	2421.997160
927.087438	2430.718356
927.391509	2428.449837
927.695541	2418.745615
927.999533	2418.796027
928.303486	2416.426685
928.607400	2421.745102
928.911275	2412.847465
929.215110	2410.528535
929.518906	2421.316604
929.822663	2421.619073
930.126381	2415.821746
930.430060	2418.115471
930.733699	2424.795000
931.037299	2405.764644
931.340861	2417.636562
931.644383	2417.712179
931.947866	2412.141704
932.251309	2417.611356
932.554714	2415.065573
932.858080	2404.252298
933.161407	2417.838208
933.464694	2403.823800
933.767943	2408.688513
934.071153	2406.470406
934.374323	2411.864440
934.677455	2406.218348
934.980548	2414.687487
935.283602	2402.336660
935.586617	2413.906108
935.889593	2406.596435
936.192530	2409.797567
936.495428	2422.476069
936.798287	2412.040881
937.101108	2420.535225
937.403890	2417.787796
937.706632	2424.971440
938.009336	2435.003337
938.312002	2431.373706
938.614628	2436.263625
938.917216	2445.942640
939.219765	2436.969387
939.522275	2444.934410
939.824747	2440.901487
940.127179	2432.558377
940.429573	2432.407142
940.731929	2436.868563
941.034246	2434.549633
941.336524	2434.776485
941.638763	2433.667431
941.940964	2438.456527
942.243126	2432.986875
942.545250	2433.087698
942.847335	2429.483273
943.149381	2419.703435
943.451389	2420.207550
943.753359	2423.685946
944.055290	2416.678742
944.357182	2418.518763
944.659036	2409.318658
944.960851	2411.763617
945.262628	2418.695204
945.564367	2413.301169
945.866067	2412.746642
946.167729	2413.250758
946.469352	2417.182858
946.770937	2414.485840
947.072484	2417.409710
947.373992	2410.931827
947.675462	2410.251271
947.976893	2411.234296
948.278286	2418.417940
948.579641	2406.369583
948.880958	2408.890160
949.182236	2412.116498
949.483476	2413.452404
949.784678	2408.285221
950.085841	2411.007444
950.386967	2409.117012
950.688054	2418.392735
950.989103	2411.713206
951.290114	2418.796027
951.591087	2415.645306
951.892021	2422.602098
952.192917	2426.004877
952.493776	2419.022879
952.794596	2424.542942
953.095378	2420.157138
953.396122	2424.366502
953.696828	2425.979671
953.997496	2423.736358
954.298126	2419.048085
954.598718	2416.199833
954.899272	2421.341810
955.199788	2413.805285
955.500266	2421.644279
955.800706	2416.225038
956.101108	2400.975548
956.401472	2393.741492
956.701798	2397.219888
957.002087	2392.733262
957.302337	2397.850033
957.602550	2389.557335
957.902724	2391.977088
958.202861	2387.314021
958.502960	2394.749723
958.803022	2388.347458
959.103045	2382.247662
959.403031	2384.037271
959.702979	2387.440050
960.002889	2391.977088
960.302762	2383.281098
960.602596	2384.717827
960.902393	2383.986860
961.202153	2382.046015
961.501875	2376.072248
961.801559	2379.676673
962.101205	2380.987373
962.400814	2387.061963
962.700385	2384.289329
962.999918	2377.483771
963.299414	2382.197250
963.598873	2367.250229
963.898293	2381.062990
964.197677	2374.937988
964.497022	2378.164327
964.796331	2376.299100
965.095601	2375.694162
965.394835	2372.921527
965.694030	2372.845910
965.993189	2378.189533
966.292309	2372.770292
966.591393	2372.568646
966.890439	2371.106712
967.189447	2373.072762
967.488419	2378.088710
967.787353	2381.466283
968.086249	2375.971425
968.385108	2380.357229
968.683930	2379.575850
968.982714	2377.609800
969.281462	2377.030067
969.580172	2371.736856
969.878844	2384.087683
970.177480	2376.803215
970.476078	2369.947246
970.774639	2374.030581
971.073162	2382.272867
971.371649	2383.029040
971.670098	2381.189019
971.968510	2373.677700
972.266885	2374.912783
972.565223	2376.122660
972.863524	2386.885523
973.161788	2382.726571
973.460014	2384.037271
973.758204	2384.213712
974.056356	2383.230687
974.354471	2373.450848
974.652550	2375.366487
974.950591	2382.600542
975.248595	2383.533156
975.546563	2381.264637
975.844493	2377.156096
976.142386	2375.316075
976.440243	2378.844883
976.738062	2381.163813
977.035845	2388.019783
977.333590	2377.685417
977.631299	2384.037271
977.928971	2381.466283
978.226606	2378.013092
978.524204	2370.426156
978.821765	2387.036758
979.119290	2382.323279
979.416777	2378.113915
979.714228	2379.323792
980.011642	2375.391692
980.309020	2378.769265
980.606360	2379.475027
980.903664	2386.835112
981.200931	2386.154556
981.498162	2399.211144
981.795356	2396.867008
982.092513	2401.353635
982.389633	2423.534712
982.686717	2424.996646
982.983764	2433.364962
983.280775	2424.568148
983.577749	2422.576892
983.874686	2435.885538
984.171587	2423.585123
984.468451	2420.459608
984.765279	2421.140163
985.062070	2407.150962
985.358824	2417.863413
985.655543	2395.430279
985.952224	2399.967317
986.248869	2381.340254
986.545478	2373.097967
986.842050	2391.977088
987.138586	2379.475027
987.435086	2377.357742
987.731549	2371.031094
988.027975	2375.013606
988.324366	2371.257946
988.620719	2368.712163
988.917037	2368.913810
989.213318	2375.996631
989.509563	2372.770292
989.805772	2368.712163
990.101944	2373.274408
990.398080	2376.299100
990.694180	2373.602083
990.990244	2373.173585
991.286271	2375.164840
991.582262	2368.434900
991.878217	2362.662779
992.174136	2366.065558
992.470019	2372.644263
992.765865	2375.215252
993.061676	2377.004862
993.357450	2368.712163
993.653188	2378.113915
993.948890	2384.289329
994.244556	2382.121633
994.540186	2368.611340
994.835780	2379.928731
995.131337	2376.601569
995.426859	2392.229146
995.722345	2391.825854
996.017795	2394.573283
996.313208	2402.109808
996.608586	2398.984292
996.903928	2395.405073
997.199234	2396.362892
997.494504	2390.918446
997.789738	2393.817110
998.084936	2378.239944
998.380099	2381.970398
998.675225	2385.398383
998.970316	2389.431306
999.265371	2373.274408
999.560390	2382.197250
999.855373	2375.139635
1000.150320	2370.224510
1000.445232	2365.132944
1000.740108	2365.309385
1001.034948	2375.719367
1001.329752	2359.789321
1001.624521	2375.265663
1001.919254	2371.232740
1002.213951	2363.797038
1002.508613	2365.183356
1002.803239	2362.486338
1003.097829	2370.350538
1003.392384	2364.477594
1003.686903	2369.745600
1003.981386	2357.142715
1004.275834	2372.341794
1004.570246	2368.157637
1004.864623	2359.083560
1005.158964	2365.964735
1005.453270	2366.519262
1005.747540	2369.417925
1006.041775	2365.132944
1006.335974	2363.368540
1006.630138	2365.637060
1006.924266	2361.352079
1007.218359	2365.813500
1007.512416	2366.317615
1007.806438	2367.275435
1008.100425	2368.308871
1008.394376	2351.042919
1008.688292	2361.654548
1008.982172	2365.511031
1009.276017	2362.410721
1009.569827	2367.225023
1009.863602	2359.411235
1010.157341	2361.175638
1010.451045	2363.847450
1010.744714	2361.881400
1011.038347	2366.695702
1011.331945	2357.067098
1011.625508	2366.141175
1011.919036	2358.075329
1012.212528	2369.039838
1012.505986	2365.939529
1012.799408	2364.679240
1013.092795	2364.049096
1013.386147	2361.982223
1013.679464	2365.284179
1013.972745	2358.982737
1014.265992	2361.805783
1014.559204	2363.771833
1014.852380	2368.838192
1015.145521	2364.528006
1015.438628	2363.620598
1015.731699	2366.292410
1016.024736	2368.812987
1016.317737	2365.813500
1016.610703	2363.973479
1016.903635	2368.989427
1017.196531	2357.344362
1017.489393	2358.226563
1017.782219	2357.470390
1018.075011	2362.108252
1018.367768	2364.855681
1018.660490	2362.561956
1018.953177	2362.561956
1019.245829	2362.561956
