Wavelength (nm)	EQE (%)	Current (A)	Dark Current (A) -> 	-1.512808540E-9	
400.000000	21.304256	-2.617513E-7
401.000000	23.044754	-4.319783E-7
402.000000	23.439118	-6.990385E-7
403.000000	23.848703	-1.022822E-6
404.000000	24.276920	-1.512094E-6
405.000000	23.815537	-1.891231E-6
406.000000	25.129118	-2.617986E-6
407.000000	25.205714	-2.924794E-6
408.000000	25.609329	-3.626981E-6
409.000000	25.646260	-4.055582E-6
410.000000	26.039871	-4.922103E-6
411.000000	26.393671	-6.292555E-6
412.000000	26.432634	-7.854293E-6
413.000000	26.685915	-9.913291E-6
414.000000	26.713609	-1.262447E-5
415.000000	26.671745	-1.406519E-5
416.000000	26.654161	-1.410967E-5
417.000000	26.599185	-1.193522E-5
418.000000	25.936277	-6.823101E-6
419.000000	26.290290	-5.249652E-6
420.000000	26.602358	-5.071955E-6
421.000000	26.825117	-5.504337E-6
422.000000	26.905220	-6.395113E-6
423.000000	26.842117	-6.963484E-6
424.000000	26.969150	-7.557312E-6
425.000000	27.375263	-8.180628E-6
426.000000	27.475690	-8.765347E-6
427.000000	27.174100	-9.077275E-6
428.000000	26.945221	-9.260059E-6
429.000000	27.159212	-1.054622E-5
430.000000	27.297767	-1.253957E-5
431.000000	26.784610	-1.397025E-5
432.000000	26.383985	-1.390028E-5
433.000000	26.241290	-1.346862E-5
434.000000	26.271610	-1.384001E-5
435.000000	26.405219	-1.500809E-5
436.000000	26.264208	-1.575715E-5
437.000000	25.798028	-1.596551E-5
438.000000	25.805779	-1.703820E-5
439.000000	25.789496	-1.813927E-5
440.000000	25.593970	-1.814288E-5
441.000000	25.357755	-1.821125E-5
442.000000	24.815221	-1.877997E-5
443.000000	25.019061	-1.810691E-5
444.000000	25.023076	-1.791471E-5
445.000000	24.803439	-1.833787E-5
446.000000	24.598505	-1.839928E-5
447.000000	24.532695	-1.746035E-5
448.000000	24.559079	-1.744775E-5
449.000000	24.542571	-1.940326E-5
450.000000	24.381748	-1.966685E-5
451.000000	24.250747	-1.822416E-5
452.000000	24.145343	-1.750632E-5
453.000000	24.350403	-1.911260E-5
454.000000	24.441698	-1.973072E-5
455.000000	24.319839	-1.868917E-5
456.000000	24.156232	-1.688042E-5
457.000000	24.177235	-1.609270E-5
458.000000	24.483311	-1.544127E-5
459.000000	24.909774	-1.499440E-5
460.000000	25.178890	-1.418363E-5
461.000000	25.028485	-1.352954E-5
462.000000	25.336413	-1.427731E-5
463.000000	25.464725	-1.496146E-5
464.000000	25.421292	-1.357752E-5
465.000000	25.950472	-1.330635E-5
466.000000	26.096151	-1.564776E-5
467.000000	26.131682	-1.643742E-5
468.000000	26.013258	-1.395948E-5
469.000000	26.451042	-1.496738E-5
470.000000	26.912215	-1.843651E-5
471.000000	26.848898	-1.773576E-5
472.000000	27.210949	-1.503670E-5
473.000000	27.426438	-1.727469E-5
474.000000	27.603248	-1.946306E-5
475.000000	27.681151	-1.736719E-5
476.000000	28.250569	-1.730416E-5
477.000000	28.251172	-2.008878E-5
478.000000	28.363040	-1.987569E-5
479.000000	28.654053	-1.893079E-5
480.000000	28.191684	-2.201847E-5
481.000000	28.528755	-2.347668E-5
482.000000	28.382002	-2.200651E-5
483.000000	28.698258	-2.347567E-5
484.000000	28.886749	-2.581148E-5
485.000000	28.873970	-2.611351E-5
486.000000	28.853967	-2.616393E-5
487.000000	28.912063	-2.700522E-5
488.000000	29.057035	-2.805907E-5
489.000000	29.229132	-2.924164E-5
490.000000	29.244392	-2.892877E-5
491.000000	29.295432	-2.917084E-5
492.000000	29.628137	-3.033483E-5
493.000000	29.734221	-3.094184E-5
494.000000	29.894609	-3.102037E-5
495.000000	30.039927	-3.287871E-5
496.000000	30.242031	-3.260815E-5
497.000000	30.346747	-3.261555E-5
498.000000	30.395398	-3.465997E-5
499.000000	30.384715	-3.603495E-5
500.000000	30.472754	-3.427888E-5
501.000000	30.652324	-3.624010E-5
502.000000	30.660237	-3.894435E-5
503.000000	30.661088	-3.651571E-5
504.000000	30.819006	-3.692416E-5
505.000000	30.823133	-3.839580E-5
506.000000	30.775475	-3.661131E-5
507.000000	31.055391	-3.854417E-5
508.000000	31.015489	-3.701840E-5
509.000000	30.976936	-3.415955E-5
510.000000	30.904188	-3.765266E-5
511.000000	30.822380	-3.668420E-5
512.000000	30.777762	-3.365482E-5
513.000000	31.394377	-3.932856E-5
514.000000	31.232859	-4.365425E-5
515.000000	31.265979	-3.878208E-5
516.000000	31.660004	-4.328524E-5
517.000000	31.607094	-4.438682E-5
518.000000	31.486231	-4.298283E-5
519.000000	31.301272	-4.681324E-5
520.000000	30.979851	-4.283328E-5
521.000000	30.905721	-4.105422E-5
522.000000	31.134563	-4.285722E-5
523.000000	30.776763	-3.521277E-5
524.000000	31.298893	-3.652373E-5
525.000000	31.602830	-4.065306E-5
526.000000	31.637858	-3.808819E-5
527.000000	31.675397	-4.143877E-5
528.000000	31.708946	-4.355932E-5
529.000000	31.586644	-4.005660E-5
530.000000	31.443166	-4.358450E-5
531.000000	31.143587	-3.856104E-5
532.000000	31.411974	-3.541475E-5
533.000000	31.780831	-3.829149E-5
534.000000	31.723607	-3.511816E-5
535.000000	31.891593	-3.520279E-5
536.000000	32.098093	-4.194583E-5
537.000000	31.872528	-4.046260E-5
538.000000	31.958296	-4.409173E-5
539.000000	31.706447	-4.367632E-5
540.000000	31.786767	-3.798572E-5
541.000000	32.098316	-4.115350E-5
542.000000	32.080124	-3.694743E-5
543.000000	32.324852	-3.419471E-5
544.000000	32.514587	-3.996257E-5
545.000000	32.328313	-3.742058E-5
546.000000	32.409444	-4.089845E-5
547.000000	32.138570	-4.423701E-5
548.000000	32.139952	-3.996334E-5
549.000000	32.223835	-4.177829E-5
550.000000	32.316575	-3.840662E-5
551.000000	32.636469	-3.521046E-5
552.000000	32.759884	-3.784478E-5
553.000000	32.830949	-3.647161E-5
554.000000	32.701480	-3.891859E-5
555.000000	32.557234	-4.064027E-5
556.000000	32.423143	-3.787224E-5
557.000000	32.559467	-4.003743E-5
558.000000	32.427852	-3.716372E-5
559.000000	32.735893	-3.539371E-5
560.000000	32.922837	-3.807284E-5
561.000000	32.726724	-3.683721E-5
562.000000	32.847238	-3.920047E-5
563.000000	32.768890	-4.033335E-5
564.000000	32.729679	-3.802812E-5
565.000000	33.077128	-4.197317E-5
566.000000	33.029212	-3.876249E-5
567.000000	33.134669	-3.824082E-5
568.000000	33.296957	-4.137826E-5
569.000000	33.266614	-3.754622E-5
570.000000	33.248083	-4.004783E-5
571.000000	33.001271	-3.773738E-5
572.000000	33.161259	-3.507670E-5
573.000000	33.396451	-3.763231E-5
574.000000	33.509169	-3.315654E-5
575.000000	34.131837	-3.527238E-5
576.000000	33.839653	-3.581044E-5
577.000000	33.851095	-3.466242E-5
578.000000	33.996645	-3.749603E-5
579.000000	33.776471	-3.509664E-5
580.000000	34.059348	-3.405122E-5
581.000000	34.201453	-3.546841E-5
582.000000	34.414771	-3.257856E-5
583.000000	34.893928	-3.452324E-5
584.000000	34.800678	-3.551439E-5
585.000000	34.983153	-3.404620E-5
586.000000	35.075064	-3.644348E-5
587.000000	35.044629	-3.405534E-5
588.000000	35.108908	-3.311389E-5
589.000000	35.220908	-3.367827E-5
590.000000	35.408363	-3.100483E-5
591.000000	34.791177	-3.248204E-5
592.000000	34.936421	-3.273999E-5
593.000000	35.208301	-3.260081E-5
594.000000	35.393760	-3.388182E-5
595.000000	35.355135	-3.428708E-5
596.000000	35.519434	-3.450338E-5
597.000000	35.589804	-3.425470E-5
598.000000	35.790832	-3.371331E-5
599.000000	36.010171	-3.472844E-5
600.000000	36.008935	-3.513135E-5
601.000000	36.154649	-3.620107E-5
602.000000	36.146651	-3.735851E-5
603.000000	36.211579	-3.671136E-5
604.000000	36.464553	-3.735036E-5
605.000000	36.384448	-3.672382E-5
606.000000	36.716427	-3.738339E-5
607.000000	36.767172	-3.921743E-5
608.000000	36.685868	-3.985682E-5
609.000000	36.695908	-4.223258E-5
610.000000	36.399794	-4.191139E-5
611.000000	36.488295	-4.042649E-5
612.000000	36.608041	-3.983258E-5
613.000000	36.699799	-3.776902E-5
614.000000	37.144540	-3.790883E-5
615.000000	37.432518	-3.879174E-5
616.000000	37.696801	-4.088411E-5
617.000000	37.761973	-4.410577E-5
618.000000	37.599393	-4.564109E-5
619.000000	37.651269	-4.724446E-5
620.000000	37.422225	-4.708280E-5
621.000000	37.630895	-4.652387E-5
622.000000	37.769294	-4.626663E-5
623.000000	37.971323	-4.608743E-5
624.000000	38.256840	-4.724826E-5
625.000000	38.517542	-4.756919E-5
626.000000	38.467104	-4.816209E-5
627.000000	38.220651	-4.866824E-5
628.000000	38.183930	-4.816669E-5
629.000000	38.467941	-4.827539E-5
630.000000	38.653005	-4.928769E-5
631.000000	38.851010	-4.948789E-5
632.000000	39.126139	-5.099350E-5
633.000000	39.064771	-5.250231E-5
634.000000	39.171545	-5.272595E-5
635.000000	39.223810	-5.323237E-5
636.000000	39.251464	-5.245651E-5
637.000000	39.617823	-5.225447E-5
638.000000	39.658975	-5.238331E-5
639.000000	39.852619	-5.261713E-5
640.000000	40.028267	-5.480123E-5
641.000000	39.821889	-5.443930E-5
642.000000	40.094823	-5.461460E-5
643.000000	40.107774	-5.442646E-5
644.000000	40.325709	-5.259602E-5
645.000000	40.552552	-5.346322E-5
646.000000	40.701752	-5.358995E-5
647.000000	40.960021	-5.501940E-5
648.000000	40.680832	-5.638581E-5
649.000000	40.796381	-5.634412E-5
650.000000	40.784387	-5.645828E-5
651.000000	40.824981	-5.425944E-5
652.000000	41.088919	-5.424128E-5
653.000000	41.172757	-5.429508E-5
654.000000	41.425200	-5.386108E-5
655.000000	41.673267	-5.734449E-5
656.000000	41.417994	-5.702809E-5
657.000000	41.699489	-5.672451E-5
658.000000	41.635755	-5.802094E-5
659.000000	41.590561	-5.529157E-5
660.000000	41.991090	-5.527881E-5
661.000000	42.019517	-5.654496E-5
662.000000	41.974975	-5.599182E-5
663.000000	42.053432	-5.712020E-5
664.000000	42.051335	-5.859271E-5
665.000000	41.927326	-5.772516E-5
666.000000	42.013209	-5.655258E-5
667.000000	42.270290	-5.725995E-5
668.000000	42.275685	-5.696272E-5
669.000000	42.369745	-5.599175E-5
670.000000	42.878376	-5.919885E-5
671.000000	42.353802	-5.974487E-5
672.000000	42.724891	-5.818470E-5
673.000000	42.894354	-6.147709E-5
674.000000	42.586339	-6.066766E-5
675.000000	42.892140	-5.823320E-5
676.000000	43.234324	-6.202117E-5
677.000000	42.784667	-6.088570E-5
678.000000	43.346893	-6.035133E-5
679.000000	43.220453	-6.414840E-5
680.000000	42.982206	-6.338469E-5
681.000000	43.075530	-6.294693E-5
682.000000	43.007167	-6.573590E-5
683.000000	42.898776	-6.670847E-5
684.000000	42.770182	-6.422843E-5
685.000000	43.379199	-6.684854E-5
686.000000	42.914648	-6.982409E-5
687.000000	42.548779	-6.494181E-5
688.000000	42.996882	-6.727089E-5
689.000000	42.633576	-7.103098E-5
690.000000	42.773202	-6.909778E-5
691.000000	43.177434	-7.371040E-5
692.000000	42.560229	-7.681782E-5
693.000000	42.289154	-7.784236E-5
694.000000	42.041430	-8.044533E-5
695.000000	41.597713	-7.821255E-5
696.000000	41.617870	-7.434001E-5
697.000000	41.548552	-7.199326E-5
698.000000	41.883445	-7.460316E-5
699.000000	41.475085	-7.746997E-5
700.000000	41.192883	-7.806140E-5
701.000000	41.177684	-8.490098E-5
702.000000	40.386440	-8.825627E-5
703.000000	39.790941	-7.939527E-5
704.000000	40.079435	-7.687574E-5
705.000000	40.202802	-8.345599E-5
706.000000	39.407370	-8.071602E-5
707.000000	39.264734	-7.765447E-5
708.000000	39.128568	-8.819034E-5
709.000000	38.151909	-9.197211E-5
710.000000	37.191269	-7.378011E-5
711.000000	37.877520	-6.526263E-5
712.000000	38.224177	-7.927759E-5
713.000000	37.220730	-8.749038E-5
714.000000	36.478029	-8.455204E-5
715.000000	35.903326	-7.797479E-5
716.000000	35.664701	-7.500262E-5
717.000000	35.266766	-7.752914E-5
718.000000	34.694030	-7.708773E-5
719.000000	34.220543	-7.522415E-5
720.000000	33.740383	-7.231612E-5
721.000000	33.342838	-6.875863E-5
722.000000	33.055992	-7.011970E-5
723.000000	32.514799	-7.015845E-5
724.000000	32.052891	-6.703507E-5
725.000000	31.606039	-6.600627E-5
726.000000	31.121368	-6.475030E-5
727.000000	30.633610	-6.180788E-5
728.000000	30.131741	-5.968434E-5
729.000000	29.734916	-5.879245E-5
730.000000	29.216137	-5.757685E-5
731.000000	28.703839	-5.641741E-5
732.000000	28.018443	-5.491661E-5
733.000000	27.497693	-5.209202E-5
734.000000	27.015880	-5.084719E-5
735.000000	26.231842	-4.927844E-5
736.000000	25.615236	-4.614916E-5
737.000000	25.044710	-4.529732E-5
738.000000	24.345226	-4.404588E-5
739.000000	23.814294	-4.167782E-5
740.000000	23.336102	-4.118016E-5
741.000000	22.590711	-3.912877E-5
742.000000	21.962263	-3.651729E-5
743.000000	21.361580	-3.577038E-5
744.000000	20.595409	-3.381284E-5
745.000000	20.072911	-3.216198E-5
746.000000	19.440864	-3.203091E-5
747.000000	18.745441	-3.026558E-5
748.000000	18.135457	-2.860865E-5
749.000000	17.514181	-2.773622E-5
750.000000	16.849225	-2.583325E-5
751.000000	16.279774	-2.459285E-5
752.000000	15.649330	-2.340619E-5
753.000000	15.042990	-2.225921E-5
754.000000	14.427498	-2.137910E-5
755.000000	13.832204	-2.007111E-5
756.000000	13.251627	-1.884643E-5
757.000000	12.705671	-1.783751E-5
758.000000	12.133461	-1.674285E-5
759.000000	11.587758	-1.556553E-5
760.000000	11.100281	-1.483843E-5
761.000000	10.581317	-1.421803E-5
762.000000	10.063930	-1.325169E-5
763.000000	9.637392	-1.231516E-5
764.000000	9.167500	-1.167100E-5
765.000000	8.676803	-1.099124E-5
766.000000	8.253433	-1.014634E-5
767.000000	7.803558	-9.484950E-6
768.000000	7.401911	-8.996591E-6
769.000000	7.013369	-8.558283E-6
770.000000	6.621289	-8.077505E-6
771.000000	6.256286	-7.451092E-6
772.000000	5.892694	-6.921023E-6
773.000000	5.565124	-6.495117E-6
774.000000	5.212703	-6.028779E-6
775.000000	4.915123	-5.719333E-6
776.000000	4.625298	-5.335262E-6
777.000000	4.343197	-4.946178E-6
778.000000	4.084476	-4.648320E-6
779.000000	3.836745	-4.338132E-6
780.000000	3.590096	-4.033752E-6
781.000000	3.357021	-3.797763E-6
782.000000	3.140349	-3.541954E-6
783.000000	2.932662	-3.304668E-6
784.000000	2.745072	-3.076893E-6
785.000000	2.564275	-2.866519E-6
786.000000	2.396002	-2.679639E-6
787.000000	2.229339	-2.483092E-6
788.000000	2.082173	-2.328189E-6
789.000000	1.941121	-2.163798E-6
790.000000	1.812124	-2.010431E-6
791.000000	1.690011	-1.877013E-6
792.000000	1.575352	-1.731252E-6
793.000000	1.469289	-1.609027E-6
794.000000	1.371352	-1.485014E-6
795.000000	1.277075	-1.382705E-6
796.000000	1.187887	-1.301875E-6
797.000000	1.106171	-1.202700E-6
798.000000	1.032457	-1.117113E-6
799.000000	0.964327	-1.033991E-6
800.000000	0.899548	-9.514871E-7
801.000000	0.842233	-8.927896E-7
802.000000	0.785993	-8.331060E-7
803.000000	0.734513	-7.750873E-7
804.000000	0.686935	-7.256826E-7
805.000000	0.641615	-6.679777E-7
806.000000	0.601267	-6.222528E-7
807.000000	0.563190	-5.788420E-7
808.000000	0.527765	-5.358962E-7
809.000000	0.495309	-5.103586E-7
810.000000	0.464821	-4.820760E-7
811.000000	0.437165	-4.516495E-7
812.000000	0.411019	-4.300985E-7
813.000000	0.387490	-4.014271E-7
814.000000	0.365584	-3.781185E-7
815.000000	0.344687	-3.589708E-7
816.000000	0.326093	-3.342150E-7
817.000000	0.308143	-3.224907E-7
818.000000	0.291096	-3.095327E-7
819.000000	0.276229	-2.912705E-7
820.000000	0.262346	-2.808596E-7
821.000000	0.248582	-2.653143E-7
822.000000	0.235987	-2.504954E-7
823.000000	0.224556	-2.421466E-7
824.000000	0.213583	-2.304770E-7
825.000000	0.204075	-2.218533E-7
826.000000	0.194686	-2.163701E-7
827.000000	0.185705	-2.078089E-7
828.000000	0.177805	-1.999176E-7
829.000000	0.169726	-1.926460E-7
830.000000	0.162439	-1.845780E-7
831.000000	0.155912	-1.792187E-7
832.000000	0.149730	-1.744750E-7
833.000000	0.143726	-1.688738E-7
834.000000	0.138166	-1.641468E-7
835.000000	0.132619	-1.567882E-7
836.000000	0.128038	-1.489787E-7
837.000000	0.123534	-1.433769E-7
838.000000	0.118623	-1.377294E-7
839.000000	0.114385	-1.324368E-7
840.000000	0.110717	-1.289023E-7
841.000000	0.106758	-1.246929E-7
842.000000	0.103518	-1.191117E-7
843.000000	0.100385	-1.146440E-7
844.000000	0.096608	-1.108585E-7
845.000000	0.093423	-1.067461E-7
846.000000	0.090447	-1.039527E-7
847.000000	0.087722	-1.006442E-7
848.000000	0.084916	-9.708746E-8
849.000000	0.082453	-9.335536E-8
850.000000	0.079880	-8.869252E-8
851.000000	0.077529	-8.541369E-8
852.000000	0.075044	-8.185042E-8
853.000000	0.072974	-7.861187E-8
854.000000	0.070758	-7.609505E-8
855.000000	0.068855	-7.270442E-8
856.000000	0.067104	-6.943278E-8
857.000000	0.065194	-6.687811E-8
858.000000	0.063130	-6.369731E-8
859.000000	0.061446	-6.085279E-8
860.000000	0.059912	-5.834804E-8
861.000000	0.058242	-5.543311E-8
862.000000	0.056903	-5.325605E-8
863.000000	0.055486	-5.118957E-8
864.000000	0.054059	-4.786398E-8
865.000000	0.052736	-4.576639E-8
866.000000	0.051440	-4.408402E-8
867.000000	0.049900	-4.119261E-8
868.000000	0.048977	-3.950881E-8
869.000000	0.047691	-3.764667E-8
870.000000	0.046643	-3.588562E-8
871.000000	0.045621	-3.517748E-8
872.000000	0.044396	-3.347461E-8
873.000000	0.043194	-3.133256E-8
874.000000	0.042294	-3.038700E-8
875.000000	0.041257	-2.905686E-8
876.000000	0.040264	-2.766216E-8
877.000000	0.039252	-2.667899E-8
878.000000	0.038388	-2.555366E-8
879.000000	0.037423	-2.426384E-8
880.000000	0.036593	-2.313621E-8
881.000000	0.035752	-2.219968E-8
882.000000	0.034942	-2.147607E-8
883.000000	0.034217	-2.068206E-8
884.000000	0.033468	-1.998391E-8
885.000000	0.032677	-1.934664E-8
886.000000	0.031909	-1.848638E-8
887.000000	0.031194	-1.783629E-8
888.000000	0.030538	-1.729298E-8
889.000000	0.029798	-1.668037E-8
890.000000	0.029193	-1.619583E-8
891.000000	0.028545	-1.574212E-8
892.000000	0.027814	-1.528333E-8
893.000000	0.027156	-1.466608E-8
894.000000	0.026629	-1.412331E-8
895.000000	0.026012	-1.378207E-8
896.000000	0.025468	-1.341289E-8
897.000000	0.024982	-1.311558E-8
898.000000	0.024433	-1.295780E-8
899.000000	0.023803	-1.263442E-8
900.000000	0.023334	-1.240357E-8
901.000000	0.022816	-1.201718E-8
902.000000	0.022323	-1.164296E-8
903.000000	0.021809	-1.147650E-8
904.000000	0.021323	-1.111078E-8
905.000000	0.020889	-1.086086E-8
906.000000	0.020355	-1.062992E-8
907.000000	0.019960	-1.026883E-8
908.000000	0.019531	-1.014786E-8
909.000000	0.015749	-8.229068E-9
910.000000	0.017106	-8.856642E-9
911.000000	0.015280	-7.961323E-9
912.000000	0.016482	-8.590047E-9
913.000000	0.015008	-7.729085E-9
914.000000	0.014834	-7.650692E-9
915.000000	0.015602	-8.039016E-9
916.000000	0.015262	-7.908121E-9
917.000000	0.014966	-7.788114E-9
918.000000	0.013982	-7.214437E-9
919.000000	0.014425	-7.425489E-9
920.000000	0.014200	-7.212462E-9
921.000000	0.013478	-6.775642E-9
922.000000	0.013641	-6.917221E-9
923.000000	0.012923	-6.536789E-9
924.000000	0.013126	-6.668565E-9
925.000000	0.012574	-6.393678E-9
926.000000	0.012520	-6.250978E-9
927.000000	0.012323	-6.166723E-9
928.000000	0.012168	-6.048648E-9
929.000000	0.011952	-5.860727E-9
930.000000	0.011596	-5.717619E-9
931.000000	0.011350	-5.558409E-9
932.000000	0.011107	-5.429807E-9
933.000000	0.010886	-5.304502E-9
934.000000	0.010687	-5.073986E-9
935.000000	0.010389	-4.924319E-9
936.000000	0.010102	-4.760657E-9
937.000000	0.009881	-4.601535E-9
938.000000	0.009602	-4.529685E-9
939.000000	0.009391	-4.423195E-9
940.000000	0.009152	-4.267133E-9
941.000000	0.008900	-4.134488E-9
942.000000	0.008711	-3.993430E-9
943.000000	0.008477	-3.868909E-9
944.000000	0.008292	-3.766214E-9
945.000000	0.008073	-3.619590E-9
946.000000	0.007867	-3.557634E-9
947.000000	0.007799	-3.483863E-9
948.000000	0.007585	-3.324570E-9
949.000000	0.007353	-3.227414E-9
950.000000	0.007260	-3.144401E-9
951.000000	0.006994	-2.992848E-9
952.000000	0.006831	-2.929835E-9
953.000000	0.006640	-2.844643E-9
954.000000	0.006377	-2.727478E-9
955.000000	0.006266	-2.633958E-9
956.000000	0.006123	-2.531390E-9
957.000000	0.005928	-2.458296E-9
958.000000	0.005914	-2.415666E-9
959.000000	0.005763	-2.329840E-9
960.000000	0.005615	-2.277789E-9
961.000000	0.005422	-2.168637E-9
962.000000	0.005256	-2.085314E-9
963.000000	0.005152	-2.027003E-9
964.000000	0.005044	-1.963639E-9
965.000000	0.004939	-1.911707E-9
966.000000	0.004847	-1.860876E-9
967.000000	0.004658	-1.791426E-9
968.000000	0.004534	-1.731725E-9
969.000000	0.004475	-1.677598E-9
970.000000	0.004328	-1.607285E-9
971.000000	0.004167	-1.529784E-9
972.000000	0.004191	-1.513310E-9
973.000000	0.004085	-1.470719E-9
974.000000	0.003917	-1.402864E-9
975.000000	0.003833	-1.354328E-9
976.000000	0.003778	-1.324620E-9
977.000000	0.003685	-1.280410E-9
978.000000	0.003698	-1.273794E-9
979.000000	0.003478	-1.187989E-9
980.000000	0.003410	-1.159676E-9
981.000000	0.003300	-1.123983E-9
982.000000	0.003255	-1.100872E-9
983.000000	0.003080	-1.027411E-9
984.000000	0.003092	-1.022901E-9
985.000000	0.003062	-9.975874E-10
986.000000	0.003016	-9.702377E-10
987.000000	0.002922	-9.396607E-10
988.000000	0.002887	-9.272720E-10
989.000000	0.002736	-8.718729E-10
990.000000	0.002692	-8.470430E-10
991.000000	0.002617	-8.197026E-10
992.000000	0.002762	-8.621855E-10
993.000000	0.002698	-8.361115E-10
994.000000	0.002501	-7.759947E-10
995.000000	0.002535	-7.879227E-10
996.000000	0.002537	-7.821150E-10
997.000000	0.002410	-7.363151E-10
998.000000	0.002219	-6.743117E-10
999.000000	0.002280	-6.834944E-10
1000.000000	0.002259	-6.680705E-10
1001.000000	0.002178	-6.404431E-10
1002.000000	0.002131	-6.281483E-10
1003.000000	0.002223	-6.548466E-10
1004.000000	0.002053	-5.982007E-10
1005.000000	0.002011	-5.837444E-10
1006.000000	0.001846	-5.369094E-10
1007.000000	0.002096	-6.039634E-10
1008.000000	0.001830	-5.238320E-10
1009.000000	0.002156	-6.210802E-10
1010.000000	0.001768	-5.097218E-10
1011.000000	0.001782	-5.100796E-10
1012.000000	0.001843	-5.239258E-10
1013.000000	0.001721	-4.857634E-10
1014.000000	0.001833	-5.113144E-10
1015.000000	0.001771	-4.920103E-10
1016.000000	0.001633	-4.585251E-10
1017.000000	0.001651	-4.683211E-10
1018.000000	0.001576	-4.454915E-10
1019.000000	0.001636	-4.616168E-10
1020.000000	0.001599	-4.553025E-10
1021.000000	0.001526	-4.391419E-10
1022.000000	0.001559	-4.538417E-10
1023.000000	0.001466	-4.338339E-10
1024.000000	0.001419	-4.244307E-10
1025.000000	0.001484	-4.460990E-10
1026.000000	0.001359	-4.118725E-10
1027.000000	0.001343	-4.088309E-10
1028.000000	0.001238	-3.798571E-10
1029.000000	0.001374	-4.252139E-10
1030.000000	0.001273	-3.984488E-10
1031.000000	0.001272	-4.026954E-10
1032.000000	0.001179	-3.763993E-10
1033.000000	0.001196	-3.827990E-10
1034.000000	0.001209	-3.843885E-10
1035.000000	0.001173	-3.645270E-10
1036.000000	0.001255	-3.803323E-10
1037.000000	0.001169	-3.461467E-10
1038.000000	0.001276	-3.690084E-10
1039.000000	0.001244	-3.533116E-10
1040.000000	0.001174	-3.296873E-10
1041.000000	0.001224	-3.395566E-10
1042.000000	0.001235	-3.383684E-10
1043.000000	0.001235	-3.376031E-10
1044.000000	0.001225	-3.378291E-10
1045.000000	0.001015	-2.847440E-10
1046.000000	0.001121	-3.181522E-10
1047.000000	0.001128	-3.252497E-10
1048.000000	0.001022	-3.016842E-10
1049.000000	0.000970	-2.903751E-10
1050.000000	0.001023	-3.124186E-10
1051.000000	0.000811	-2.571868E-10
1052.000000	0.000962	-3.166303E-10
1053.000000	0.000768	-2.629822E-10
1054.000000	0.000835	-2.994788E-10
1055.000000	0.000847	-3.163898E-10
1056.000000	0.000812	-3.189561E-10
1057.000000	0.000744	-3.080338E-10
1058.000000	0.000693	-3.060544E-10
1059.000000	0.000649	-3.117031E-10
1060.000000	0.000597	-3.176889E-10
1061.000000	0.000589	-3.634654E-10
1062.000000	0.000511	-3.827021E-10
1063.000000	0.000413	-4.064638E-10
1064.000000	0.000342	-5.852581E-10
1065.000000	0.000256	-7.147997E-10
1066.000000	0.000266	-6.519516E-10
1067.000000	0.000335	-4.473189E-10
1068.000000	0.000388	-3.373658E-10
1069.000000	0.000438	-3.279657E-10
1070.000000	0.000512	-3.253174E-10
1071.000000	0.000541	-2.763062E-10
1072.000000	0.000672	-2.762269E-10
1073.000000	0.000781	-2.916334E-10
1074.000000	0.000744	-2.604950E-10
1075.000000	0.000780	-2.634397E-10
1076.000000	0.000674	-2.213411E-10
1077.000000	0.000859	-2.732473E-10
1078.000000	0.000874	-2.686074E-10
1079.000000	0.000672	-1.984062E-10
1080.000000	0.000836	-2.371640E-10
1081.000000	0.000939	-2.574186E-10
1082.000000	0.000877	-2.337561E-10
1083.000000	0.000889	-2.337091E-10
1084.000000	0.000867	-2.231743E-10
1085.000000	0.001029	-2.574243E-10
1086.000000	0.000974	-2.393724E-10
1087.000000	0.001030	-2.508164E-10
1088.000000	0.000925	-2.216872E-10
1089.000000	0.001145	-2.711737E-10
1090.000000	0.000872	-2.050986E-10
1091.000000	0.001127	-2.631873E-10
1092.000000	0.001002	-2.314830E-10
1093.000000	0.000945	-2.146396E-10
1094.000000	0.001030	-2.317792E-10
1095.000000	0.000985	-2.209365E-10
1096.000000	0.001027	-2.276175E-10
1097.000000	0.000969	-2.137245E-10
1098.000000	0.000910	-2.011513E-10
1099.000000	0.001082	-2.451444E-10
1100.000000	0.001042	-2.420151E-10
