Wavelength (nm)	EQE (%)	Current (A)	Dark Current (A) -> 	-37.142696000E-12	
400.000000	27.701002	-8.422667E-7
401.000000	29.417516	-1.257589E-6
402.000000	29.427127	-1.931069E-6
403.000000	29.455687	-2.802087E-6
404.000000	29.194723	-3.850838E-6
405.000000	29.288472	-4.862597E-6
406.000000	29.429746	-6.357485E-6
407.000000	29.303573	-6.719564E-6
408.000000	29.168649	-7.261053E-6
409.000000	29.137720	-7.686908E-6
410.000000	29.247886	-8.128736E-6
411.000000	29.031058	-1.053012E-5
412.000000	28.781217	-1.208737E-5
413.000000	28.997537	-1.601594E-5
414.000000	28.788148	-1.815256E-5
415.000000	28.693723	-1.815934E-5
416.000000	28.652298	-1.693001E-5
417.000000	28.692186	-1.493812E-5
418.000000	27.691002	-9.410840E-6
419.000000	27.767682	-6.962071E-6
420.000000	28.462958	-7.331631E-6
421.000000	28.315498	-7.911126E-6
422.000000	28.176928	-7.140702E-6
423.000000	28.495810	-7.534336E-6
424.000000	28.297745	-8.340596E-6
425.000000	28.328246	-9.040868E-6
426.000000	28.301482	-9.457400E-6
427.000000	28.381697	-9.954923E-6
428.000000	28.199396	-1.101228E-5
429.000000	28.243617	-1.242576E-5
430.000000	28.236997	-1.326172E-5
431.000000	28.253696	-1.364244E-5
432.000000	28.292122	-1.359720E-5
433.000000	28.576677	-1.397828E-5
434.000000	28.634101	-1.537837E-5
435.000000	28.680146	-1.586958E-5
436.000000	28.699154	-1.593031E-5
437.000000	28.864213	-1.740563E-5
438.000000	28.892445	-1.790844E-5
439.000000	29.030295	-1.796116E-5
440.000000	29.417899	-1.833724E-5
441.000000	29.622167	-2.002662E-5
442.000000	29.674526	-1.953375E-5
443.000000	29.679326	-1.894604E-5
444.000000	29.969045	-1.905924E-5
445.000000	30.385024	-1.883849E-5
446.000000	30.381719	-1.858162E-5
447.000000	30.920302	-2.114071E-5
448.000000	30.393926	-2.325226E-5
449.000000	30.959483	-2.163754E-5
450.000000	31.319505	-2.086398E-5
451.000000	31.719998	-2.305171E-5
452.000000	31.918836	-2.443813E-5
453.000000	32.023519	-2.346869E-5
454.000000	32.251192	-2.138791E-5
455.000000	32.706326	-2.188182E-5
456.000000	33.136628	-2.543324E-5
457.000000	33.291777	-2.820563E-5
458.000000	33.394300	-2.895353E-5
459.000000	33.892396	-2.758606E-5
460.000000	34.009764	-2.569050E-5
461.000000	34.185819	-2.409655E-5
462.000000	34.458546	-2.337357E-5
463.000000	34.759168	-2.342287E-5
464.000000	35.024365	-2.406070E-5
465.000000	35.109436	-2.508798E-5
466.000000	34.940166	-2.309824E-5
467.000000	34.953049	-1.902264E-5
468.000000	35.564355	-1.933183E-5
469.000000	36.314385	-2.477597E-5
470.000000	36.070689	-2.492931E-5
471.000000	36.140751	-1.961370E-5
472.000000	36.565676	-1.931997E-5
473.000000	37.252594	-2.610991E-5
474.000000	36.925526	-2.639758E-5
475.000000	36.729615	-2.083157E-5
476.000000	37.121387	-2.065383E-5
477.000000	37.378377	-2.397876E-5
478.000000	37.274196	-2.224782E-5
479.000000	37.759225	-2.226047E-5
480.000000	38.020598	-2.653594E-5
481.000000	37.947058	-2.543909E-5
482.000000	37.633065	-1.882859E-5
483.000000	38.210540	-2.031144E-5
484.000000	38.273192	-2.427462E-5
485.000000	37.777594	-2.099634E-5
486.000000	38.028855	-2.013990E-5
487.000000	38.630417	-2.312506E-5
488.000000	38.093557	-2.238678E-5
489.000000	37.989938	-2.031465E-5
490.000000	38.298580	-2.265091E-5
491.000000	38.507825	-2.477354E-5
492.000000	38.568333	-2.709527E-5
493.000000	38.488267	-2.836631E-5
494.000000	38.250607	-2.602543E-5
495.000000	38.422799	-2.595319E-5
496.000000	37.698260	-2.916260E-5
497.000000	38.346610	-3.032477E-5
498.000000	38.303879	-2.819362E-5
499.000000	38.463432	-2.785070E-5
500.000000	38.972888	-3.148118E-5
501.000000	38.923847	-3.597999E-5
502.000000	38.457271	-3.420015E-5
503.000000	38.637978	-3.309344E-5
504.000000	38.712270	-3.825078E-5
505.000000	38.650275	-4.138734E-5
506.000000	38.485853	-3.783604E-5
507.000000	37.827285	-3.161876E-5
508.000000	38.351282	-3.132751E-5
509.000000	38.325601	-3.073078E-5
510.000000	37.972974	-2.721132E-5
511.000000	38.028857	-2.582783E-5
512.000000	38.524616	-2.936898E-5
513.000000	38.641334	-3.419883E-5
514.000000	38.765229	-3.946515E-5
515.000000	38.604849	-4.733213E-5
516.000000	38.604035	-6.013131E-5
517.000000	38.802831	-6.516953E-5
518.000000	38.220453	-5.569859E-5
519.000000	37.865386	-4.726713E-5
520.000000	38.155557	-4.307594E-5
521.000000	37.680663	-3.320004E-5
522.000000	37.601764	-2.735417E-5
523.000000	37.770523	-2.675949E-5
524.000000	39.002401	-3.547452E-5
525.000000	38.674717	-4.744139E-5
526.000000	38.438107	-5.078811E-5
527.000000	38.745419	-5.656180E-5
528.000000	38.587781	-6.110049E-5
529.000000	38.591788	-5.769602E-5
530.000000	37.784497	-4.404975E-5
531.000000	37.517093	-3.237574E-5
532.000000	37.355545	-2.706011E-5
533.000000	37.617430	-2.932232E-5
534.000000	37.647938	-3.155550E-5
535.000000	38.149414	-4.156276E-5
536.000000	38.735173	-5.740773E-5
537.000000	38.055532	-5.285979E-5
538.000000	37.598073	-4.264513E-5
539.000000	37.955712	-4.270567E-5
540.000000	37.186288	-3.392738E-5
541.000000	37.119523	-3.041489E-5
542.000000	37.402507	-3.088937E-5
543.000000	37.593133	-3.709476E-5
544.000000	38.082815	-4.908957E-5
545.000000	37.882105	-5.075179E-5
546.000000	37.815444	-4.747645E-5
547.000000	38.184133	-4.707622E-5
548.000000	37.329600	-3.627369E-5
549.000000	37.416796	-2.961714E-5
550.000000	37.262738	-2.936973E-5
551.000000	37.668592	-3.234452E-5
552.000000	38.074826	-4.360229E-5
553.000000	38.155102	-5.073809E-5
554.000000	37.936924	-5.296267E-5
555.000000	37.941130	-5.359315E-5
556.000000	37.386526	-4.458057E-5
557.000000	37.356311	-3.607364E-5
558.000000	37.402610	-3.475132E-5
559.000000	37.556404	-3.855361E-5
560.000000	37.829822	-4.710439E-5
561.000000	37.892164	-5.239676E-5
562.000000	37.608754	-4.865656E-5
563.000000	37.680180	-4.868931E-5
564.000000	37.506957	-4.017880E-5
565.000000	36.997506	-3.243481E-5
566.000000	36.979389	-3.332042E-5
567.000000	37.158074	-3.605787E-5
568.000000	37.513220	-4.434622E-5
569.000000	37.354278	-4.816016E-5
570.000000	37.280828	-4.635894E-5
571.000000	37.113158	-4.323929E-5
572.000000	36.881065	-3.727607E-5
573.000000	36.755181	-3.142735E-5
574.000000	36.944740	-3.267277E-5
575.000000	36.994917	-3.932979E-5
576.000000	37.412450	-5.041482E-5
577.000000	37.132844	-5.434040E-5
578.000000	37.001362	-5.561760E-5
579.000000	36.864256	-5.052803E-5
580.000000	36.365968	-4.055961E-5
581.000000	36.469359	-3.684103E-5
582.000000	36.615869	-3.566150E-5
583.000000	36.647179	-4.137186E-5
584.000000	36.916576	-5.061428E-5
585.000000	36.620505	-5.199319E-5
586.000000	36.416130	-4.981875E-5
587.000000	36.231959	-4.555405E-5
588.000000	35.827499	-3.774855E-5
589.000000	35.852207	-3.603616E-5
590.000000	35.956488	-3.730689E-5
591.000000	35.825349	-5.342090E-5
592.000000	35.897991	-5.415671E-5
593.000000	35.681716	-5.439480E-5
594.000000	35.530885	-5.239766E-5
595.000000	35.443764	-5.032384E-5
596.000000	35.516879	-5.031916E-5
597.000000	35.586137	-5.121336E-5
598.000000	36.019005	-5.509090E-5
599.000000	35.753950	-5.941805E-5
600.000000	35.718201	-6.272456E-5
601.000000	35.785241	-6.618675E-5
602.000000	35.681551	-6.684184E-5
603.000000	35.574828	-6.620271E-5
604.000000	35.318531	-6.410688E-5
605.000000	35.366342	-6.158323E-5
606.000000	35.558984	-6.220246E-5
607.000000	35.661281	-6.270751E-5
608.000000	35.967965	-6.593370E-5
609.000000	36.072117	-7.050764E-5
610.000000	36.038434	-7.309665E-5
611.000000	36.061224	-7.600313E-5
612.000000	35.897099	-7.693368E-5
613.000000	35.925580	-7.587962E-5
614.000000	35.794400	-7.338593E-5
615.000000	35.954609	-6.949873E-5
616.000000	36.113682	-6.900053E-5
617.000000	36.184568	-7.056392E-5
618.000000	36.555077	-7.511538E-5
619.000000	36.590276	-7.963907E-5
620.000000	36.728151	-8.219042E-5
621.000000	36.772471	-8.479684E-5
622.000000	36.720431	-8.743259E-5
623.000000	36.925642	-9.081672E-5
624.000000	37.032076	-9.442461E-5
625.000000	37.634172	-0.000102
626.000000	36.886310	-9.808710E-5
627.000000	37.457727	-9.741339E-5
628.000000	37.809223	-9.647712E-5
629.000000	37.847090	-9.705041E-5
630.000000	37.929693	-9.838611E-5
631.000000	38.154492	-0.000102
632.000000	38.228823	-0.000108
633.000000	38.330218	-0.000111
634.000000	38.343244	-0.000115
635.000000	38.105093	-0.000115
636.000000	38.128361	-0.000114
637.000000	38.151836	-0.000115
638.000000	38.154244	-0.000115
639.000000	38.143514	-0.000115
640.000000	38.146373	-0.000114
641.000000	38.111173	-0.000111
642.000000	38.135824	-0.000112
643.000000	38.076333	-0.000112
644.000000	38.298946	-0.000118
645.000000	38.347183	-0.000124
646.000000	38.218832	-0.000128
647.000000	38.022470	-0.000128
648.000000	37.755354	-0.000122
649.000000	37.760027	-0.000117
650.000000	37.616482	-0.000114
651.000000	37.652363	-0.000115
652.000000	37.667653	-0.000121
653.000000	37.438043	-0.000126
654.000000	37.385560	-0.000128
655.000000	37.159214	-0.000124
656.000000	36.985238	-0.000117
657.000000	36.864056	-0.000113
658.000000	36.552646	-0.000110
659.000000	36.698593	-0.000114
660.000000	36.733539	-0.000124
661.000000	36.557113	-0.000130
662.000000	36.245620	-0.000131
663.000000	36.140046	-0.000126
664.000000	35.867094	-0.000112
665.000000	36.167832	-0.000104
666.000000	36.239975	-0.000105
667.000000	36.356795	-0.000114
668.000000	36.113667	-0.000123
669.000000	36.024189	-0.000129
670.000000	35.723897	-0.000127
671.000000	35.713178	-0.000117
672.000000	35.758387	-0.000111
673.000000	35.919899	-0.000110
674.000000	35.966982	-0.000110
675.000000	36.258373	-0.000119
676.000000	36.029695	-0.000127
677.000000	35.929914	-0.000127
678.000000	36.038115	-0.000126
679.000000	36.103591	-0.000119
680.000000	36.126890	-0.000112
681.000000	36.514831	-0.000116
682.000000	36.599441	-0.000126
683.000000	36.634957	-0.000134
684.000000	36.752251	-0.000137
685.000000	36.854904	-0.000135
686.000000	36.626413	-0.000125
687.000000	37.150267	-0.000119
688.000000	37.651310	-0.000127
689.000000	37.681543	-0.000135
690.000000	37.852812	-0.000141
691.000000	38.011419	-0.000147
692.000000	38.008488	-0.000143
693.000000	38.162222	-0.000136
694.000000	38.198486	-0.000130
695.000000	38.312923	-0.000132
696.000000	38.703158	-0.000143
697.000000	38.939809	-0.000157
698.000000	39.030265	-0.000167
699.000000	39.052256	-0.000165
700.000000	39.113369	-0.000157
701.000000	39.222386	-0.000151
702.000000	39.253538	-0.000149
703.000000	39.457911	-0.000156
704.000000	39.710270	-0.000175
705.000000	39.662248	-0.000185
706.000000	39.446519	-0.000179
707.000000	39.599053	-0.000172
708.000000	39.755463	-0.000166
709.000000	39.517106	-0.000155
710.000000	39.635715	-0.000157
711.000000	39.999434	-0.000180
712.000000	39.872543	-0.000196
713.000000	39.565706	-0.000190
714.000000	39.498532	-0.000175
715.000000	39.214311	-0.000159
716.000000	39.342053	-0.000154
717.000000	39.208793	-0.000159
718.000000	39.080553	-0.000168
719.000000	38.856459	-0.000179
720.000000	38.588768	-0.000180
721.000000	38.439243	-0.000174
722.000000	38.227930	-0.000163
723.000000	37.706639	-0.000149
724.000000	37.664937	-0.000146
725.000000	37.289395	-0.000151
726.000000	36.998698	-0.000158
727.000000	36.599527	-0.000161
728.000000	36.279467	-0.000158
729.000000	35.887036	-0.000147
730.000000	35.489305	-0.000136
731.000000	35.136350	-0.000130
732.000000	34.557377	-0.000129
733.000000	34.018919	-0.000133
734.000000	33.517296	-0.000138
735.000000	32.984053	-0.000136
736.000000	32.389918	-0.000129
737.000000	31.810637	-0.000122
738.000000	31.044234	-0.000113
739.000000	30.450442	-0.000110
740.000000	29.749818	-0.000110
741.000000	29.096706	-0.000110
742.000000	28.430826	-0.000110
743.000000	27.671530	-0.000106
744.000000	26.804542	-9.748578E-5
745.000000	26.065286	-9.130009E-5
746.000000	25.212697	-8.682510E-5
747.000000	24.428811	-8.448320E-5
748.000000	23.612863	-8.450377E-5
749.000000	22.759599	-8.288836E-5
750.000000	21.971573	-7.996540E-5
751.000000	21.145595	-7.580519E-5
752.000000	20.247973	-6.941480E-5
753.000000	19.374978	-6.425353E-5
754.000000	18.588873	-6.070937E-5
755.000000	17.736140	-5.828218E-5
756.000000	16.924054	-5.710213E-5
757.000000	16.104863	-5.484891E-5
758.000000	15.338967	-5.162831E-5
759.000000	14.553947	-4.813097E-5
760.000000	13.785358	-4.412217E-5
761.000000	13.027070	-4.037725E-5
762.000000	12.296185	-3.796360E-5
763.000000	11.635909	-3.649820E-5
764.000000	11.001484	-3.526124E-5
765.000000	10.353761	-3.357452E-5
766.000000	9.752919	-3.132319E-5
767.000000	9.152303	-2.875085E-5
768.000000	8.593722	-2.618745E-5
769.000000	8.066272	-2.429266E-5
770.000000	7.531453	-2.299311E-5
771.000000	7.040353	-2.205090E-5
772.000000	6.601903	-2.110421E-5
773.000000	6.174611	-1.978984E-5
774.000000	5.791701	-1.820808E-5
775.000000	5.415006	-1.647440E-5
776.000000	5.050787	-1.500687E-5
777.000000	4.719917	-1.410749E-5
778.000000	4.424770	-1.374493E-5
779.000000	4.140941	-1.341822E-5
780.000000	3.882639	-1.282788E-5
781.000000	3.631849	-1.185110E-5
782.000000	3.396194	-1.068774E-5
783.000000	3.169723	-9.703018E-6
784.000000	2.969620	-9.081165E-6
785.000000	2.779629	-8.845162E-6
786.000000	2.609535	-8.650431E-6
787.000000	2.451652	-8.292645E-6
788.000000	2.299238	-7.757189E-6
789.000000	2.166068	-7.010391E-6
790.000000	2.034506	-6.320900E-6
791.000000	1.906198	-5.855621E-6
792.000000	1.791684	-5.654613E-6
793.000000	1.687544	-5.606245E-6
794.000000	1.595728	-5.530400E-6
795.000000	1.509231	-5.290945E-6
796.000000	1.426837	-4.781981E-6
797.000000	1.344115	-4.276522E-6
798.000000	1.270323	-3.964131E-6
799.000000	1.198702	-3.795925E-6
800.000000	1.133218	-3.773136E-6
801.000000	1.077943	-3.791774E-6
802.000000	1.021066	-3.652506E-6
803.000000	0.970763	-3.349770E-6
804.000000	0.920649	-2.974915E-6
805.000000	0.872681	-2.669456E-6
806.000000	0.826367	-2.507816E-6
807.000000	0.787642	-2.499432E-6
808.000000	0.752446	-2.561414E-6
809.000000	0.717232	-2.545184E-6
810.000000	0.683508	-2.390562E-6
811.000000	0.651654	-2.183189E-6
812.000000	0.620647	-1.965068E-6
813.000000	0.591321	-1.819323E-6
814.000000	0.564243	-1.804457E-6
815.000000	0.539284	-1.840988E-6
816.000000	0.517165	-1.873051E-6
817.000000	0.494667	-1.813987E-6
818.000000	0.471695	-1.631851E-6
819.000000	0.451996	-1.451556E-6
820.000000	0.432157	-1.335828E-6
821.000000	0.413023	-1.303348E-6
822.000000	0.395865	-1.346525E-6
823.000000	0.380743	-1.394791E-6
824.000000	0.364807	-1.365877E-6
825.000000	0.348840	-1.267551E-6
826.000000	0.333707	-1.149247E-6
827.000000	0.320130	-1.063364E-6
828.000000	0.307060	-1.036896E-6
829.000000	0.294110	-1.045801E-6
830.000000	0.282642	-1.071298E-6
831.000000	0.272512	-1.081671E-6
832.000000	0.261804	-1.033731E-6
833.000000	0.251485	-9.421100E-7
834.000000	0.242163	-8.483703E-7
835.000000	0.231469	-7.884349E-7
836.000000	0.222484	-7.793014E-7
837.000000	0.213299	-7.871501E-7
838.000000	0.205744	-7.858853E-7
839.000000	0.198291	-7.636486E-7
840.000000	0.190412	-7.088707E-7
841.000000	0.182294	-6.367261E-7
842.000000	0.174634	-5.888557E-7
843.000000	0.167986	-5.774169E-7
844.000000	0.161024	-5.766013E-7
845.000000	0.154666	-5.757806E-7
846.000000	0.149154	-5.656115E-7
847.000000	0.143139	-5.286117E-7
848.000000	0.137345	-4.736567E-7
849.000000	0.132413	-4.303312E-7
850.000000	0.127262	-4.117888E-7
851.000000	0.122145	-4.081614E-7
852.000000	0.117279	-4.049880E-7
853.000000	0.112897	-3.967730E-7
854.000000	0.108612	-3.728542E-7
855.000000	0.104181	-3.389894E-7
856.000000	0.099959	-3.088964E-7
857.000000	0.095959	-2.883555E-7
858.000000	0.092461	-2.819111E-7
859.000000	0.088950	-2.798195E-7
860.000000	0.085212	-2.676178E-7
861.000000	0.082197	-2.475275E-7
862.000000	0.078815	-2.256979E-7
863.000000	0.075813	-2.060231E-7
864.000000	0.072917	-1.926356E-7
865.000000	0.070023	-1.851725E-7
866.000000	0.067227	-1.797880E-7
867.000000	0.064709	-1.750790E-7
868.000000	0.062215	-1.644516E-7
869.000000	0.059533	-1.469004E-7
870.000000	0.057353	-1.343745E-7
871.000000	0.055142	-1.274194E-7
872.000000	0.053005	-1.227233E-7
873.000000	0.050802	-1.184921E-7
874.000000	0.048775	-1.136970E-7
875.000000	0.046861	-1.069018E-7
876.000000	0.044939	-9.869393E-8
877.000000	0.042996	-9.055255E-8
878.000000	0.041563	-8.532347E-8
879.000000	0.039850	-8.099044E-8
880.000000	0.038199	-7.733345E-8
881.000000	0.036673	-7.412770E-8
882.000000	0.035269	-7.058802E-8
883.000000	0.033812	-6.651573E-8
884.000000	0.032379	-6.213776E-8
885.000000	0.031042	-5.764748E-8
886.000000	0.029826	-5.466791E-8
887.000000	0.028627	-5.299934E-8
888.000000	0.027441	-5.109851E-8
889.000000	0.026318	-4.887747E-8
890.000000	0.025333	-4.648992E-8
891.000000	0.024253	-4.339510E-8
892.000000	0.023240	-4.059003E-8
893.000000	0.022309	-3.895373E-8
894.000000	0.021418	-3.789725E-8
895.000000	0.020530	-3.622394E-8
896.000000	0.019649	-3.469562E-8
897.000000	0.018897	-3.360857E-8
898.000000	0.018098	-3.149654E-8
899.000000	0.017394	-2.945111E-8
900.000000	0.016694	-2.833489E-8
901.000000	0.015990	-2.733814E-8
902.000000	0.015274	-2.617246E-8
903.000000	0.014637	-2.500388E-8
904.000000	0.014059	-2.407143E-8
905.000000	0.013491	-2.321311E-8
906.000000	0.012935	-2.198567E-8
907.000000	0.012422	-2.103692E-8
908.000000	0.011887	-2.023985E-8
909.000000	0.011369	-1.917862E-8
910.000000	0.010885	-1.826585E-8
911.000000	0.010449	-1.755884E-8
912.000000	0.009999	-1.690271E-8
913.000000	0.009607	-1.633860E-8
914.000000	0.009205	-1.556736E-8
915.000000	0.008838	-1.483964E-8
916.000000	0.008460	-1.403285E-8
917.000000	0.008092	-1.328016E-8
918.000000	0.007750	-1.280638E-8
919.000000	0.007419	-1.227161E-8
920.000000	0.007110	-1.173747E-8
921.000000	0.006843	-1.138078E-8
922.000000	0.006561	-1.079021E-8
923.000000	0.006276	-1.015322E-8
924.000000	0.006009	-9.703071E-9
925.000000	0.005746	-9.189783E-9
926.000000	0.005508	-8.814261E-9
927.000000	0.005279	-8.480256E-9
928.000000	0.005060	-8.117437E-9
929.000000	0.004856	-7.779135E-9
930.000000	0.004652	-7.281669E-9
931.000000	0.004457	-6.825129E-9
932.000000	0.004265	-6.482503E-9
933.000000	0.004079	-6.126822E-9
934.000000	0.003914	-5.900370E-9
935.000000	0.003763	-5.731718E-9
936.000000	0.003599	-5.441595E-9
937.000000	0.003453	-5.155294E-9
938.000000	0.003314	-4.834445E-9
939.000000	0.003177	-4.579888E-9
940.000000	0.003050	-4.431818E-9
941.000000	0.002915	-4.224256E-9
942.000000	0.002788	-4.050015E-9
943.000000	0.002683	-3.882664E-9
944.000000	0.002576	-3.653165E-9
945.000000	0.002477	-3.457066E-9
946.000000	0.002377	-3.256213E-9
947.000000	0.002273	-3.061724E-9
948.000000	0.002186	-2.951964E-9
949.000000	0.002097	-2.846237E-9
950.000000	0.002009	-2.730182E-9
951.000000	0.001929	-2.607748E-9
952.000000	0.001859	-2.462988E-9
953.000000	0.001792	-2.343990E-9
954.000000	0.001717	-2.226623E-9
955.000000	0.001648	-2.122453E-9
956.000000	0.001582	-2.052973E-9
957.000000	0.001519	-1.963669E-9
958.000000	0.001462	-1.875350E-9
959.000000	0.001410	-1.788303E-9
960.000000	0.001360	-1.672009E-9
961.000000	0.001306	-1.577577E-9
962.000000	0.001261	-1.516585E-9
963.000000	0.001214	-1.462439E-9
964.000000	0.001166	-1.420945E-9
965.000000	0.001125	-1.361162E-9
966.000000	0.001085	-1.291489E-9
967.000000	0.001050	-1.241131E-9
968.000000	0.001016	-1.177969E-9
969.000000	0.000982	-1.126973E-9
970.000000	0.000945	-1.087755E-9
971.000000	0.000910	-1.050443E-9
972.000000	0.000877	-1.007500E-9
973.000000	0.000853	-9.604271E-10
974.000000	0.000829	-9.105512E-10
975.000000	0.000804	-8.690629E-10
976.000000	0.000777	-8.265900E-10
977.000000	0.000752	-8.022296E-10
978.000000	0.000726	-7.815409E-10
979.000000	0.000706	-7.549462E-10
980.000000	0.000685	-7.290604E-10
981.000000	0.000666	-7.025948E-10
982.000000	0.000647	-6.714770E-10
983.000000	0.000630	-6.487411E-10
984.000000	0.000612	-6.303408E-10
985.000000	0.000594	-6.147557E-10
986.000000	0.000575	-5.926247E-10
987.000000	0.000562	-5.698305E-10
988.000000	0.000548	-5.472061E-10
989.000000	0.000536	-5.263947E-10
990.000000	0.000526	-5.069734E-10
991.000000	0.000510	-4.928193E-10
992.000000	0.000495	-4.827065E-10
993.000000	0.000477	-4.694446E-10
994.000000	0.000470	-4.636374E-10
995.000000	0.000460	-4.507737E-10
996.000000	0.000450	-4.368665E-10
997.000000	0.000442	-4.251760E-10
998.000000	0.000434	-4.134680E-10
999.000000	0.000420	-4.028629E-10
1000.000000	0.000410	-3.940467E-10
1001.000000	0.000402	-3.838815E-10
1002.000000	0.000395	-3.755462E-10
1003.000000	0.000381	-3.565823E-10
1004.000000	0.000383	-3.556264E-10
1005.000000	0.000373	-3.475961E-10
1006.000000	0.000363	-3.418593E-10
1007.000000	0.000361	-3.447277E-10
1008.000000	0.000346	-3.327030E-10
1009.000000	0.000336	-3.209717E-10
1010.000000	0.000330	-3.131996E-10
1011.000000	0.000326	-3.083896E-10
1012.000000	0.000321	-3.052399E-10
1013.000000	0.000315	-3.039728E-10
1014.000000	0.000306	-2.988871E-10
1015.000000	0.000298	-2.912676E-10
1016.000000	0.000294	-2.874902E-10
1017.000000	0.000286	-2.806093E-10
1018.000000	0.000281	-2.791138E-10
1019.000000	0.000271	-2.757823E-10
1020.000000	0.000263	-2.766562E-10
1021.000000	0.000253	-2.753013E-10
1022.000000	0.000244	-2.714064E-10
1023.000000	0.000237	-2.687611E-10
1024.000000	0.000231	-2.673530E-10
1025.000000	0.000221	-2.635992E-10
1026.000000	0.000208	-2.620505E-10
1027.000000	0.000204	-2.608539E-10
1028.000000	0.000196	-2.566305E-10
1029.000000	0.000191	-2.524425E-10
1030.000000	0.000186	-2.474449E-10
1031.000000	0.000183	-2.448289E-10
1032.000000	0.000177	-2.396201E-10
1033.000000	0.000172	-2.361594E-10
1034.000000	0.000167	-2.330857E-10
1035.000000	0.000165	-2.290971E-10
1036.000000	0.000166	-2.231258E-10
1037.000000	0.000170	-2.157701E-10
1038.000000	0.000172	-2.062619E-10
1039.000000	0.000176	-2.025196E-10
1040.000000	0.000177	-1.980320E-10
1041.000000	0.000174	-1.922311E-10
1042.000000	0.000171	-1.895795E-10
1043.000000	0.000169	-1.867056E-10
1044.000000	0.000165	-1.843711E-10
1045.000000	0.000161	-1.801652E-10
1046.000000	0.000159	-1.798955E-10
1047.000000	0.000152	-1.768042E-10
1048.000000	0.000145	-1.740591E-10
1049.000000	0.000140	-1.739243E-10
1050.000000	0.000132	-1.700586E-10
1051.000000	0.000129	-1.697654E-10
1052.000000	0.000124	-1.676421E-10
1053.000000	0.000119	-1.672491E-10
1054.000000	0.000114	-1.658178E-10
1055.000000	0.000107	-1.630081E-10
1056.000000	0.000100	-1.631313E-10
1057.000000	9.422610E-5	-1.624392E-10
1058.000000	9.003935E-5	-1.647913E-10
1059.000000	8.430146E-5	-1.661756E-10
1060.000000	7.626023E-5	-1.674015E-10
1061.000000	6.728868E-5	-1.747864E-10
1062.000000	6.137334E-5	-1.885590E-10
1063.000000	4.926209E-5	-2.242343E-10
1064.000000	3.832368E-5	-3.105891E-10
1065.000000	3.407991E-5	-3.605944E-10
1066.000000	3.549299E-5	-2.851614E-10
1067.000000	4.256561E-5	-2.046133E-10
1068.000000	5.045022E-5	-1.782706E-10
1069.000000	5.983896E-5	-1.626501E-10
1070.000000	6.828460E-5	-1.451528E-10
1071.000000	7.416631E-5	-1.345711E-10
1072.000000	7.527403E-5	-1.278079E-10
1073.000000	7.540305E-5	-1.239190E-10
1074.000000	7.587068E-5	-1.201474E-10
1075.000000	7.819824E-5	-1.167570E-10
1076.000000	8.210270E-5	-1.155662E-10
1077.000000	8.485272E-5	-1.124516E-10
1078.000000	8.897648E-5	-1.131203E-10
1079.000000	8.699746E-5	-1.087621E-10
1080.000000	8.525116E-5	-1.059993E-10
1081.000000	8.739959E-5	-1.049787E-10
1082.000000	9.075101E-5	-1.041575E-10
1083.000000	9.093849E-5	-1.016117E-10
1084.000000	9.079991E-5	-9.971124E-11
1085.000000	9.128677E-5	-9.928881E-11
1086.000000	9.151456E-5	-9.895453E-11
1087.000000	9.293678E-5	-9.849696E-11
1088.000000	9.102217E-5	-9.530607E-11
1089.000000	9.180114E-5	-9.518292E-11
1090.000000	8.981679E-5	-9.181013E-11
1091.000000	9.047201E-5	-9.173384E-11
1092.000000	9.303564E-5	-9.370475E-11
1093.000000	8.840763E-5	-8.843738E-11
1094.000000	9.201951E-5	-9.167528E-11
1095.000000	8.847378E-5	-8.680082E-11
1096.000000	8.949566E-5	-8.673046E-11
1097.000000	9.002932E-5	-8.735801E-11
1098.000000	8.862503E-5	-8.548108E-11
1099.000000	8.561144E-5	-8.463052E-11
1100.000000	8.348009E-5	-8.462465E-11
